File: Data/GaN_130K_350ms/GaN_sample F_spot6_UVVIS_130 K_200um_350 ms 2x2mm1_19.txt
340.368	1	-2
341.565	1	6
342.763	1	-4
343.960	1	-11
345.157	1	-7
346.354	1	7
347.552	1	-2
348.749	1	1
349.946	1	6
351.143	1	4
352.340	1	11
353.537	1	-5
354.734	1	-8
355.931	1	-1
357.127	1	2
358.324	1	-5
359.521	1	-4
360.718	1	9
361.914	1	-5
363.111	1	6
364.308	1	-1
365.504	1	3
366.701	1	1
367.897	1	2
369.093	1	-4
370.290	1	5
371.486	1	-2
372.682	1	1
373.879	1	8
375.075	1	6
376.271	1	-6
377.467	1	13
378.663	1	5
379.859	1	-5
381.055	1	2
382.251	1	0
383.447	1	6
384.643	1	9
385.839	1	-1
387.035	1	7
388.230	1	-5
389.426	1	7
390.622	1	4
391.817	1	9
393.013	1	-4
394.208	1	-9
395.404	1	-3
396.599	1	-5
397.795	1	-9
398.990	1	2
400.186	1	-4
401.381	1	0
402.576	1	3
403.771	1	-2
404.967	1	4
406.162	1	-3
407.357	1	-9
408.552	1	-10
409.747	1	2
410.942	1	-2
412.137	1	-6
413.332	1	-4
414.526	1	9
415.721	1	-2
416.916	1	-2
418.111	1	0
419.305	1	-3
420.500	1	-2
421.695	1	-2
422.889	1	-4
424.084	1	2
425.278	1	-11
426.472	1	-2
427.667	1	-1
428.861	1	2
430.055	1	-4
431.250	1	2
432.444	1	9
433.638	1	4
434.832	1	-7
436.026	1	7
437.220	1	-3
438.414	1	-13
439.608	1	9
440.802	1	-9
441.996	1	7
443.190	1	0
444.384	1	-7
445.578	1	-7
446.771	1	0
447.965	1	8
449.159	1	2
450.352	1	7
451.546	1	6
452.739	1	4
453.933	1	7
455.126	1	-8
456.320	1	-2
457.513	1	-10
458.706	1	-5
459.899	1	4
461.093	1	7
462.286	1	-7
463.479	1	10
464.672	1	8
465.865	1	-11
467.058	1	-2
468.251	1	-3
469.444	1	-2
470.637	1	0
471.830	1	6
473.023	1	2
474.215	1	-3
475.408	1	10
476.601	1	-5
477.793	1	-9
478.986	1	1
480.179	1	4
481.371	1	6
482.564	1	-3
483.756	1	-2
484.948	1	-1
486.141	1	-1
487.333	1	-2
488.525	1	12
489.718	1	0
490.910	1	1
492.102	1	3
493.294	1	6
494.486	1	14
495.678	1	3
496.870	1	5
498.062	1	-2
499.254	1	4
500.446	1	-3
501.638	1	-3
502.829	1	-4
504.021	1	-5
505.213	1	-2
506.404	1	-4
507.596	1	-1
508.788	1	-6
509.979	1	-1
511.171	1	2
512.362	1	-10
513.553	1	4
514.745	1	6
515.936	1	14
517.127	1	-2
518.319	1	-7
519.510	1	3
520.701	1	-2
521.892	1	8
523.083	1	7
524.274	1	-1
525.465	1	6
526.656	1	8
527.847	1	4
529.038	1	-4
530.229	1	1
531.419	1	2
532.610	1	3
533.801	1	12
534.991	1	1
536.182	1	5
537.373	1	0
538.563	1	10
539.754	1	-8
540.944	1	4
542.134	1	1
543.325	1	7
544.515	1	7
545.705	1	-6
546.896	1	2
548.086	1	-3
549.276	1	-3
550.466	1	2
551.656	1	6
552.846	1	-3
554.036	1	-2
555.226	1	-1
556.416	1	9
557.606	1	-4
558.796	1	11
559.986	1	4
561.175	1	3
562.365	1	-2
563.555	1	6
564.744	1	8
565.934	1	-2
567.123	1	-2
568.313	1	-5
569.502	1	-2
570.692	1	5
571.881	1	-3
573.070	1	-3
574.260	1	2
575.449	1	10
576.638	1	0
577.827	1	-7
579.016	1	0
580.205	1	-4
581.394	1	7
582.583	1	9
583.772	1	4
584.961	1	0
586.150	1	12
587.339	1	0
588.528	1	2
589.717	1	-2
590.905	1	6
592.094	1	-4
593.283	1	-10
594.471	1	-5
595.660	1	-3
596.848	1	11
598.037	1	3
599.225	1	2
600.413	1	14
601.602	1	-3
602.790	1	1
603.978	1	3
605.166	1	7
606.355	1	4
607.543	1	-6
608.731	1	0
609.919	1	4
611.107	1	11
612.295	1	10
613.483	1	-3
614.671	1	5
615.858	1	-4
617.046	1	12
618.234	1	9
619.422	1	3
620.609	1	-8
621.797	1	9
622.985	1	10
624.172	1	-4
625.360	1	-3
626.547	1	6
627.735	1	-1
628.922	1	-6
630.109	1	1
631.297	1	-5
632.484	1	-6
633.671	1	-6
634.858	1	11
636.045	1	8
637.232	1	-6
638.419	1	4
639.606	1	3
640.793	1	-13
641.980	1	3
643.167	1	-3
644.354	1	-1
645.541	1	5
646.728	1	10
647.914	1	-8
649.101	1	-2
650.288	1	4
651.474	1	-6
652.661	1	-10
653.847	1	-2
655.034	1	-4
656.220	1	1
657.406	1	-4
658.593	1	5
659.779	1	4
660.965	1	4
662.152	1	3
663.338	1	0
664.524	1	-1
665.710	1	-2
666.896	1	0
668.082	1	3
669.268	1	-6
670.454	1	6
671.640	1	-3
672.826	1	-8
674.011	1	4
675.197	1	1
676.383	1	5
677.569	1	-4
678.754	1	8
679.940	1	-6
681.125	1	10
682.311	1	-1
683.496	1	-1
684.682	1	-3
685.867	1	-4
687.053	1	8
688.238	1	12
688.746	1	1