File: Data/GaN_130K_350ms/GaN_sample F_spot6_UVVIS_130 K_200um_350 ms 2x2mm1_308.txt
340.368	1	6
341.565	1	-3
342.763	1	-5
343.960	1	-8
345.157	1	-13
346.354	1	3
347.552	1	-5
348.749	1	7
349.946	1	5
351.143	1	8
352.340	1	4
353.537	1	7
354.734	1	1
355.931	1	3
357.127	1	-2
358.324	1	7
359.521	1	0
360.718	1	5
361.914	1	8
363.111	1	15
364.308	1	11
365.504	1	14
366.701	1	10
367.897	1	-2
369.093	1	7
370.290	1	10
371.486	1	11
372.682	1	10
373.879	1	18
375.075	1	12
376.271	1	-1
377.467	1	19
378.663	1	0
379.859	1	-4
381.055	1	2
382.251	1	3
383.447	1	0
384.643	1	3
385.839	1	2
387.035	1	13
388.230	1	-3
389.426	1	7
390.622	1	8
391.817	1	3
393.013	1	6
394.208	1	-3
395.404	1	-10
396.599	1	10
397.795	1	2
398.990	1	5
400.186	1	-1
401.381	1	1
402.576	1	-1
403.771	1	11
404.967	1	4
406.162	1	-6
407.357	1	6
408.552	1	-2
409.747	1	1
410.942	1	8
412.137	1	-6
413.332	1	4
414.526	1	-2
415.721	1	5
416.916	1	6
418.111	1	4
419.305	1	4
420.500	1	3
421.695	1	1
422.889	1	3
424.084	1	9
425.278	1	-9
426.472	1	-1
427.667	1	4
428.861	1	-2
430.055	1	-3
431.250	1	11
432.444	1	1
433.638	1	4
434.832	1	-5
436.026	1	9
437.220	1	-7
438.414	1	3
439.608	1	6
440.802	1	-6
441.996	1	15
443.190	1	1
444.384	1	1
445.578	1	0
446.771	1	1
447.965	1	8
449.159	1	1
450.352	1	14
451.546	1	15
452.739	1	13
453.933	1	3
455.126	1	-5
456.320	1	2
457.513	1	-6
458.706	1	-1
459.899	1	0
461.093	1	0
462.286	1	5
463.479	1	7
464.672	1	9
465.865	1	-3
467.058	1	1
468.251	1	1
469.444	1	5
470.637	1	3
471.830	1	9
473.023	1	7
474.215	1	-2
475.408	1	-1
476.601	1	3
477.793	1	3
478.986	1	5
480.179	1	-3
481.371	1	9
482.564	1	-7
483.756	1	-4
484.948	1	-1
486.141	1	2
487.333	1	8
488.525	1	5
489.718	1	3
490.910	1	-3
492.102	1	6
493.294	1	3
494.486	1	15
495.678	1	6
496.870	1	-6
498.062	1	-1
499.254	1	9
500.446	1	10
501.638	1	11
502.829	1	0
504.021	1	-4
505.213	1	-1
506.404	1	-2
507.596	1	2
508.788	1	2
509.979	1	-6
511.171	1	10
512.362	1	-7
513.553	1	6
514.745	1	-9
515.936	1	11
517.127	1	5
518.319	1	-4
519.510	1	-2
520.701	1	-2
521.892	1	0
523.083	1	-1
524.274	1	3
525.465	1	9
526.656	1	9
527.847	1	-3
529.038	1	5
530.229	1	8
531.419	1	3
532.610	1	-9
533.801	1	8
534.991	1	12
536.182	1	11
537.373	1	2
538.563	1	9
539.754	1	-7
540.944	1	2
542.134	1	5
543.325	1	-3
544.515	1	4
545.705	1	1
546.896	1	5
548.086	1	-8
549.276	1	-2
550.466	1	6
551.656	1	0
552.846	1	-1
554.036	1	1
555.226	1	4
556.416	1	7
557.606	1	-3
558.796	1	11
559.986	1	1
561.175	1	6
562.365	1	2
563.555	1	5
564.744	1	-4
565.934	1	-1
567.123	1	7
568.313	1	-2
569.502	1	-6
570.692	1	11
571.881	1	-4
573.070	1	-4
574.260	1	8
575.449	1	6
576.638	1	-1
577.827	1	-1
579.016	1	1
580.205	1	-5
581.394	1	4
582.583	1	11
583.772	1	1
584.961	1	-3
586.150	1	0
587.339	1	-1
588.528	1	5
589.717	1	3
590.905	1	9
592.094	1	4
593.283	1	2
594.471	1	4
595.660	1	-4
596.848	1	4
598.037	1	4
599.225	1	8
600.413	1	3
601.602	1	1
602.790	1	-4
603.978	1	4
605.166	1	5
606.355	1	7
607.543	1	1
608.731	1	2
609.919	1	6
611.107	1	4
612.295	1	10
613.483	1	-6
614.671	1	9
615.858	1	-5
617.046	1	2
618.234	1	-1
619.422	1	2
620.609	1	-4
621.797	1	6
622.985	1	-6
624.172	1	-3
625.360	1	5
626.547	1	-5
627.735	1	14
628.922	1	-3
630.109	1	6
631.297	1	-7
632.484	1	-10
633.671	1	-6
634.858	1	2
636.045	1	5
637.232	1	-5
638.419	1	11
639.606	1	6
640.793	1	-10
641.980	1	3
643.167	1	5
644.354	1	-5
645.541	1	-2
646.728	1	5
647.914	1	-5
649.101	1	-15
650.288	1	5
651.474	1	-2
652.661	1	-4
653.847	1	4
655.034	1	5
656.220	1	1
657.406	1	6
658.593	1	-4
659.779	1	6
660.965	1	3
662.152	1	-1
663.338	1	6
664.524	1	-7
665.710	1	4
666.896	1	0
668.082	1	5
669.268	1	-3
670.454	1	1
671.640	1	-2
672.826	1	2
674.011	1	-3
675.197	1	-4
676.383	1	5
677.569	1	1
678.754	1	0
679.940	1	-3
681.125	1	11
682.311	1	-10
683.496	1	2
684.682	1	-1
685.867	1	-1
687.053	1	10
688.238	1	12
688.746	1	7