File: Data/GaN_130K_350ms/GaN_sample F_spot6_UVVIS_130 K_200um_350 ms 2x2mm1_119.txt
340.368	1	4
341.565	1	2
342.763	1	3
343.960	1	-3
345.157	1	-7
346.354	1	-2
347.552	1	1
348.749	1	8
349.946	1	2
351.143	1	2
352.340	1	17
353.537	1	2
354.734	1	17
355.931	1	9
357.127	1	15
358.324	1	14
359.521	1	14
360.718	1	21
361.914	1	18
363.111	1	34
364.308	1	48
365.504	1	55
366.701	1	65
367.897	1	64
369.093	1	65
370.290	1	64
371.486	1	54
372.682	1	40
373.879	1	45
375.075	1	42
376.271	1	30
377.467	1	37
378.663	1	23
379.859	1	18
381.055	1	19
382.251	1	18
383.447	1	18
384.643	1	15
385.839	1	17
387.035	1	26
388.230	1	10
389.426	1	22
390.622	1	12
391.817	1	26
393.013	1	17
394.208	1	6
395.404	1	9
396.599	1	8
397.795	1	-5
398.990	1	11
400.186	1	5
401.381	1	18
402.576	1	3
403.771	1	16
404.967	1	16
406.162	1	5
407.357	1	18
408.552	1	0
409.747	1	6
410.942	1	6
412.137	1	7
413.332	1	6
414.526	1	14
415.721	1	9
416.916	1	-3
418.111	1	15
419.305	1	8
420.500	1	3
421.695	1	8
422.889	1	16
424.084	1	14
425.278	1	3
426.472	1	1
427.667	1	15
428.861	1	-1
430.055	1	1
431.250	1	17
432.444	1	17
433.638	1	11
434.832	1	7
436.026	1	14
437.220	1	4
438.414	1	7
439.608	1	11
440.802	1	-4
441.996	1	13
443.190	1	1
444.384	1	-11
445.578	1	-1
446.771	1	9
447.965	1	4
449.159	1	9
450.352	1	14
451.546	1	8
452.739	1	1
453.933	1	7
455.126	1	-3
456.320	1	8
457.513	1	10
458.706	1	13
459.899	1	8
461.093	1	9
462.286	1	5
463.479	1	14
464.672	1	9
465.865	1	-4
467.058	1	10
468.251	1	3
469.444	1	-8
470.637	1	10
471.830	1	7
473.023	1	11
474.215	1	2
475.408	1	5
476.601	1	3
477.793	1	9
478.986	1	-3
480.179	1	2
481.371	1	8
482.564	1	1
483.756	1	5
484.948	1	3
486.141	1	6
487.333	1	-6
488.525	1	8
489.718	1	11
490.910	1	-2
492.102	1	21
493.294	1	16
494.486	1	21
495.678	1	15
496.870	1	17
498.062	1	10
499.254	1	28
500.446	1	18
501.638	1	20
502.829	1	13
504.021	1	14
505.213	1	22
506.404	1	17
507.596	1	20
508.788	1	11
509.979	1	17
511.171	1	25
512.362	1	22
513.553	1	23
514.745	1	11
515.936	1	37
517.127	1	19
518.319	1	13
519.510	1	21
520.701	1	17
521.892	1	36
523.083	1	31
524.274	1	25
525.465	1	33
526.656	1	41
527.847	1	21
529.038	1	22
530.229	1	42
531.419	1	23
532.610	1	17
533.801	1	40
534.991	1	25
536.182	1	32
537.373	1	25
538.563	1	20
539.754	1	17
540.944	1	30
542.134	1	26
543.325	1	16
544.515	1	23
545.705	1	16
546.896	1	19
548.086	1	6
549.276	1	6
550.466	1	15
551.656	1	19
552.846	1	15
554.036	1	21
555.226	1	21
556.416	1	17
557.606	1	19
558.796	1	27
559.986	1	20
561.175	1	30
562.365	1	13
563.555	1	17
564.744	1	12
565.934	1	13
567.123	1	12
568.313	1	12
569.502	1	11
570.692	1	23
571.881	1	5
573.070	1	6
574.260	1	8
575.449	1	12
576.638	1	7
577.827	1	4
579.016	1	7
580.205	1	5
581.394	1	10
582.583	1	19
583.772	1	9
584.961	1	3
586.150	1	15
587.339	1	10
588.528	1	19
589.717	1	18
590.905	1	18
592.094	1	12
593.283	1	1
594.471	1	13
595.660	1	10
596.848	1	14
598.037	1	17
599.225	1	10
600.413	1	10
601.602	1	-2
602.790	1	-5
603.978	1	6
605.166	1	9
606.355	1	7
607.543	1	10
608.731	1	3
609.919	1	6
611.107	1	14
612.295	1	11
613.483	1	-2
614.671	1	11
615.858	1	-1
617.046	1	10
618.234	1	5
619.422	1	12
620.609	1	-1
621.797	1	0
622.985	1	19
624.172	1	2
625.360	1	1
626.547	1	13
627.735	1	6
628.922	1	3
630.109	1	9
631.297	1	5
632.484	1	-4
633.671	1	-5
634.858	1	2
636.045	1	18
637.232	1	-7
638.419	1	7
639.606	1	5
640.793	1	-1
641.980	1	0
643.167	1	13
644.354	1	-5
645.541	1	-1
646.728	1	9
647.914	1	1
649.101	1	-4
650.288	1	14
651.474	1	1
652.661	1	-13
653.847	1	6
655.034	1	4
656.220	1	0
657.406	1	9
658.593	1	4
659.779	1	9
660.965	1	5
662.152	1	-2
663.338	1	2
664.524	1	3
665.710	1	3
666.896	1	4
668.082	1	5
669.268	1	-6
670.454	1	3
671.640	1	-13
672.826	1	5
674.011	1	0
675.197	1	-9
676.383	1	10
677.569	1	5
678.754	1	10
679.940	1	4
681.125	1	8
682.311	1	-6
683.496	1	4
684.682	1	3
685.867	1	-2
687.053	1	7
688.238	1	9
688.746	1	7