File: Data/GaN_130K_350ms/GaN_sample F_spot6_UVVIS_130 K_200um_350 ms 2x2mm1_175.txt
340.368	1	6
341.565	1	1
342.763	1	5
343.960	1	-4
345.157	1	-8
346.354	1	-2
347.552	1	9
348.749	1	4
349.946	1	1
351.143	1	1
352.340	1	11
353.537	1	-5
354.734	1	10
355.931	1	8
357.127	1	5
358.324	1	0
359.521	1	1
360.718	1	6
361.914	1	7
363.111	1	14
364.308	1	14
365.504	1	14
366.701	1	35
367.897	1	28
369.093	1	27
370.290	1	27
371.486	1	25
372.682	1	20
373.879	1	19
375.075	1	17
376.271	1	16
377.467	1	21
378.663	1	15
379.859	1	5
381.055	1	9
382.251	1	10
383.447	1	11
384.643	1	4
385.839	1	7
387.035	1	15
388.230	1	1
389.426	1	9
390.622	1	7
391.817	1	15
393.013	1	10
394.208	1	3
395.404	1	-3
396.599	1	10
397.795	1	1
398.990	1	10
400.186	1	0
401.381	1	3
402.576	1	7
403.771	1	5
404.967	1	2
406.162	1	4
407.357	1	14
408.552	1	8
409.747	1	11
410.942	1	13
412.137	1	-6
413.332	1	-4
414.526	1	6
415.721	1	3
416.916	1	1
418.111	1	13
419.305	1	12
420.500	1	5
421.695	1	5
422.889	1	7
424.084	1	9
425.278	1	4
426.472	1	7
427.667	1	6
428.861	1	8
430.055	1	-1
431.250	1	1
432.444	1	6
433.638	1	15
434.832	1	1
436.026	1	10
437.220	1	7
438.414	1	-5
439.608	1	17
440.802	1	-1
441.996	1	12
443.190	1	7
444.384	1	-3
445.578	1	7
446.771	1	8
447.965	1	6
449.159	1	14
450.352	1	10
451.546	1	9
452.739	1	10
453.933	1	7
455.126	1	-1
456.320	1	4
457.513	1	-6
458.706	1	8
459.899	1	10
461.093	1	13
462.286	1	10
463.479	1	11
464.672	1	13
465.865	1	-7
467.058	1	8
468.251	1	7
469.444	1	0
470.637	1	5
471.830	1	5
473.023	1	8
474.215	1	5
475.408	1	4
476.601	1	1
477.793	1	10
478.986	1	0
480.179	1	-4
481.371	1	14
482.564	1	-8
483.756	1	4
484.948	1	-2
486.141	1	1
487.333	1	-6
488.525	1	9
489.718	1	6
490.910	1	3
492.102	1	12
493.294	1	14
494.486	1	14
495.678	1	2
496.870	1	5
498.062	1	-3
499.254	1	5
500.446	1	3
501.638	1	9
502.829	1	3
504.021	1	7
505.213	1	11
506.404	1	6
507.596	1	-3
508.788	1	2
509.979	1	6
511.171	1	13
512.362	1	0
513.553	1	16
514.745	1	-1
515.936	1	16
517.127	1	7
518.319	1	8
519.510	1	8
520.701	1	4
521.892	1	15
523.083	1	8
524.274	1	-1
525.465	1	15
526.656	1	9
527.847	1	15
529.038	1	-7
530.229	1	7
531.419	1	17
532.610	1	6
533.801	1	24
534.991	1	15
536.182	1	13
537.373	1	9
538.563	1	6
539.754	1	8
540.944	1	13
542.134	1	10
543.325	1	11
544.515	1	7
545.705	1	2
546.896	1	11
548.086	1	-8
549.276	1	0
550.466	1	18
551.656	1	5
552.846	1	6
554.036	1	4
555.226	1	9
556.416	1	4
557.606	1	6
558.796	1	10
559.986	1	12
561.175	1	11
562.365	1	13
563.555	1	23
564.744	1	8
565.934	1	-1
567.123	1	8
568.313	1	0
569.502	1	10
570.692	1	13
571.881	1	-6
573.070	1	6
574.260	1	5
575.449	1	9
576.638	1	-7
577.827	1	2
579.016	1	6
580.205	1	-1
581.394	1	-2
582.583	1	10
583.772	1	2
584.961	1	-1
586.150	1	15
587.339	1	5
588.528	1	12
589.717	1	5
590.905	1	14
592.094	1	2
593.283	1	1
594.471	1	3
595.660	1	4
596.848	1	17
598.037	1	8
599.225	1	7
600.413	1	11
601.602	1	3
602.790	1	6
603.978	1	6
605.166	1	11
606.355	1	11
607.543	1	9
608.731	1	5
609.919	1	6
611.107	1	3
612.295	1	14
613.483	1	7
614.671	1	5
615.858	1	0
617.046	1	2
618.234	1	3
619.422	1	4
620.609	1	-8
621.797	1	7
622.985	1	-4
624.172	1	-10
625.360	1	2
626.547	1	7
627.735	1	9
628.922	1	-5
630.109	1	10
631.297	1	-2
632.484	1	-10
633.671	1	-3
634.858	1	15
636.045	1	6
637.232	1	-5
638.419	1	-2
639.606	1	4
640.793	1	-9
641.980	1	0
643.167	1	2
644.354	1	1
645.541	1	3
646.728	1	15
647.914	1	2
649.101	1	2
650.288	1	3
651.474	1	0
652.661	1	4
653.847	1	2
655.034	1	-3
656.220	1	-1
657.406	1	1
658.593	1	1
659.779	1	1
660.965	1	0
662.152	1	0
663.338	1	1
664.524	1	2
665.710	1	1
666.896	1	1
668.082	1	7
669.268	1	9
670.454	1	-2
671.640	1	-4
672.826	1	-5
674.011	1	4
675.197	1	-3
676.383	1	5
677.569	1	3
678.754	1	8
679.940	1	4
681.125	1	4
682.311	1	-3
683.496	1	-4
684.682	1	3
685.867	1	4
687.053	1	-4
688.238	1	12
688.746	1	6