File: Data/GaN_130K_350ms/GaN_sample F_spot6_UVVIS_130 K_200um_350 ms 2x2mm1_215.txt
340.368	1	7
341.565	1	-3
342.763	1	6
343.960	1	-9
345.157	1	-2
346.354	1	-1
347.552	1	-5
348.749	1	12
349.946	1	-1
351.143	1	-5
352.340	1	11
353.537	1	-4
354.734	1	2
355.931	1	7
357.127	1	4
358.324	1	3
359.521	1	1
360.718	1	13
361.914	1	6
363.111	1	8
364.308	1	18
365.504	1	11
366.701	1	9
367.897	1	13
369.093	1	8
370.290	1	21
371.486	1	14
372.682	1	6
373.879	1	21
375.075	1	18
376.271	1	10
377.467	1	10
378.663	1	13
379.859	1	4
381.055	1	3
382.251	1	6
383.447	1	6
384.643	1	3
385.839	1	10
387.035	1	13
388.230	1	6
389.426	1	14
390.622	1	8
391.817	1	14
393.013	1	16
394.208	1	1
395.404	1	-6
396.599	1	9
397.795	1	-5
398.990	1	5
400.186	1	1
401.381	1	7
402.576	1	7
403.771	1	3
404.967	1	4
406.162	1	2
407.357	1	4
408.552	1	2
409.747	1	3
410.942	1	2
412.137	1	3
413.332	1	1
414.526	1	0
415.721	1	4
416.916	1	-2
418.111	1	7
419.305	1	-4
420.500	1	12
421.695	1	2
422.889	1	1
424.084	1	3
425.278	1	-3
426.472	1	7
427.667	1	11
428.861	1	5
430.055	1	1
431.250	1	4
432.444	1	6
433.638	1	4
434.832	1	3
436.026	1	5
437.220	1	-2
438.414	1	-1
439.608	1	7
440.802	1	-4
441.996	1	11
443.190	1	6
444.384	1	0
445.578	1	-3
446.771	1	10
447.965	1	6
449.159	1	11
450.352	1	15
451.546	1	13
452.739	1	4
453.933	1	15
455.126	1	-9
456.320	1	2
457.513	1	-7
458.706	1	4
459.899	1	-1
461.093	1	8
462.286	1	8
463.479	1	7
464.672	1	13
465.865	1	-8
467.058	1	12
468.251	1	9
469.444	1	2
470.637	1	-2
471.830	1	-5
473.023	1	6
474.215	1	3
475.408	1	2
476.601	1	-3
477.793	1	-7
478.986	1	0
480.179	1	0
481.371	1	8
482.564	1	7
483.756	1	2
484.948	1	1
486.141	1	5
487.333	1	0
488.525	1	3
489.718	1	7
490.910	1	-2
492.102	1	9
493.294	1	7
494.486	1	20
495.678	1	8
496.870	1	8
498.062	1	-1
499.254	1	15
500.446	1	11
501.638	1	10
502.829	1	2
504.021	1	1
505.213	1	11
506.404	1	6
507.596	1	-4
508.788	1	8
509.979	1	1
511.171	1	13
512.362	1	9
513.553	1	10
514.745	1	2
515.936	1	14
517.127	1	5
518.319	1	-1
519.510	1	7
520.701	1	8
521.892	1	2
523.083	1	9
524.274	1	4
525.465	1	3
526.656	1	3
527.847	1	7
529.038	1	-4
530.229	1	8
531.419	1	14
532.610	1	4
533.801	1	13
534.991	1	2
536.182	1	18
537.373	1	12
538.563	1	7
539.754	1	9
540.944	1	14
542.134	1	2
543.325	1	11
544.515	1	-1
545.705	1	1
546.896	1	5
548.086	1	1
549.276	1	0
550.466	1	13
551.656	1	5
552.846	1	4
554.036	1	-2
555.226	1	4
556.416	1	8
557.606	1	7
558.796	1	13
559.986	1	11
561.175	1	9
562.365	1	6
563.555	1	11
564.744	1	4
565.934	1	3
567.123	1	10
568.313	1	-2
569.502	1	4
570.692	1	14
571.881	1	5
573.070	1	5
574.260	1	-5
575.449	1	6
576.638	1	-5
577.827	1	0
579.016	1	6
580.205	1	-5
581.394	1	4
582.583	1	11
583.772	1	1
584.961	1	-5
586.150	1	10
587.339	1	1
588.528	1	10
589.717	1	-8
590.905	1	7
592.094	1	5
593.283	1	-13
594.471	1	9
595.660	1	2
596.848	1	4
598.037	1	8
599.225	1	2
600.413	1	6
601.602	1	1
602.790	1	0
603.978	1	-3
605.166	1	11
606.355	1	7
607.543	1	-3
608.731	1	0
609.919	1	-2
611.107	1	-4
612.295	1	1
613.483	1	-10
614.671	1	12
615.858	1	-1
617.046	1	6
618.234	1	3
619.422	1	3
620.609	1	4
621.797	1	-4
622.985	1	10
624.172	1	1
625.360	1	7
626.547	1	4
627.735	1	11
628.922	1	-9
630.109	1	3
631.297	1	5
632.484	1	-3
633.671	1	-3
634.858	1	3
636.045	1	12
637.232	1	-2
638.419	1	4
639.606	1	5
640.793	1	-7
641.980	1	-5
643.167	1	2
644.354	1	-11
645.541	1	-1
646.728	1	5
647.914	1	-3
649.101	1	-7
650.288	1	13
651.474	1	2
652.661	1	-2
653.847	1	1
655.034	1	1
656.220	1	2
657.406	1	-4
658.593	1	1
659.779	1	3
660.965	1	4
662.152	1	-12
663.338	1	0
664.524	1	-5
665.710	1	15
666.896	1	1
668.082	1	2
669.268	1	-2
670.454	1	7
671.640	1	-6
672.826	1	6
674.011	1	1
675.197	1	-2
676.383	1	11
677.569	1	4
678.754	1	7
679.940	1	5
681.125	1	12
682.311	1	-13
683.496	1	-1
684.682	1	-4
685.867	1	0
687.053	1	13
688.238	1	17
688.746	1	7