File: Data/GaN_130K_350ms/GaN_sample F_spot6_UVVIS_130 K_200um_350 ms 2x2mm1_153.txt
340.368	1	-2
341.565	1	7
342.763	1	7
343.960	1	-7
345.157	1	-4
346.354	1	6
347.552	1	2
348.749	1	9
349.946	1	8
351.143	1	8
352.340	1	11
353.537	1	2
354.734	1	3
355.931	1	3
357.127	1	4
358.324	1	6
359.521	1	3
360.718	1	14
361.914	1	16
363.111	1	26
364.308	1	24
365.504	1	37
366.701	1	24
367.897	1	30
369.093	1	28
370.290	1	39
371.486	1	23
372.682	1	15
373.879	1	25
375.075	1	19
376.271	1	27
377.467	1	18
378.663	1	21
379.859	1	10
381.055	1	18
382.251	1	13
383.447	1	1
384.643	1	15
385.839	1	8
387.035	1	20
388.230	1	-2
389.426	1	14
390.622	1	10
391.817	1	18
393.013	1	7
394.208	1	6
395.404	1	-4
396.599	1	3
397.795	1	0
398.990	1	8
400.186	1	2
401.381	1	7
402.576	1	8
403.771	1	8
404.967	1	7
406.162	1	5
407.357	1	8
408.552	1	6
409.747	1	4
410.942	1	12
412.137	1	0
413.332	1	4
414.526	1	10
415.721	1	1
416.916	1	7
418.111	1	10
419.305	1	1
420.500	1	11
421.695	1	5
422.889	1	10
424.084	1	11
425.278	1	3
426.472	1	-2
427.667	1	16
428.861	1	2
430.055	1	3
431.250	1	20
432.444	1	7
433.638	1	7
434.832	1	7
436.026	1	12
437.220	1	0
438.414	1	-1
439.608	1	9
440.802	1	1
441.996	1	13
443.190	1	4
444.384	1	7
445.578	1	2
446.771	1	12
447.965	1	-4
449.159	1	16
450.352	1	14
451.546	1	14
452.739	1	13
453.933	1	4
455.126	1	-7
456.320	1	-2
457.513	1	-11
458.706	1	2
459.899	1	1
461.093	1	12
462.286	1	12
463.479	1	16
464.672	1	5
465.865	1	-2
467.058	1	9
468.251	1	9
469.444	1	7
470.637	1	8
471.830	1	5
473.023	1	13
474.215	1	-3
475.408	1	10
476.601	1	0
477.793	1	-4
478.986	1	-4
480.179	1	-1
481.371	1	7
482.564	1	-1
483.756	1	3
484.948	1	-5
486.141	1	7
487.333	1	-7
488.525	1	5
489.718	1	12
490.910	1	-6
492.102	1	6
493.294	1	11
494.486	1	13
495.678	1	2
496.870	1	3
498.062	1	0
499.254	1	0
500.446	1	3
501.638	1	11
502.829	1	5
504.021	1	1
505.213	1	6
506.404	1	0
507.596	1	2
508.788	1	3
509.979	1	8
511.171	1	24
512.362	1	16
513.553	1	16
514.745	1	5
515.936	1	22
517.127	1	9
518.319	1	0
519.510	1	9
520.701	1	17
521.892	1	16
523.083	1	7
524.274	1	7
525.465	1	11
526.656	1	19
527.847	1	16
529.038	1	8
530.229	1	13
531.419	1	19
532.610	1	9
533.801	1	30
534.991	1	6
536.182	1	17
537.373	1	12
538.563	1	18
539.754	1	11
540.944	1	11
542.134	1	8
543.325	1	3
544.515	1	1
545.705	1	6
546.896	1	7
548.086	1	5
549.276	1	0
550.466	1	24
551.656	1	9
552.846	1	9
554.036	1	5
555.226	1	7
556.416	1	7
557.606	1	5
558.796	1	20
559.986	1	2
561.175	1	16
562.365	1	8
563.555	1	22
564.744	1	12
565.934	1	6
567.123	1	10
568.313	1	-2
569.502	1	7
570.692	1	16
571.881	1	0
573.070	1	10
574.260	1	9
575.449	1	16
576.638	1	-9
577.827	1	-8
579.016	1	-1
580.205	1	0
581.394	1	2
582.583	1	19
583.772	1	7
584.961	1	2
586.150	1	9
587.339	1	-2
588.528	1	9
589.717	1	0
590.905	1	10
592.094	1	11
593.283	1	-5
594.471	1	8
595.660	1	6
596.848	1	9
598.037	1	2
599.225	1	2
600.413	1	12
601.602	1	0
602.790	1	-3
603.978	1	10
605.166	1	11
606.355	1	6
607.543	1	14
608.731	1	6
609.919	1	13
611.107	1	8
612.295	1	15
613.483	1	11
614.671	1	7
615.858	1	-11
617.046	1	7
618.234	1	2
619.422	1	3
620.609	1	0
621.797	1	3
622.985	1	8
624.172	1	3
625.360	1	3
626.547	1	9
627.735	1	15
628.922	1	-3
630.109	1	12
631.297	1	2
632.484	1	-6
633.671	1	-1
634.858	1	4
636.045	1	12
637.232	1	-1
638.419	1	6
639.606	1	14
640.793	1	-6
641.980	1	-5
643.167	1	8
644.354	1	1
645.541	1	7
646.728	1	15
647.914	1	6
649.101	1	-3
650.288	1	4
651.474	1	1
652.661	1	3
653.847	1	-5
655.034	1	2
656.220	1	6
657.406	1	5
658.593	1	0
659.779	1	8
660.965	1	0
662.152	1	-1
663.338	1	3
664.524	1	-3
665.710	1	4
666.896	1	5
668.082	1	6
669.268	1	2
670.454	1	-3
671.640	1	-8
672.826	1	2
674.011	1	1
675.197	1	2
676.383	1	6
677.569	1	4
678.754	1	1
679.940	1	-3
681.125	1	9
682.311	1	-10
683.496	1	5
684.682	1	1
685.867	1	12
687.053	1	8
688.238	1	13
688.746	1	3