File: Data/GaN_130K_350ms/GaN_sample F_spot6_UVVIS_130 K_200um_350 ms 2x2mm1_216.txt
340.368	1	8
341.565	1	7
342.763	1	9
343.960	1	-3
345.157	1	-12
346.354	1	3
347.552	1	0
348.749	1	0
349.946	1	1
351.143	1	2
352.340	1	11
353.537	1	-11
354.734	1	-3
355.931	1	5
357.127	1	4
358.324	1	-3
359.521	1	-12
360.718	1	2
361.914	1	11
363.111	1	15
364.308	1	19
365.504	1	18
366.701	1	24
367.897	1	15
369.093	1	18
370.290	1	23
371.486	1	13
372.682	1	17
373.879	1	10
375.075	1	13
376.271	1	11
377.467	1	15
378.663	1	3
379.859	1	2
381.055	1	15
382.251	1	0
383.447	1	3
384.643	1	15
385.839	1	9
387.035	1	19
388.230	1	9
389.426	1	13
390.622	1	3
391.817	1	15
393.013	1	6
394.208	1	2
395.404	1	-4
396.599	1	14
397.795	1	9
398.990	1	7
400.186	1	5
401.381	1	11
402.576	1	4
403.771	1	10
404.967	1	7
406.162	1	-2
407.357	1	8
408.552	1	-5
409.747	1	0
410.942	1	0
412.137	1	-1
413.332	1	-4
414.526	1	9
415.721	1	4
416.916	1	7
418.111	1	5
419.305	1	4
420.500	1	1
421.695	1	-1
422.889	1	6
424.084	1	6
425.278	1	6
426.472	1	6
427.667	1	6
428.861	1	2
430.055	1	18
431.250	1	11
432.444	1	7
433.638	1	5
434.832	1	3
436.026	1	13
437.220	1	-2
438.414	1	0
439.608	1	6
440.802	1	-10
441.996	1	15
443.190	1	6
444.384	1	-2
445.578	1	-7
446.771	1	-3
447.965	1	7
449.159	1	2
450.352	1	1
451.546	1	18
452.739	1	8
453.933	1	8
455.126	1	-3
456.320	1	-1
457.513	1	2
458.706	1	6
459.899	1	1
461.093	1	14
462.286	1	7
463.479	1	3
464.672	1	10
465.865	1	-4
467.058	1	8
468.251	1	8
469.444	1	-2
470.637	1	14
471.830	1	4
473.023	1	4
474.215	1	3
475.408	1	14
476.601	1	6
477.793	1	-4
478.986	1	-5
480.179	1	-3
481.371	1	9
482.564	1	-4
483.756	1	3
484.948	1	1
486.141	1	0
487.333	1	1
488.525	1	4
489.718	1	3
490.910	1	-4
492.102	1	15
493.294	1	6
494.486	1	14
495.678	1	1
496.870	1	7
498.062	1	-3
499.254	1	5
500.446	1	1
501.638	1	5
502.829	1	-1
504.021	1	-3
505.213	1	5
506.404	1	-1
507.596	1	1
508.788	1	4
509.979	1	-7
511.171	1	9
512.362	1	2
513.553	1	10
514.745	1	-4
515.936	1	19
517.127	1	4
518.319	1	2
519.510	1	-8
520.701	1	1
521.892	1	14
523.083	1	6
524.274	1	-7
525.465	1	7
526.656	1	6
527.847	1	10
529.038	1	5
530.229	1	10
531.419	1	2
532.610	1	5
533.801	1	18
534.991	1	2
536.182	1	7
537.373	1	14
538.563	1	14
539.754	1	3
540.944	1	14
542.134	1	6
543.325	1	-2
544.515	1	6
545.705	1	6
546.896	1	-4
548.086	1	1
549.276	1	6
550.466	1	10
551.656	1	8
552.846	1	3
554.036	1	6
555.226	1	-1
556.416	1	8
557.606	1	-2
558.796	1	11
559.986	1	12
561.175	1	8
562.365	1	5
563.555	1	6
564.744	1	4
565.934	1	-2
567.123	1	9
568.313	1	0
569.502	1	4
570.692	1	12
571.881	1	1
573.070	1	11
574.260	1	6
575.449	1	11
576.638	1	3
577.827	1	-6
579.016	1	4
580.205	1	-5
581.394	1	2
582.583	1	11
583.772	1	1
584.961	1	0
586.150	1	16
587.339	1	2
588.528	1	9
589.717	1	-11
590.905	1	11
592.094	1	4
593.283	1	-1
594.471	1	7
595.660	1	10
596.848	1	6
598.037	1	7
599.225	1	8
600.413	1	10
601.602	1	-3
602.790	1	2
603.978	1	5
605.166	1	10
606.355	1	2
607.543	1	9
608.731	1	7
609.919	1	10
611.107	1	10
612.295	1	9
613.483	1	-5
614.671	1	5
615.858	1	-9
617.046	1	4
618.234	1	4
619.422	1	8
620.609	1	-7
621.797	1	-5
622.985	1	7
624.172	1	10
625.360	1	5
626.547	1	7
627.735	1	12
628.922	1	-1
630.109	1	10
631.297	1	-1
632.484	1	0
633.671	1	-8
634.858	1	6
636.045	1	11
637.232	1	-7
638.419	1	1
639.606	1	5
640.793	1	-6
641.980	1	-4
643.167	1	10
644.354	1	-5
645.541	1	-6
646.728	1	6
647.914	1	-2
649.101	1	-9
650.288	1	6
651.474	1	1
652.661	1	4
653.847	1	0
655.034	1	-5
656.220	1	-7
657.406	1	1
658.593	1	4
659.779	1	4
660.965	1	3
662.152	1	1
663.338	1	7
664.524	1	-6
665.710	1	4
666.896	1	2
668.082	1	6
669.268	1	3
670.454	1	6
671.640	1	-14
672.826	1	-2
674.011	1	1
675.197	1	1
676.383	1	2
677.569	1	-5
678.754	1	10
679.940	1	6
681.125	1	4
682.311	1	-7
683.496	1	-2
684.682	1	1
685.867	1	4
687.053	1	5
688.238	1	2
688.746	1	8