File: Data/GaN_130K_350ms/GaN_sample F_spot6_UVVIS_130 K_200um_350 ms 2x2mm1_243.txt
340.368	1	6
341.565	1	4
342.763	1	1
343.960	1	-8
345.157	1	-10
346.354	1	-2
347.552	1	1
348.749	1	7
349.946	1	1
351.143	1	0
352.340	1	12
353.537	1	0
354.734	1	1
355.931	1	6
357.127	1	-3
358.324	1	3
359.521	1	4
360.718	1	6
361.914	1	-6
363.111	1	15
364.308	1	13
365.504	1	12
366.701	1	19
367.897	1	-2
369.093	1	6
370.290	1	9
371.486	1	11
372.682	1	6
373.879	1	11
375.075	1	16
376.271	1	8
377.467	1	10
378.663	1	2
379.859	1	0
381.055	1	-6
382.251	1	0
383.447	1	4
384.643	1	7
385.839	1	13
387.035	1	11
388.230	1	-1
389.426	1	10
390.622	1	4
391.817	1	19
393.013	1	2
394.208	1	4
395.404	1	-9
396.599	1	8
397.795	1	-13
398.990	1	-4
400.186	1	-2
401.381	1	5
402.576	1	10
403.771	1	9
404.967	1	8
406.162	1	-3
407.357	1	1
408.552	1	0
409.747	1	-7
410.942	1	5
412.137	1	-4
413.332	1	3
414.526	1	-7
415.721	1	4
416.916	1	-1
418.111	1	-1
419.305	1	8
420.500	1	12
421.695	1	-1
422.889	1	1
424.084	1	8
425.278	1	-2
426.472	1	4
427.667	1	5
428.861	1	-2
430.055	1	-1
431.250	1	6
432.444	1	3
433.638	1	-5
434.832	1	-4
436.026	1	6
437.220	1	-12
438.414	1	0
439.608	1	12
440.802	1	-8
441.996	1	1
443.190	1	6
444.384	1	2
445.578	1	-6
446.771	1	12
447.965	1	5
449.159	1	10
450.352	1	11
451.546	1	0
452.739	1	10
453.933	1	0
455.126	1	-6
456.320	1	-1
457.513	1	-11
458.706	1	8
459.899	1	-9
461.093	1	12
462.286	1	7
463.479	1	13
464.672	1	7
465.865	1	-12
467.058	1	-2
468.251	1	6
469.444	1	6
470.637	1	2
471.830	1	1
473.023	1	10
474.215	1	0
475.408	1	6
476.601	1	5
477.793	1	-7
478.986	1	0
480.179	1	15
481.371	1	10
482.564	1	4
483.756	1	-2
484.948	1	4
486.141	1	-4
487.333	1	5
488.525	1	3
489.718	1	7
490.910	1	-13
492.102	1	3
493.294	1	5
494.486	1	14
495.678	1	4
496.870	1	4
498.062	1	-4
499.254	1	7
500.446	1	7
501.638	1	3
502.829	1	1
504.021	1	-2
505.213	1	0
506.404	1	2
507.596	1	0
508.788	1	-4
509.979	1	-1
511.171	1	10
512.362	1	5
513.553	1	5
514.745	1	6
515.936	1	12
517.127	1	7
518.319	1	3
519.510	1	1
520.701	1	-3
521.892	1	3
523.083	1	5
524.274	1	-4
525.465	1	15
526.656	1	8
527.847	1	8
529.038	1	-4
530.229	1	3
531.419	1	6
532.610	1	0
533.801	1	10
534.991	1	-1
536.182	1	2
537.373	1	10
538.563	1	10
539.754	1	2
540.944	1	3
542.134	1	7
543.325	1	5
544.515	1	1
545.705	1	2
546.896	1	5
548.086	1	-12
549.276	1	0
550.466	1	7
551.656	1	7
552.846	1	0
554.036	1	8
555.226	1	6
556.416	1	5
557.606	1	-5
558.796	1	9
559.986	1	-5
561.175	1	12
562.365	1	10
563.555	1	8
564.744	1	2
565.934	1	-7
567.123	1	7
568.313	1	-7
569.502	1	-5
570.692	1	8
571.881	1	0
573.070	1	-3
574.260	1	3
575.449	1	11
576.638	1	-5
577.827	1	1
579.016	1	5
580.205	1	3
581.394	1	-3
582.583	1	5
583.772	1	-1
584.961	1	-1
586.150	1	16
587.339	1	6
588.528	1	10
589.717	1	-6
590.905	1	11
592.094	1	-1
593.283	1	-7
594.471	1	4
595.660	1	10
596.848	1	1
598.037	1	6
599.225	1	3
600.413	1	5
601.602	1	4
602.790	1	-1
603.978	1	4
605.166	1	6
606.355	1	8
607.543	1	2
608.731	1	0
609.919	1	7
611.107	1	8
612.295	1	6
613.483	1	2
614.671	1	7
615.858	1	-3
617.046	1	10
618.234	1	5
619.422	1	0
620.609	1	-10
621.797	1	1
622.985	1	7
624.172	1	9
625.360	1	-9
626.547	1	10
627.735	1	15
628.922	1	-3
630.109	1	6
631.297	1	-7
632.484	1	-11
633.671	1	0
634.858	1	11
636.045	1	15
637.232	1	-4
638.419	1	3
639.606	1	10
640.793	1	-9
641.980	1	-1
643.167	1	3
644.354	1	-3
645.541	1	3
646.728	1	6
647.914	1	-3
649.101	1	0
650.288	1	11
651.474	1	-2
652.661	1	3
653.847	1	2
655.034	1	5
656.220	1	0
657.406	1	7
658.593	1	9
659.779	1	-2
660.965	1	11
662.152	1	-3
663.338	1	0
664.524	1	3
665.710	1	12
666.896	1	-2
668.082	1	11
669.268	1	-4
670.454	1	6
671.640	1	-15
672.826	1	0
674.011	1	-4
675.197	1	-1
676.383	1	7
677.569	1	-5
678.754	1	13
679.940	1	0
681.125	1	15
682.311	1	-6
683.496	1	-5
684.682	1	-5
685.867	1	-3
687.053	1	1
688.238	1	4
688.746	1	4