File: Data/GaN_130K_350ms/GaN_sample F_spot6_UVVIS_130 K_200um_350 ms 2x2mm1_23.txt
340.368	1	3
341.565	1	-1
342.763	1	6
343.960	1	-8
345.157	1	-15
346.354	1	-10
347.552	1	-3
348.749	1	-4
349.946	1	2
351.143	1	4
352.340	1	11
353.537	1	5
354.734	1	4
355.931	1	2
357.127	1	-3
358.324	1	-7
359.521	1	-11
360.718	1	10
361.914	1	-5
363.111	1	14
364.308	1	4
365.504	1	-3
366.701	1	-1
367.897	1	-6
369.093	1	3
370.290	1	12
371.486	1	0
372.682	1	5
373.879	1	6
375.075	1	4
376.271	1	1
377.467	1	5
378.663	1	2
379.859	1	9
381.055	1	5
382.251	1	2
383.447	1	-1
384.643	1	11
385.839	1	0
387.035	1	10
388.230	1	2
389.426	1	2
390.622	1	4
391.817	1	2
393.013	1	2
394.208	1	-10
395.404	1	-8
396.599	1	4
397.795	1	-10
398.990	1	-2
400.186	1	-7
401.381	1	0
402.576	1	-5
403.771	1	3
404.967	1	-2
406.162	1	-4
407.357	1	-10
408.552	1	-3
409.747	1	-5
410.942	1	1
412.137	1	-3
413.332	1	-4
414.526	1	1
415.721	1	5
416.916	1	3
418.111	1	6
419.305	1	-2
420.500	1	2
421.695	1	-4
422.889	1	-1
424.084	1	6
425.278	1	-6
426.472	1	-1
427.667	1	12
428.861	1	-4
430.055	1	-6
431.250	1	2
432.444	1	10
433.638	1	0
434.832	1	4
436.026	1	0
437.220	1	1
438.414	1	-13
439.608	1	4
440.802	1	1
441.996	1	5
443.190	1	2
444.384	1	-11
445.578	1	-5
446.771	1	0
447.965	1	-1
449.159	1	5
450.352	1	8
451.546	1	18
452.739	1	2
453.933	1	-6
455.126	1	-9
456.320	1	7
457.513	1	-9
458.706	1	4
459.899	1	9
461.093	1	10
462.286	1	12
463.479	1	10
464.672	1	8
465.865	1	-8
467.058	1	5
468.251	1	0
469.444	1	-3
470.637	1	0
471.830	1	8
473.023	1	10
474.215	1	7
475.408	1	4
476.601	1	0
477.793	1	-2
478.986	1	-1
480.179	1	-1
481.371	1	4
482.564	1	2
483.756	1	-5
484.948	1	1
486.141	1	-5
487.333	1	-6
488.525	1	3
489.718	1	4
490.910	1	0
492.102	1	9
493.294	1	7
494.486	1	8
495.678	1	-1
496.870	1	2
498.062	1	-3
499.254	1	9
500.446	1	-1
501.638	1	-6
502.829	1	-9
504.021	1	1
505.213	1	-9
506.404	1	2
507.596	1	2
508.788	1	-1
509.979	1	-6
511.171	1	1
512.362	1	3
513.553	1	5
514.745	1	-2
515.936	1	7
517.127	1	5
518.319	1	-13
519.510	1	0
520.701	1	-6
521.892	1	2
523.083	1	2
524.274	1	-2
525.465	1	7
526.656	1	6
527.847	1	-3
529.038	1	-1
530.229	1	2
531.419	1	-1
532.610	1	-2
533.801	1	7
534.991	1	-11
536.182	1	7
537.373	1	1
538.563	1	7
539.754	1	-12
540.944	1	-3
542.134	1	-2
543.325	1	4
544.515	1	1
545.705	1	-5
546.896	1	8
548.086	1	-12
549.276	1	-1
550.466	1	3
551.656	1	0
552.846	1	-2
554.036	1	3
555.226	1	3
556.416	1	7
557.606	1	6
558.796	1	8
559.986	1	1
561.175	1	7
562.365	1	7
563.555	1	3
564.744	1	0
565.934	1	7
567.123	1	0
568.313	1	-13
569.502	1	-1
570.692	1	9
571.881	1	3
573.070	1	-2
574.260	1	5
575.449	1	4
576.638	1	-5
577.827	1	-7
579.016	1	-3
580.205	1	-1
581.394	1	2
582.583	1	6
583.772	1	1
584.961	1	5
586.150	1	8
587.339	1	0
588.528	1	8
589.717	1	1
590.905	1	2
592.094	1	-2
593.283	1	-5
594.471	1	-2
595.660	1	7
596.848	1	-3
598.037	1	-1
599.225	1	7
600.413	1	10
601.602	1	-1
602.790	1	-5
603.978	1	2
605.166	1	6
606.355	1	11
607.543	1	8
608.731	1	6
609.919	1	2
611.107	1	6
612.295	1	8
613.483	1	-5
614.671	1	4
615.858	1	-6
617.046	1	11
618.234	1	-11
619.422	1	1
620.609	1	-9
621.797	1	-1
622.985	1	10
624.172	1	-5
625.360	1	5
626.547	1	7
627.735	1	16
628.922	1	-6
630.109	1	6
631.297	1	-1
632.484	1	-7
633.671	1	-4
634.858	1	6
636.045	1	11
637.232	1	-6
638.419	1	-3
639.606	1	4
640.793	1	-7
641.980	1	-1
643.167	1	2
644.354	1	-6
645.541	1	0
646.728	1	-2
647.914	1	-1
649.101	1	-7
650.288	1	10
651.474	1	-1
652.661	1	-13
653.847	1	3
655.034	1	6
656.220	1	-4
657.406	1	9
658.593	1	2
659.779	1	2
660.965	1	-8
662.152	1	8
663.338	1	2
664.524	1	-7
665.710	1	-8
666.896	1	4
668.082	1	4
669.268	1	0
670.454	1	-1
671.640	1	-13
672.826	1	3
674.011	1	-1
675.197	1	-9
676.383	1	-1
677.569	1	-3
678.754	1	5
679.940	1	6
681.125	1	5
682.311	1	-20
683.496	1	-4
684.682	1	1
685.867	1	-1
687.053	1	-3
688.238	1	7
688.746	1	0