File: Data/GaN_130K_350ms/GaN_sample F_spot6_UVVIS_130 K_200um_350 ms 2x2mm1_272.txt
340.368	1	5
341.565	1	-2
342.763	1	8
343.960	1	-10
345.157	1	-4
346.354	1	-2
347.552	1	-3
348.749	1	7
349.946	1	2
351.143	1	7
352.340	1	11
353.537	1	0
354.734	1	-5
355.931	1	2
357.127	1	2
358.324	1	-5
359.521	1	-5
360.718	1	13
361.914	1	2
363.111	1	5
364.308	1	21
365.504	1	14
366.701	1	11
367.897	1	6
369.093	1	8
370.290	1	18
371.486	1	4
372.682	1	7
373.879	1	16
375.075	1	9
376.271	1	5
377.467	1	1
378.663	1	10
379.859	1	11
381.055	1	4
382.251	1	2
383.447	1	-1
384.643	1	16
385.839	1	3
387.035	1	18
388.230	1	-2
389.426	1	6
390.622	1	10
391.817	1	11
393.013	1	5
394.208	1	-8
395.404	1	-2
396.599	1	12
397.795	1	1
398.990	1	5
400.186	1	-7
401.381	1	-1
402.576	1	4
403.771	1	2
404.967	1	6
406.162	1	7
407.357	1	-2
408.552	1	3
409.747	1	-1
410.942	1	1
412.137	1	2
413.332	1	-5
414.526	1	4
415.721	1	8
416.916	1	-1
418.111	1	13
419.305	1	0
420.500	1	2
421.695	1	-4
422.889	1	10
424.084	1	6
425.278	1	10
426.472	1	-5
427.667	1	11
428.861	1	-4
430.055	1	3
431.250	1	2
432.444	1	6
433.638	1	4
434.832	1	0
436.026	1	7
437.220	1	-7
438.414	1	-3
439.608	1	15
440.802	1	-8
441.996	1	4
443.190	1	6
444.384	1	-1
445.578	1	5
446.771	1	6
447.965	1	2
449.159	1	10
450.352	1	5
451.546	1	12
452.739	1	9
453.933	1	-3
455.126	1	-2
456.320	1	2
457.513	1	-4
458.706	1	3
459.899	1	6
461.093	1	6
462.286	1	6
463.479	1	11
464.672	1	9
465.865	1	3
467.058	1	-4
468.251	1	5
469.444	1	6
470.637	1	3
471.830	1	5
473.023	1	9
474.215	1	0
475.408	1	5
476.601	1	-3
477.793	1	-4
478.986	1	-1
480.179	1	2
481.371	1	4
482.564	1	-7
483.756	1	12
484.948	1	7
486.141	1	5
487.333	1	2
488.525	1	2
489.718	1	11
490.910	1	-1
492.102	1	0
493.294	1	5
494.486	1	6
495.678	1	3
496.870	1	-5
498.062	1	-7
499.254	1	8
500.446	1	9
501.638	1	6
502.829	1	7
504.021	1	-2
505.213	1	7
506.404	1	4
507.596	1	1
508.788	1	-4
509.979	1	2
511.171	1	7
512.362	1	-3
513.553	1	7
514.745	1	-1
515.936	1	14
517.127	1	6
518.319	1	-2
519.510	1	-1
520.701	1	1
521.892	1	4
523.083	1	3
524.274	1	-5
525.465	1	4
526.656	1	10
527.847	1	-3
529.038	1	-6
530.229	1	6
531.419	1	9
532.610	1	6
533.801	1	16
534.991	1	9
536.182	1	7
537.373	1	-4
538.563	1	5
539.754	1	-4
540.944	1	10
542.134	1	-3
543.325	1	5
544.515	1	6
545.705	1	6
546.896	1	4
548.086	1	-7
549.276	1	-3
550.466	1	12
551.656	1	3
552.846	1	-3
554.036	1	-6
555.226	1	5
556.416	1	2
557.606	1	5
558.796	1	12
559.986	1	4
561.175	1	3
562.365	1	5
563.555	1	9
564.744	1	-1
565.934	1	5
567.123	1	5
568.313	1	4
569.502	1	3
570.692	1	5
571.881	1	0
573.070	1	4
574.260	1	6
575.449	1	1
576.638	1	-4
577.827	1	1
579.016	1	3
580.205	1	2
581.394	1	8
582.583	1	9
583.772	1	1
584.961	1	4
586.150	1	6
587.339	1	-3
588.528	1	12
589.717	1	0
590.905	1	7
592.094	1	0
593.283	1	0
594.471	1	6
595.660	1	-6
596.848	1	2
598.037	1	0
599.225	1	-3
600.413	1	12
601.602	1	3
602.790	1	4
603.978	1	5
605.166	1	6
606.355	1	5
607.543	1	2
608.731	1	7
609.919	1	13
611.107	1	-4
612.295	1	7
613.483	1	-1
614.671	1	-6
615.858	1	1
617.046	1	15
618.234	1	1
619.422	1	5
620.609	1	-4
621.797	1	-5
622.985	1	4
624.172	1	-7
625.360	1	6
626.547	1	0
627.735	1	4
628.922	1	-6
630.109	1	10
631.297	1	2
632.484	1	-14
633.671	1	-2
634.858	1	9
636.045	1	11
637.232	1	2
638.419	1	3
639.606	1	4
640.793	1	-10
641.980	1	-2
643.167	1	4
644.354	1	-1
645.541	1	-2
646.728	1	6
647.914	1	-5
649.101	1	-3
650.288	1	-3
651.474	1	2
652.661	1	5
653.847	1	0
655.034	1	3
656.220	1	0
657.406	1	5
658.593	1	0
659.779	1	-2
660.965	1	-2
662.152	1	0
663.338	1	-7
664.524	1	-3
665.710	1	1
666.896	1	-3
668.082	1	-3
669.268	1	-7
670.454	1	-5
671.640	1	-6
672.826	1	-4
674.011	1	-1
675.197	1	3
676.383	1	-4
677.569	1	-3
678.754	1	3
679.940	1	1
681.125	1	8
682.311	1	-4
683.496	1	5
684.682	1	-1
685.867	1	2
687.053	1	-3
688.238	1	4
688.746	1	11