File: Data/GaN_130K_350ms/GaN_sample F_spot6_UVVIS_130 K_200um_350 ms 2x2mm1_127.txt
340.368	1	1
341.565	1	3
342.763	1	8
343.960	1	-3
345.157	1	-4
346.354	1	4
347.552	1	2
348.749	1	6
349.946	1	5
351.143	1	0
352.340	1	8
353.537	1	9
354.734	1	-8
355.931	1	8
357.127	1	8
358.324	1	13
359.521	1	9
360.718	1	17
361.914	1	14
363.111	1	32
364.308	1	37
365.504	1	48
366.701	1	53
367.897	1	60
369.093	1	51
370.290	1	55
371.486	1	45
372.682	1	41
373.879	1	33
375.075	1	38
376.271	1	21
377.467	1	31
378.663	1	25
379.859	1	9
381.055	1	17
382.251	1	20
383.447	1	25
384.643	1	12
385.839	1	14
387.035	1	20
388.230	1	19
389.426	1	11
390.622	1	13
391.817	1	17
393.013	1	12
394.208	1	4
395.404	1	4
396.599	1	24
397.795	1	3
398.990	1	4
400.186	1	-3
401.381	1	10
402.576	1	19
403.771	1	14
404.967	1	11
406.162	1	6
407.357	1	6
408.552	1	2
409.747	1	10
410.942	1	6
412.137	1	3
413.332	1	2
414.526	1	5
415.721	1	10
416.916	1	7
418.111	1	13
419.305	1	12
420.500	1	5
421.695	1	13
422.889	1	5
424.084	1	13
425.278	1	5
426.472	1	6
427.667	1	12
428.861	1	13
430.055	1	6
431.250	1	18
432.444	1	10
433.638	1	8
434.832	1	10
436.026	1	15
437.220	1	8
438.414	1	9
439.608	1	13
440.802	1	-6
441.996	1	12
443.190	1	14
444.384	1	2
445.578	1	5
446.771	1	18
447.965	1	7
449.159	1	8
450.352	1	13
451.546	1	17
452.739	1	12
453.933	1	9
455.126	1	-7
456.320	1	-3
457.513	1	14
458.706	1	-1
459.899	1	2
461.093	1	16
462.286	1	10
463.479	1	15
464.672	1	11
465.865	1	-3
467.058	1	4
468.251	1	-2
469.444	1	5
470.637	1	3
471.830	1	5
473.023	1	3
474.215	1	12
475.408	1	7
476.601	1	2
477.793	1	8
478.986	1	3
480.179	1	7
481.371	1	10
482.564	1	13
483.756	1	-8
484.948	1	8
486.141	1	8
487.333	1	-3
488.525	1	9
489.718	1	19
490.910	1	-6
492.102	1	15
493.294	1	15
494.486	1	9
495.678	1	11
496.870	1	14
498.062	1	5
499.254	1	14
500.446	1	19
501.638	1	13
502.829	1	12
504.021	1	2
505.213	1	15
506.404	1	7
507.596	1	15
508.788	1	4
509.979	1	12
511.171	1	25
512.362	1	14
513.553	1	22
514.745	1	18
515.936	1	43
517.127	1	20
518.319	1	15
519.510	1	18
520.701	1	15
521.892	1	31
523.083	1	24
524.274	1	7
525.465	1	19
526.656	1	23
527.847	1	14
529.038	1	5
530.229	1	22
531.419	1	33
532.610	1	22
533.801	1	28
534.991	1	19
536.182	1	18
537.373	1	23
538.563	1	29
539.754	1	26
540.944	1	19
542.134	1	18
543.325	1	26
544.515	1	20
545.705	1	21
546.896	1	18
548.086	1	15
549.276	1	12
550.466	1	20
551.656	1	20
552.846	1	3
554.036	1	26
555.226	1	9
556.416	1	25
557.606	1	12
558.796	1	16
559.986	1	15
561.175	1	11
562.365	1	18
563.555	1	14
564.744	1	11
565.934	1	6
567.123	1	14
568.313	1	3
569.502	1	7
570.692	1	12
571.881	1	15
573.070	1	11
574.260	1	12
575.449	1	9
576.638	1	-1
577.827	1	6
579.016	1	9
580.205	1	-10
581.394	1	7
582.583	1	16
583.772	1	8
584.961	1	6
586.150	1	13
587.339	1	3
588.528	1	8
589.717	1	3
590.905	1	11
592.094	1	4
593.283	1	-5
594.471	1	-2
595.660	1	8
596.848	1	12
598.037	1	12
599.225	1	10
600.413	1	15
601.602	1	-2
602.790	1	8
603.978	1	-1
605.166	1	6
606.355	1	10
607.543	1	10
608.731	1	9
609.919	1	15
611.107	1	6
612.295	1	13
613.483	1	2
614.671	1	5
615.858	1	1
617.046	1	12
618.234	1	0
619.422	1	2
620.609	1	-3
621.797	1	8
622.985	1	16
624.172	1	2
625.360	1	5
626.547	1	4
627.735	1	19
628.922	1	-3
630.109	1	12
631.297	1	5
632.484	1	-3
633.671	1	-5
634.858	1	20
636.045	1	9
637.232	1	1
638.419	1	2
639.606	1	11
640.793	1	-2
641.980	1	0
643.167	1	7
644.354	1	-3
645.541	1	2
646.728	1	8
647.914	1	2
649.101	1	-5
650.288	1	9
651.474	1	6
652.661	1	-2
653.847	1	-6
655.034	1	7
656.220	1	-2
657.406	1	6
658.593	1	-1
659.779	1	4
660.965	1	7
662.152	1	4
663.338	1	2
664.524	1	0
665.710	1	-2
666.896	1	8
668.082	1	9
669.268	1	-5
670.454	1	-2
671.640	1	-2
672.826	1	6
674.011	1	0
675.197	1	4
676.383	1	10
677.569	1	6
678.754	1	9
679.940	1	1
681.125	1	8
682.311	1	-11
683.496	1	2
684.682	1	1
685.867	1	0
687.053	1	8
688.238	1	9
688.746	1	11