File: Data/GaN_130K_350ms/GaN_sample F_spot6_UVVIS_130 K_200um_350 ms 2x2mm1_179.txt
340.368	1	9
341.565	1	-1
342.763	1	13
343.960	1	2
345.157	1	-5
346.354	1	6
347.552	1	3
348.749	1	3
349.946	1	2
351.143	1	3
352.340	1	14
353.537	1	7
354.734	1	-7
355.931	1	9
357.127	1	12
358.324	1	-2
359.521	1	3
360.718	1	12
361.914	1	4
363.111	1	31
364.308	1	22
365.504	1	19
366.701	1	21
367.897	1	15
369.093	1	27
370.290	1	33
371.486	1	24
372.682	1	18
373.879	1	18
375.075	1	23
376.271	1	11
377.467	1	24
378.663	1	10
379.859	1	2
381.055	1	4
382.251	1	7
383.447	1	12
384.643	1	5
385.839	1	10
387.035	1	21
388.230	1	5
389.426	1	16
390.622	1	7
391.817	1	10
393.013	1	15
394.208	1	-4
395.404	1	-6
396.599	1	15
397.795	1	-1
398.990	1	7
400.186	1	-5
401.381	1	1
402.576	1	7
403.771	1	9
404.967	1	8
406.162	1	-4
407.357	1	3
408.552	1	1
409.747	1	5
410.942	1	4
412.137	1	1
413.332	1	5
414.526	1	15
415.721	1	3
416.916	1	1
418.111	1	10
419.305	1	1
420.500	1	8
421.695	1	8
422.889	1	7
424.084	1	19
425.278	1	7
426.472	1	6
427.667	1	9
428.861	1	-1
430.055	1	-5
431.250	1	7
432.444	1	2
433.638	1	3
434.832	1	3
436.026	1	8
437.220	1	6
438.414	1	6
439.608	1	17
440.802	1	-6
441.996	1	6
443.190	1	4
444.384	1	3
445.578	1	1
446.771	1	17
447.965	1	0
449.159	1	6
450.352	1	19
451.546	1	14
452.739	1	-2
453.933	1	12
455.126	1	-7
456.320	1	2
457.513	1	-3
458.706	1	1
459.899	1	-6
461.093	1	11
462.286	1	8
463.479	1	5
464.672	1	7
465.865	1	0
467.058	1	6
468.251	1	7
469.444	1	5
470.637	1	1
471.830	1	7
473.023	1	5
474.215	1	3
475.408	1	0
476.601	1	1
477.793	1	8
478.986	1	4
480.179	1	-4
481.371	1	10
482.564	1	-1
483.756	1	-3
484.948	1	-2
486.141	1	5
487.333	1	6
488.525	1	8
489.718	1	11
490.910	1	-14
492.102	1	4
493.294	1	12
494.486	1	19
495.678	1	1
496.870	1	1
498.062	1	7
499.254	1	14
500.446	1	4
501.638	1	-3
502.829	1	3
504.021	1	6
505.213	1	6
506.404	1	9
507.596	1	3
508.788	1	2
509.979	1	0
511.171	1	12
512.362	1	4
513.553	1	2
514.745	1	-5
515.936	1	21
517.127	1	11
518.319	1	-10
519.510	1	4
520.701	1	2
521.892	1	11
523.083	1	1
524.274	1	0
525.465	1	8
526.656	1	12
527.847	1	5
529.038	1	1
530.229	1	3
531.419	1	14
532.610	1	15
533.801	1	17
534.991	1	12
536.182	1	14
537.373	1	8
538.563	1	12
539.754	1	10
540.944	1	11
542.134	1	8
543.325	1	1
544.515	1	15
545.705	1	2
546.896	1	14
548.086	1	2
549.276	1	-3
550.466	1	11
551.656	1	15
552.846	1	-2
554.036	1	10
555.226	1	10
556.416	1	5
557.606	1	-2
558.796	1	15
559.986	1	6
561.175	1	10
562.365	1	15
563.555	1	11
564.744	1	7
565.934	1	9
567.123	1	13
568.313	1	2
569.502	1	7
570.692	1	4
571.881	1	3
573.070	1	7
574.260	1	2
575.449	1	15
576.638	1	13
577.827	1	-3
579.016	1	7
580.205	1	1
581.394	1	0
582.583	1	14
583.772	1	0
584.961	1	4
586.150	1	12
587.339	1	3
588.528	1	10
589.717	1	-3
590.905	1	3
592.094	1	-2
593.283	1	-2
594.471	1	2
595.660	1	9
596.848	1	5
598.037	1	5
599.225	1	1
600.413	1	1
601.602	1	-2
602.790	1	-8
603.978	1	-2
605.166	1	10
606.355	1	3
607.543	1	7
608.731	1	-3
609.919	1	11
611.107	1	1
612.295	1	8
613.483	1	-2
614.671	1	4
615.858	1	-4
617.046	1	3
618.234	1	10
619.422	1	8
620.609	1	-5
621.797	1	-6
622.985	1	10
624.172	1	4
625.360	1	-1
626.547	1	15
627.735	1	19
628.922	1	4
630.109	1	8
631.297	1	2
632.484	1	0
633.671	1	-7
634.858	1	10
636.045	1	16
637.232	1	5
638.419	1	1
639.606	1	0
640.793	1	-10
641.980	1	5
643.167	1	4
644.354	1	-4
645.541	1	-1
646.728	1	5
647.914	1	-2
649.101	1	-7
650.288	1	6
651.474	1	0
652.661	1	4
653.847	1	1
655.034	1	2
656.220	1	0
657.406	1	4
658.593	1	0
659.779	1	0
660.965	1	-1
662.152	1	6
663.338	1	0
664.524	1	-6
665.710	1	9
666.896	1	7
668.082	1	5
669.268	1	-1
670.454	1	6
671.640	1	-8
672.826	1	-1
674.011	1	-3
675.197	1	0
676.383	1	7
677.569	1	7
678.754	1	11
679.940	1	2
681.125	1	9
682.311	1	-11
683.496	1	-3
684.682	1	-4
685.867	1	6
687.053	1	1
688.238	1	10
688.746	1	11