File: Data/GaN_130K_350ms/GaN_sample F_spot6_UVVIS_130 K_200um_350 ms 2x2mm1_28.txt
340.368	1	8
341.565	1	3
342.763	1	8
343.960	1	-6
345.157	1	-8
346.354	1	6
347.552	1	-5
348.749	1	4
349.946	1	2
351.143	1	0
352.340	1	15
353.537	1	-5
354.734	1	6
355.931	1	6
357.127	1	10
358.324	1	3
359.521	1	-6
360.718	1	4
361.914	1	4
363.111	1	10
364.308	1	3
365.504	1	3
366.701	1	5
367.897	1	4
369.093	1	2
370.290	1	10
371.486	1	-4
372.682	1	-2
373.879	1	10
375.075	1	9
376.271	1	3
377.467	1	10
378.663	1	0
379.859	1	-3
381.055	1	-3
382.251	1	-6
383.447	1	8
384.643	1	8
385.839	1	2
387.035	1	13
388.230	1	3
389.426	1	8
390.622	1	0
391.817	1	1
393.013	1	7
394.208	1	-2
395.404	1	-6
396.599	1	12
397.795	1	-15
398.990	1	-2
400.186	1	-3
401.381	1	1
402.576	1	-1
403.771	1	7
404.967	1	-2
406.162	1	-9
407.357	1	-1
408.552	1	-2
409.747	1	-8
410.942	1	-2
412.137	1	-8
413.332	1	-7
414.526	1	-3
415.721	1	1
416.916	1	-4
418.111	1	1
419.305	1	7
420.500	1	-3
421.695	1	2
422.889	1	-2
424.084	1	11
425.278	1	6
426.472	1	1
427.667	1	-5
428.861	1	-6
430.055	1	-6
431.250	1	9
432.444	1	0
433.638	1	-2
434.832	1	0
436.026	1	0
437.220	1	-4
438.414	1	-11
439.608	1	8
440.802	1	-4
441.996	1	6
443.190	1	5
444.384	1	-4
445.578	1	-3
446.771	1	9
447.965	1	5
449.159	1	9
450.352	1	4
451.546	1	6
452.739	1	4
453.933	1	1
455.126	1	-9
456.320	1	-12
457.513	1	-6
458.706	1	6
459.899	1	-2
461.093	1	5
462.286	1	7
463.479	1	12
464.672	1	11
465.865	1	-7
467.058	1	8
468.251	1	-4
469.444	1	1
470.637	1	-1
471.830	1	-2
473.023	1	0
474.215	1	-3
475.408	1	6
476.601	1	-10
477.793	1	0
478.986	1	-2
480.179	1	1
481.371	1	1
482.564	1	3
483.756	1	-5
484.948	1	-6
486.141	1	0
487.333	1	-2
488.525	1	5
489.718	1	3
490.910	1	-1
492.102	1	2
493.294	1	8
494.486	1	6
495.678	1	-3
496.870	1	1
498.062	1	-1
499.254	1	7
500.446	1	0
501.638	1	-2
502.829	1	-5
504.021	1	2
505.213	1	4
506.404	1	-3
507.596	1	-2
508.788	1	2
509.979	1	-3
511.171	1	10
512.362	1	3
513.553	1	15
514.745	1	1
515.936	1	16
517.127	1	-8
518.319	1	2
519.510	1	3
520.701	1	-2
521.892	1	9
523.083	1	-5
524.274	1	-5
525.465	1	2
526.656	1	9
527.847	1	0
529.038	1	-15
530.229	1	7
531.419	1	3
532.610	1	2
533.801	1	10
534.991	1	0
536.182	1	2
537.373	1	3
538.563	1	8
539.754	1	-9
540.944	1	2
542.134	1	0
543.325	1	7
544.515	1	-9
545.705	1	-7
546.896	1	1
548.086	1	-6
549.276	1	-15
550.466	1	6
551.656	1	-2
552.846	1	-6
554.036	1	3
555.226	1	10
556.416	1	8
557.606	1	-2
558.796	1	6
559.986	1	2
561.175	1	4
562.365	1	9
563.555	1	6
564.744	1	-3
565.934	1	0
567.123	1	4
568.313	1	-9
569.502	1	1
570.692	1	16
571.881	1	1
573.070	1	6
574.260	1	9
575.449	1	-3
576.638	1	-10
577.827	1	-2
579.016	1	-4
580.205	1	6
581.394	1	-1
582.583	1	0
583.772	1	12
584.961	1	-1
586.150	1	9
587.339	1	-1
588.528	1	10
589.717	1	2
590.905	1	3
592.094	1	2
593.283	1	-5
594.471	1	0
595.660	1	11
596.848	1	11
598.037	1	2
599.225	1	5
600.413	1	10
601.602	1	-7
602.790	1	-3
603.978	1	0
605.166	1	14
606.355	1	3
607.543	1	7
608.731	1	4
609.919	1	8
611.107	1	8
612.295	1	8
613.483	1	3
614.671	1	9
615.858	1	5
617.046	1	2
618.234	1	-4
619.422	1	5
620.609	1	-6
621.797	1	6
622.985	1	0
624.172	1	8
625.360	1	6
626.547	1	9
627.735	1	10
628.922	1	-6
630.109	1	14
631.297	1	10
632.484	1	-9
633.671	1	-15
634.858	1	9
636.045	1	19
637.232	1	2
638.419	1	9
639.606	1	6
640.793	1	-10
641.980	1	-2
643.167	1	0
644.354	1	0
645.541	1	0
646.728	1	3
647.914	1	7
649.101	1	-4
650.288	1	4
651.474	1	-9
652.661	1	-8
653.847	1	-9
655.034	1	2
656.220	1	2
657.406	1	2
658.593	1	-2
659.779	1	5
660.965	1	-1
662.152	1	-5
663.338	1	-2
664.524	1	-5
665.710	1	4
666.896	1	1
668.082	1	4
669.268	1	-6
670.454	1	-1
671.640	1	-4
672.826	1	3
674.011	1	2
675.197	1	-3
676.383	1	8
677.569	1	2
678.754	1	0
679.940	1	8
681.125	1	4
682.311	1	-12
683.496	1	-7
684.682	1	-3
685.867	1	-3
687.053	1	6
688.238	1	9
688.746	1	0