File: Data/GaN_130K_350ms/GaN_sample F_spot6_UVVIS_130 K_200um_350 ms 2x2mm1_115.txt
340.368	1	1
341.565	1	6
342.763	1	7
343.960	1	-13
345.157	1	-7
346.354	1	1
347.552	1	0
348.749	1	7
349.946	1	11
351.143	1	3
352.340	1	15
353.537	1	3
354.734	1	7
355.931	1	5
357.127	1	12
358.324	1	14
359.521	1	13
360.718	1	30
361.914	1	26
363.111	1	48
364.308	1	52
365.504	1	61
366.701	1	74
367.897	1	71
369.093	1	74
370.290	1	71
371.486	1	53
372.682	1	45
373.879	1	51
375.075	1	45
376.271	1	34
377.467	1	36
378.663	1	43
379.859	1	25
381.055	1	19
382.251	1	15
383.447	1	14
384.643	1	24
385.839	1	20
387.035	1	16
388.230	1	5
389.426	1	21
390.622	1	16
391.817	1	12
393.013	1	14
394.208	1	5
395.404	1	-4
396.599	1	15
397.795	1	3
398.990	1	11
400.186	1	-1
401.381	1	16
402.576	1	16
403.771	1	12
404.967	1	15
406.162	1	-1
407.357	1	9
408.552	1	12
409.747	1	10
410.942	1	12
412.137	1	0
413.332	1	5
414.526	1	10
415.721	1	4
416.916	1	3
418.111	1	12
419.305	1	2
420.500	1	7
421.695	1	4
422.889	1	12
424.084	1	2
425.278	1	10
426.472	1	6
427.667	1	21
428.861	1	5
430.055	1	9
431.250	1	9
432.444	1	11
433.638	1	14
434.832	1	7
436.026	1	3
437.220	1	1
438.414	1	-1
439.608	1	14
440.802	1	3
441.996	1	12
443.190	1	14
444.384	1	3
445.578	1	3
446.771	1	5
447.965	1	2
449.159	1	-3
450.352	1	5
451.546	1	8
452.739	1	12
453.933	1	8
455.126	1	-4
456.320	1	0
457.513	1	0
458.706	1	9
459.899	1	8
461.093	1	14
462.286	1	-1
463.479	1	10
464.672	1	2
465.865	1	0
467.058	1	11
468.251	1	3
469.444	1	5
470.637	1	7
471.830	1	6
473.023	1	11
474.215	1	5
475.408	1	8
476.601	1	2
477.793	1	14
478.986	1	4
480.179	1	8
481.371	1	3
482.564	1	3
483.756	1	11
484.948	1	18
486.141	1	0
487.333	1	1
488.525	1	16
489.718	1	12
490.910	1	-2
492.102	1	18
493.294	1	18
494.486	1	19
495.678	1	6
496.870	1	13
498.062	1	11
499.254	1	18
500.446	1	15
501.638	1	11
502.829	1	17
504.021	1	20
505.213	1	18
506.404	1	20
507.596	1	23
508.788	1	11
509.979	1	19
511.171	1	24
512.362	1	22
513.553	1	26
514.745	1	13
515.936	1	31
517.127	1	30
518.319	1	20
519.510	1	18
520.701	1	22
521.892	1	35
523.083	1	28
524.274	1	36
525.465	1	27
526.656	1	35
527.847	1	24
529.038	1	24
530.229	1	34
531.419	1	23
532.610	1	36
533.801	1	47
534.991	1	31
536.182	1	36
537.373	1	33
538.563	1	35
539.754	1	16
540.944	1	39
542.134	1	23
543.325	1	22
544.515	1	23
545.705	1	18
546.896	1	28
548.086	1	18
549.276	1	15
550.466	1	24
551.656	1	22
552.846	1	24
554.036	1	17
555.226	1	24
556.416	1	25
557.606	1	12
558.796	1	20
559.986	1	18
561.175	1	29
562.365	1	17
563.555	1	22
564.744	1	28
565.934	1	19
567.123	1	13
568.313	1	11
569.502	1	14
570.692	1	10
571.881	1	7
573.070	1	9
574.260	1	11
575.449	1	22
576.638	1	11
577.827	1	8
579.016	1	13
580.205	1	0
581.394	1	9
582.583	1	14
583.772	1	3
584.961	1	11
586.150	1	9
587.339	1	6
588.528	1	19
589.717	1	7
590.905	1	10
592.094	1	4
593.283	1	0
594.471	1	5
595.660	1	14
596.848	1	14
598.037	1	4
599.225	1	8
600.413	1	12
601.602	1	5
602.790	1	8
603.978	1	9
605.166	1	11
606.355	1	9
607.543	1	7
608.731	1	10
609.919	1	9
611.107	1	6
612.295	1	7
613.483	1	6
614.671	1	9
615.858	1	-6
617.046	1	14
618.234	1	2
619.422	1	1
620.609	1	-6
621.797	1	1
622.985	1	0
624.172	1	4
625.360	1	3
626.547	1	-1
627.735	1	11
628.922	1	-1
630.109	1	12
631.297	1	8
632.484	1	-9
633.671	1	-7
634.858	1	8
636.045	1	11
637.232	1	-3
638.419	1	4
639.606	1	15
640.793	1	-4
641.980	1	-1
643.167	1	-4
644.354	1	2
645.541	1	2
646.728	1	4
647.914	1	1
649.101	1	-1
650.288	1	10
651.474	1	4
652.661	1	0
653.847	1	0
655.034	1	-5
656.220	1	-2
657.406	1	5
658.593	1	6
659.779	1	6
660.965	1	0
662.152	1	-6
663.338	1	-6
664.524	1	3
665.710	1	7
666.896	1	4
668.082	1	0
669.268	1	-7
670.454	1	6
671.640	1	-6
672.826	1	-2
674.011	1	11
675.197	1	3
676.383	1	5
677.569	1	4
678.754	1	0
679.940	1	-8
681.125	1	10
682.311	1	-8
683.496	1	6
684.682	1	13
685.867	1	4
687.053	1	10
688.238	1	14
688.746	1	10