File: Data/GaN_130K_350ms/GaN_sample F_spot6_UVVIS_130 K_200um_350 ms 2x2mm1_152.txt
340.368	1	9
341.565	1	-3
342.763	1	14
343.960	1	-9
345.157	1	-11
346.354	1	2
347.552	1	-8
348.749	1	8
349.946	1	10
351.143	1	3
352.340	1	5
353.537	1	-2
354.734	1	-1
355.931	1	-1
357.127	1	9
358.324	1	10
359.521	1	4
360.718	1	8
361.914	1	14
363.111	1	25
364.308	1	27
365.504	1	30
366.701	1	40
367.897	1	33
369.093	1	32
370.290	1	41
371.486	1	37
372.682	1	20
373.879	1	30
375.075	1	20
376.271	1	19
377.467	1	21
378.663	1	25
379.859	1	7
381.055	1	16
382.251	1	8
383.447	1	12
384.643	1	21
385.839	1	12
387.035	1	12
388.230	1	-1
389.426	1	14
390.622	1	8
391.817	1	17
393.013	1	8
394.208	1	-2
395.404	1	1
396.599	1	11
397.795	1	11
398.990	1	7
400.186	1	1
401.381	1	7
402.576	1	-2
403.771	1	12
404.967	1	-1
406.162	1	3
407.357	1	6
408.552	1	0
409.747	1	-5
410.942	1	9
412.137	1	2
413.332	1	-3
414.526	1	7
415.721	1	1
416.916	1	0
418.111	1	9
419.305	1	4
420.500	1	3
421.695	1	1
422.889	1	8
424.084	1	12
425.278	1	-5
426.472	1	-3
427.667	1	16
428.861	1	3
430.055	1	1
431.250	1	9
432.444	1	8
433.638	1	3
434.832	1	7
436.026	1	4
437.220	1	7
438.414	1	4
439.608	1	18
440.802	1	4
441.996	1	13
443.190	1	9
444.384	1	-1
445.578	1	4
446.771	1	3
447.965	1	0
449.159	1	9
450.352	1	11
451.546	1	23
452.739	1	0
453.933	1	-6
455.126	1	-5
456.320	1	8
457.513	1	-6
458.706	1	3
459.899	1	-1
461.093	1	11
462.286	1	4
463.479	1	4
464.672	1	6
465.865	1	-6
467.058	1	4
468.251	1	8
469.444	1	6
470.637	1	10
471.830	1	7
473.023	1	12
474.215	1	2
475.408	1	10
476.601	1	4
477.793	1	2
478.986	1	-2
480.179	1	0
481.371	1	10
482.564	1	1
483.756	1	1
484.948	1	7
486.141	1	4
487.333	1	-1
488.525	1	5
489.718	1	-1
490.910	1	0
492.102	1	13
493.294	1	9
494.486	1	22
495.678	1	-1
496.870	1	8
498.062	1	0
499.254	1	13
500.446	1	10
501.638	1	8
502.829	1	13
504.021	1	3
505.213	1	8
506.404	1	8
507.596	1	14
508.788	1	9
509.979	1	4
511.171	1	12
512.362	1	8
513.553	1	18
514.745	1	11
515.936	1	17
517.127	1	14
518.319	1	7
519.510	1	9
520.701	1	7
521.892	1	22
523.083	1	12
524.274	1	6
525.465	1	17
526.656	1	20
527.847	1	8
529.038	1	9
530.229	1	13
531.419	1	20
532.610	1	14
533.801	1	22
534.991	1	13
536.182	1	21
537.373	1	13
538.563	1	22
539.754	1	14
540.944	1	13
542.134	1	12
543.325	1	3
544.515	1	17
545.705	1	7
546.896	1	14
548.086	1	-3
549.276	1	-1
550.466	1	19
551.656	1	12
552.846	1	5
554.036	1	16
555.226	1	16
556.416	1	13
557.606	1	10
558.796	1	21
559.986	1	8
561.175	1	10
562.365	1	17
563.555	1	19
564.744	1	6
565.934	1	6
567.123	1	14
568.313	1	1
569.502	1	-1
570.692	1	9
571.881	1	2
573.070	1	7
574.260	1	1
575.449	1	10
576.638	1	7
577.827	1	1
579.016	1	10
580.205	1	3
581.394	1	1
582.583	1	15
583.772	1	3
584.961	1	3
586.150	1	5
587.339	1	3
588.528	1	11
589.717	1	-6
590.905	1	7
592.094	1	-2
593.283	1	-7
594.471	1	5
595.660	1	9
596.848	1	9
598.037	1	10
599.225	1	5
600.413	1	10
601.602	1	-10
602.790	1	-2
603.978	1	5
605.166	1	11
606.355	1	9
607.543	1	-1
608.731	1	12
609.919	1	13
611.107	1	9
612.295	1	9
613.483	1	3
614.671	1	9
615.858	1	0
617.046	1	13
618.234	1	7
619.422	1	-6
620.609	1	1
621.797	1	2
622.985	1	10
624.172	1	3
625.360	1	0
626.547	1	3
627.735	1	10
628.922	1	5
630.109	1	11
631.297	1	6
632.484	1	2
633.671	1	-2
634.858	1	6
636.045	1	26
637.232	1	1
638.419	1	3
639.606	1	0
640.793	1	-10
641.980	1	-6
643.167	1	3
644.354	1	-5
645.541	1	0
646.728	1	0
647.914	1	0
649.101	1	-2
650.288	1	12
651.474	1	1
652.661	1	1
653.847	1	1
655.034	1	3
656.220	1	10
657.406	1	3
658.593	1	2
659.779	1	-2
660.965	1	-3
662.152	1	1
663.338	1	2
664.524	1	-1
665.710	1	3
666.896	1	4
668.082	1	6
669.268	1	-3
670.454	1	-5
671.640	1	-7
672.826	1	-4
674.011	1	0
675.197	1	0
676.383	1	2
677.569	1	3
678.754	1	3
679.940	1	1
681.125	1	8
682.311	1	-8
683.496	1	7
684.682	1	2
685.867	1	-5
687.053	1	1
688.238	1	17
688.746	1	1