File: Data/GaN_130K_350ms/GaN_sample F_spot6_UVVIS_130 K_200um_350 ms 2x2mm1_169.txt
340.368	1	4
341.565	1	3
342.763	1	-4
343.960	1	-2
345.157	1	-11
346.354	1	14
347.552	1	6
348.749	1	3
349.946	1	4
351.143	1	4
352.340	1	14
353.537	1	-1
354.734	1	-6
355.931	1	1
357.127	1	11
358.324	1	1
359.521	1	-3
360.718	1	14
361.914	1	6
363.111	1	19
364.308	1	19
365.504	1	22
366.701	1	25
367.897	1	12
369.093	1	26
370.290	1	35
371.486	1	17
372.682	1	14
373.879	1	13
375.075	1	20
376.271	1	24
377.467	1	17
378.663	1	21
379.859	1	6
381.055	1	6
382.251	1	4
383.447	1	12
384.643	1	6
385.839	1	13
387.035	1	14
388.230	1	7
389.426	1	11
390.622	1	10
391.817	1	11
393.013	1	8
394.208	1	-3
395.404	1	-7
396.599	1	7
397.795	1	-3
398.990	1	12
400.186	1	7
401.381	1	9
402.576	1	8
403.771	1	12
404.967	1	5
406.162	1	0
407.357	1	9
408.552	1	3
409.747	1	5
410.942	1	3
412.137	1	10
413.332	1	-2
414.526	1	11
415.721	1	6
416.916	1	0
418.111	1	10
419.305	1	7
420.500	1	5
421.695	1	5
422.889	1	3
424.084	1	7
425.278	1	7
426.472	1	8
427.667	1	12
428.861	1	-2
430.055	1	-1
431.250	1	5
432.444	1	13
433.638	1	12
434.832	1	12
436.026	1	5
437.220	1	-2
438.414	1	1
439.608	1	18
440.802	1	3
441.996	1	10
443.190	1	3
444.384	1	5
445.578	1	-2
446.771	1	12
447.965	1	-3
449.159	1	1
450.352	1	13
451.546	1	14
452.739	1	7
453.933	1	2
455.126	1	-10
456.320	1	-7
457.513	1	-3
458.706	1	9
459.899	1	7
461.093	1	9
462.286	1	3
463.479	1	13
464.672	1	8
465.865	1	1
467.058	1	8
468.251	1	5
469.444	1	1
470.637	1	8
471.830	1	1
473.023	1	7
474.215	1	0
475.408	1	5
476.601	1	2
477.793	1	-4
478.986	1	6
480.179	1	-5
481.371	1	15
482.564	1	-5
483.756	1	-3
484.948	1	2
486.141	1	1
487.333	1	-6
488.525	1	13
489.718	1	11
490.910	1	-6
492.102	1	10
493.294	1	11
494.486	1	8
495.678	1	0
496.870	1	8
498.062	1	-6
499.254	1	10
500.446	1	6
501.638	1	0
502.829	1	2
504.021	1	-2
505.213	1	9
506.404	1	-1
507.596	1	-3
508.788	1	12
509.979	1	4
511.171	1	17
512.362	1	11
513.553	1	9
514.745	1	2
515.936	1	27
517.127	1	6
518.319	1	2
519.510	1	9
520.701	1	10
521.892	1	13
523.083	1	10
524.274	1	-6
525.465	1	12
526.656	1	9
527.847	1	6
529.038	1	1
530.229	1	8
531.419	1	15
532.610	1	6
533.801	1	21
534.991	1	1
536.182	1	15
537.373	1	10
538.563	1	11
539.754	1	5
540.944	1	9
542.134	1	6
543.325	1	5
544.515	1	12
545.705	1	4
546.896	1	3
548.086	1	2
549.276	1	0
550.466	1	10
551.656	1	7
552.846	1	-2
554.036	1	-2
555.226	1	10
556.416	1	13
557.606	1	7
558.796	1	11
559.986	1	3
561.175	1	13
562.365	1	14
563.555	1	15
564.744	1	3
565.934	1	-2
567.123	1	1
568.313	1	-3
569.502	1	10
570.692	1	12
571.881	1	-2
573.070	1	6
574.260	1	1
575.449	1	9
576.638	1	-5
577.827	1	6
579.016	1	0
580.205	1	3
581.394	1	4
582.583	1	10
583.772	1	6
584.961	1	-2
586.150	1	12
587.339	1	7
588.528	1	4
589.717	1	-5
590.905	1	13
592.094	1	7
593.283	1	-10
594.471	1	2
595.660	1	5
596.848	1	8
598.037	1	3
599.225	1	3
600.413	1	7
601.602	1	-6
602.790	1	9
603.978	1	4
605.166	1	9
606.355	1	2
607.543	1	0
608.731	1	2
609.919	1	14
611.107	1	11
612.295	1	9
613.483	1	0
614.671	1	12
615.858	1	3
617.046	1	13
618.234	1	6
619.422	1	0
620.609	1	-4
621.797	1	-3
622.985	1	2
624.172	1	2
625.360	1	9
626.547	1	8
627.735	1	9
628.922	1	-4
630.109	1	12
631.297	1	-1
632.484	1	-6
633.671	1	-10
634.858	1	11
636.045	1	13
637.232	1	-5
638.419	1	4
639.606	1	0
640.793	1	-17
641.980	1	6
643.167	1	7
644.354	1	-2
645.541	1	6
646.728	1	4
647.914	1	-5
649.101	1	5
650.288	1	10
651.474	1	0
652.661	1	3
653.847	1	4
655.034	1	9
656.220	1	0
657.406	1	11
658.593	1	0
659.779	1	9
660.965	1	6
662.152	1	3
663.338	1	-4
664.524	1	-4
665.710	1	5
666.896	1	3
668.082	1	13
669.268	1	-6
670.454	1	2
671.640	1	-2
672.826	1	-2
674.011	1	7
675.197	1	2
676.383	1	0
677.569	1	-4
678.754	1	5
679.940	1	3
681.125	1	9
682.311	1	-14
683.496	1	3
684.682	1	2
685.867	1	2
687.053	1	2
688.238	1	9
688.746	1	0