File: Data/GaN_130K_350ms/GaN_sample F_spot6_UVVIS_130 K_200um_350 ms 2x2mm1_228.txt
340.368	1	-2
341.565	1	1
342.763	1	-1
343.960	1	-6
345.157	1	-1
346.354	1	-3
347.552	1	3
348.749	1	8
349.946	1	3
351.143	1	-3
352.340	1	15
353.537	1	-1
354.734	1	5
355.931	1	4
357.127	1	9
358.324	1	6
359.521	1	-10
360.718	1	15
361.914	1	0
363.111	1	9
364.308	1	14
365.504	1	14
366.701	1	20
367.897	1	11
369.093	1	16
370.290	1	17
371.486	1	9
372.682	1	15
373.879	1	13
375.075	1	20
376.271	1	15
377.467	1	18
378.663	1	4
379.859	1	9
381.055	1	6
382.251	1	4
383.447	1	12
384.643	1	4
385.839	1	8
387.035	1	12
388.230	1	-1
389.426	1	7
390.622	1	3
391.817	1	11
393.013	1	8
394.208	1	-3
395.404	1	-3
396.599	1	9
397.795	1	-6
398.990	1	-2
400.186	1	2
401.381	1	13
402.576	1	4
403.771	1	15
404.967	1	4
406.162	1	7
407.357	1	8
408.552	1	5
409.747	1	5
410.942	1	6
412.137	1	2
413.332	1	-2
414.526	1	7
415.721	1	4
416.916	1	-3
418.111	1	10
419.305	1	2
420.500	1	4
421.695	1	2
422.889	1	4
424.084	1	12
425.278	1	0
426.472	1	5
427.667	1	7
428.861	1	11
430.055	1	1
431.250	1	2
432.444	1	11
433.638	1	5
434.832	1	-2
436.026	1	8
437.220	1	3
438.414	1	-9
439.608	1	14
440.802	1	-9
441.996	1	12
443.190	1	4
444.384	1	0
445.578	1	0
446.771	1	2
447.965	1	1
449.159	1	7
450.352	1	3
451.546	1	8
452.739	1	6
453.933	1	-6
455.126	1	-6
456.320	1	-1
457.513	1	-9
458.706	1	1
459.899	1	2
461.093	1	2
462.286	1	6
463.479	1	10
464.672	1	3
465.865	1	0
467.058	1	11
468.251	1	9
469.444	1	-1
470.637	1	-1
471.830	1	7
473.023	1	9
474.215	1	10
475.408	1	6
476.601	1	8
477.793	1	-3
478.986	1	1
480.179	1	-4
481.371	1	10
482.564	1	-4
483.756	1	-4
484.948	1	17
486.141	1	6
487.333	1	6
488.525	1	2
489.718	1	8
490.910	1	3
492.102	1	5
493.294	1	5
494.486	1	9
495.678	1	5
496.870	1	1
498.062	1	0
499.254	1	11
500.446	1	1
501.638	1	1
502.829	1	0
504.021	1	4
505.213	1	3
506.404	1	3
507.596	1	2
508.788	1	7
509.979	1	0
511.171	1	5
512.362	1	-4
513.553	1	7
514.745	1	7
515.936	1	12
517.127	1	10
518.319	1	2
519.510	1	6
520.701	1	-4
521.892	1	2
523.083	1	10
524.274	1	0
525.465	1	15
526.656	1	8
527.847	1	4
529.038	1	-5
530.229	1	8
531.419	1	8
532.610	1	1
533.801	1	13
534.991	1	5
536.182	1	12
537.373	1	9
538.563	1	3
539.754	1	2
540.944	1	5
542.134	1	4
543.325	1	1
544.515	1	8
545.705	1	7
546.896	1	16
548.086	1	6
549.276	1	2
550.466	1	10
551.656	1	-1
552.846	1	2
554.036	1	10
555.226	1	7
556.416	1	6
557.606	1	1
558.796	1	4
559.986	1	-1
561.175	1	13
562.365	1	12
563.555	1	8
564.744	1	3
565.934	1	2
567.123	1	-3
568.313	1	8
569.502	1	8
570.692	1	9
571.881	1	4
573.070	1	0
574.260	1	7
575.449	1	11
576.638	1	-7
577.827	1	1
579.016	1	1
580.205	1	-3
581.394	1	-1
582.583	1	17
583.772	1	2
584.961	1	1
586.150	1	7
587.339	1	-2
588.528	1	16
589.717	1	7
590.905	1	-1
592.094	1	2
593.283	1	-6
594.471	1	8
595.660	1	0
596.848	1	0
598.037	1	0
599.225	1	11
600.413	1	10
601.602	1	9
602.790	1	9
603.978	1	14
605.166	1	9
606.355	1	5
607.543	1	7
608.731	1	6
609.919	1	11
611.107	1	10
612.295	1	5
613.483	1	-3
614.671	1	9
615.858	1	-4
617.046	1	4
618.234	1	2
619.422	1	7
620.609	1	-2
621.797	1	0
622.985	1	7
624.172	1	7
625.360	1	0
626.547	1	-5
627.735	1	10
628.922	1	-2
630.109	1	3
631.297	1	-1
632.484	1	-8
633.671	1	-1
634.858	1	11
636.045	1	13
637.232	1	-2
638.419	1	2
639.606	1	3
640.793	1	-5
641.980	1	2
643.167	1	9
644.354	1	3
645.541	1	0
646.728	1	9
647.914	1	0
649.101	1	-5
650.288	1	4
651.474	1	1
652.661	1	0
653.847	1	0
655.034	1	0
656.220	1	-1
657.406	1	6
658.593	1	12
659.779	1	11
660.965	1	-3
662.152	1	-3
663.338	1	-1
664.524	1	-4
665.710	1	-2
666.896	1	6
668.082	1	4
669.268	1	-3
670.454	1	5
671.640	1	-10
672.826	1	-3
674.011	1	3
675.197	1	2
676.383	1	8
677.569	1	-5
678.754	1	7
679.940	1	-2
681.125	1	5
682.311	1	-4
683.496	1	-5
684.682	1	9
685.867	1	4
687.053	1	8
688.238	1	10
688.746	1	7