File: Data/GaN_130K_350ms/GaN_sample F_spot6_UVVIS_130 K_200um_350 ms 2x2mm1_265.txt
340.368	1	2
341.565	1	3
342.763	1	-1
343.960	1	-12
345.157	1	-4
346.354	1	1
347.552	1	7
348.749	1	2
349.946	1	12
351.143	1	-4
352.340	1	15
353.537	1	7
354.734	1	-5
355.931	1	6
357.127	1	0
358.324	1	-4
359.521	1	3
360.718	1	9
361.914	1	13
363.111	1	17
364.308	1	13
365.504	1	14
366.701	1	7
367.897	1	8
369.093	1	11
370.290	1	11
371.486	1	18
372.682	1	8
373.879	1	16
375.075	1	19
376.271	1	7
377.467	1	18
378.663	1	12
379.859	1	2
381.055	1	5
382.251	1	4
383.447	1	4
384.643	1	9
385.839	1	6
387.035	1	11
388.230	1	-2
389.426	1	11
390.622	1	1
391.817	1	3
393.013	1	5
394.208	1	-3
395.404	1	-6
396.599	1	9
397.795	1	-7
398.990	1	5
400.186	1	7
401.381	1	5
402.576	1	10
403.771	1	8
404.967	1	-9
406.162	1	-7
407.357	1	-8
408.552	1	-7
409.747	1	-1
410.942	1	6
412.137	1	-4
413.332	1	0
414.526	1	4
415.721	1	1
416.916	1	5
418.111	1	9
419.305	1	3
420.500	1	10
421.695	1	-3
422.889	1	5
424.084	1	9
425.278	1	-9
426.472	1	2
427.667	1	10
428.861	1	-6
430.055	1	-7
431.250	1	15
432.444	1	10
433.638	1	5
434.832	1	8
436.026	1	2
437.220	1	-5
438.414	1	-6
439.608	1	3
440.802	1	-11
441.996	1	8
443.190	1	5
444.384	1	-8
445.578	1	-4
446.771	1	4
447.965	1	9
449.159	1	1
450.352	1	3
451.546	1	2
452.739	1	-2
453.933	1	11
455.126	1	-6
456.320	1	-4
457.513	1	-7
458.706	1	4
459.899	1	-3
461.093	1	7
462.286	1	10
463.479	1	5
464.672	1	9
465.865	1	-2
467.058	1	0
468.251	1	-7
469.444	1	-7
470.637	1	8
471.830	1	11
473.023	1	12
474.215	1	10
475.408	1	-2
476.601	1	-3
477.793	1	0
478.986	1	6
480.179	1	-4
481.371	1	6
482.564	1	-2
483.756	1	3
484.948	1	9
486.141	1	1
487.333	1	5
488.525	1	12
489.718	1	-2
490.910	1	-2
492.102	1	12
493.294	1	8
494.486	1	5
495.678	1	-6
496.870	1	8
498.062	1	6
499.254	1	-2
500.446	1	9
501.638	1	-2
502.829	1	3
504.021	1	-6
505.213	1	4
506.404	1	-1
507.596	1	-3
508.788	1	3
509.979	1	-4
511.171	1	12
512.362	1	3
513.553	1	5
514.745	1	-2
515.936	1	13
517.127	1	4
518.319	1	4
519.510	1	0
520.701	1	-2
521.892	1	6
523.083	1	6
524.274	1	3
525.465	1	3
526.656	1	10
527.847	1	7
529.038	1	-6
530.229	1	7
531.419	1	6
532.610	1	4
533.801	1	19
534.991	1	0
536.182	1	15
537.373	1	-2
538.563	1	2
539.754	1	-1
540.944	1	1
542.134	1	9
543.325	1	3
544.515	1	7
545.705	1	-2
546.896	1	8
548.086	1	-3
549.276	1	-5
550.466	1	7
551.656	1	10
552.846	1	-3
554.036	1	10
555.226	1	2
556.416	1	11
557.606	1	3
558.796	1	13
559.986	1	0
561.175	1	-3
562.365	1	11
563.555	1	7
564.744	1	-6
565.934	1	-2
567.123	1	4
568.313	1	7
569.502	1	1
570.692	1	9
571.881	1	1
573.070	1	3
574.260	1	0
575.449	1	-2
576.638	1	-5
577.827	1	-10
579.016	1	6
580.205	1	-6
581.394	1	-4
582.583	1	16
583.772	1	0
584.961	1	-1
586.150	1	8
587.339	1	2
588.528	1	9
589.717	1	3
590.905	1	14
592.094	1	0
593.283	1	-3
594.471	1	1
595.660	1	3
596.848	1	2
598.037	1	4
599.225	1	10
600.413	1	8
601.602	1	4
602.790	1	2
603.978	1	-2
605.166	1	5
606.355	1	7
607.543	1	1
608.731	1	8
609.919	1	3
611.107	1	10
612.295	1	7
613.483	1	-5
614.671	1	1
615.858	1	-2
617.046	1	2
618.234	1	-2
619.422	1	1
620.609	1	-7
621.797	1	-3
622.985	1	11
624.172	1	3
625.360	1	3
626.547	1	1
627.735	1	15
628.922	1	-10
630.109	1	4
631.297	1	6
632.484	1	-6
633.671	1	-5
634.858	1	10
636.045	1	7
637.232	1	-5
638.419	1	2
639.606	1	-3
640.793	1	-7
641.980	1	2
643.167	1	4
644.354	1	2
645.541	1	0
646.728	1	6
647.914	1	1
649.101	1	-2
650.288	1	5
651.474	1	0
652.661	1	-1
653.847	1	1
655.034	1	4
656.220	1	-1
657.406	1	3
658.593	1	6
659.779	1	-6
660.965	1	1
662.152	1	6
663.338	1	0
664.524	1	0
665.710	1	-1
666.896	1	14
668.082	1	1
669.268	1	-3
670.454	1	-6
671.640	1	-3
672.826	1	-3
674.011	1	-1
675.197	1	4
676.383	1	4
677.569	1	-5
678.754	1	0
679.940	1	3
681.125	1	10
682.311	1	-2
683.496	1	-1
684.682	1	-4
685.867	1	0
687.053	1	1
688.238	1	9
688.746	1	-2