File: Data/GaN_130K_350ms/GaN_sample F_spot6_UVVIS_130 K_200um_350 ms 2x2mm1_136.txt
340.368	1	6
341.565	1	5
342.763	1	9
343.960	1	-8
345.157	1	-6
346.354	1	0
347.552	1	0
348.749	1	11
349.946	1	4
351.143	1	5
352.340	1	13
353.537	1	-3
354.734	1	4
355.931	1	14
357.127	1	16
358.324	1	4
359.521	1	8
360.718	1	24
361.914	1	19
363.111	1	27
364.308	1	31
365.504	1	42
366.701	1	43
367.897	1	42
369.093	1	47
370.290	1	50
371.486	1	39
372.682	1	41
373.879	1	41
375.075	1	32
376.271	1	26
377.467	1	37
378.663	1	15
379.859	1	14
381.055	1	15
382.251	1	14
383.447	1	4
384.643	1	10
385.839	1	11
387.035	1	20
388.230	1	14
389.426	1	18
390.622	1	7
391.817	1	15
393.013	1	17
394.208	1	2
395.404	1	-5
396.599	1	19
397.795	1	-2
398.990	1	10
400.186	1	1
401.381	1	9
402.576	1	11
403.771	1	6
404.967	1	10
406.162	1	-2
407.357	1	6
408.552	1	3
409.747	1	7
410.942	1	13
412.137	1	1
413.332	1	-5
414.526	1	5
415.721	1	1
416.916	1	-3
418.111	1	15
419.305	1	-5
420.500	1	6
421.695	1	4
422.889	1	7
424.084	1	5
425.278	1	3
426.472	1	10
427.667	1	15
428.861	1	-4
430.055	1	-3
431.250	1	13
432.444	1	9
433.638	1	11
434.832	1	4
436.026	1	4
437.220	1	-7
438.414	1	1
439.608	1	22
440.802	1	-1
441.996	1	10
443.190	1	7
444.384	1	1
445.578	1	-1
446.771	1	-3
447.965	1	17
449.159	1	11
450.352	1	18
451.546	1	13
452.739	1	4
453.933	1	9
455.126	1	-15
456.320	1	-5
457.513	1	-5
458.706	1	10
459.899	1	1
461.093	1	3
462.286	1	8
463.479	1	8
464.672	1	5
465.865	1	0
467.058	1	8
468.251	1	6
469.444	1	5
470.637	1	5
471.830	1	8
473.023	1	-2
474.215	1	6
475.408	1	6
476.601	1	6
477.793	1	0
478.986	1	2
480.179	1	-1
481.371	1	12
482.564	1	2
483.756	1	5
484.948	1	12
486.141	1	1
487.333	1	2
488.525	1	0
489.718	1	8
490.910	1	5
492.102	1	13
493.294	1	16
494.486	1	14
495.678	1	9
496.870	1	7
498.062	1	-4
499.254	1	9
500.446	1	1
501.638	1	6
502.829	1	7
504.021	1	4
505.213	1	2
506.404	1	7
507.596	1	10
508.788	1	15
509.979	1	9
511.171	1	26
512.362	1	9
513.553	1	13
514.745	1	6
515.936	1	20
517.127	1	28
518.319	1	10
519.510	1	11
520.701	1	9
521.892	1	17
523.083	1	20
524.274	1	11
525.465	1	21
526.656	1	17
527.847	1	17
529.038	1	9
530.229	1	26
531.419	1	23
532.610	1	18
533.801	1	27
534.991	1	9
536.182	1	22
537.373	1	19
538.563	1	16
539.754	1	19
540.944	1	21
542.134	1	6
543.325	1	15
544.515	1	19
545.705	1	10
546.896	1	25
548.086	1	4
549.276	1	10
550.466	1	18
551.656	1	11
552.846	1	11
554.036	1	7
555.226	1	13
556.416	1	8
557.606	1	13
558.796	1	27
559.986	1	16
561.175	1	7
562.365	1	11
563.555	1	21
564.744	1	13
565.934	1	4
567.123	1	3
568.313	1	-2
569.502	1	8
570.692	1	21
571.881	1	18
573.070	1	6
574.260	1	8
575.449	1	10
576.638	1	-1
577.827	1	5
579.016	1	8
580.205	1	0
581.394	1	14
582.583	1	7
583.772	1	2
584.961	1	9
586.150	1	5
587.339	1	-4
588.528	1	15
589.717	1	7
590.905	1	16
592.094	1	3
593.283	1	5
594.471	1	9
595.660	1	-1
596.848	1	14
598.037	1	2
599.225	1	3
600.413	1	13
601.602	1	-1
602.790	1	1
603.978	1	4
605.166	1	9
606.355	1	10
607.543	1	-4
608.731	1	5
609.919	1	4
611.107	1	8
612.295	1	11
613.483	1	-7
614.671	1	10
615.858	1	-5
617.046	1	14
618.234	1	0
619.422	1	1
620.609	1	-2
621.797	1	6
622.985	1	4
624.172	1	-5
625.360	1	9
626.547	1	8
627.735	1	3
628.922	1	11
630.109	1	8
631.297	1	4
632.484	1	-1
633.671	1	0
634.858	1	5
636.045	1	11
637.232	1	0
638.419	1	2
639.606	1	7
640.793	1	-6
641.980	1	1
643.167	1	5
644.354	1	1
645.541	1	3
646.728	1	8
647.914	1	3
649.101	1	-7
650.288	1	2
651.474	1	1
652.661	1	-1
653.847	1	-1
655.034	1	1
656.220	1	-4
657.406	1	2
658.593	1	-1
659.779	1	0
660.965	1	8
662.152	1	-6
663.338	1	4
664.524	1	5
665.710	1	7
666.896	1	7
668.082	1	11
669.268	1	-8
670.454	1	-7
671.640	1	-6
672.826	1	0
674.011	1	3
675.197	1	2
676.383	1	15
677.569	1	5
678.754	1	3
679.940	1	9
681.125	1	12
682.311	1	-16
683.496	1	-6
684.682	1	4
685.867	1	7
687.053	1	9
688.238	1	9
688.746	1	12