File: Data/GaN_130K_350ms/GaN_sample F_spot6_UVVIS_130 K_200um_350 ms 2x2mm1_142.txt
340.368	1	13
341.565	1	-2
342.763	1	5
343.960	1	-7
345.157	1	-9
346.354	1	2
347.552	1	-3
348.749	1	6
349.946	1	-3
351.143	1	3
352.340	1	6
353.537	1	3
354.734	1	8
355.931	1	10
357.127	1	9
358.324	1	2
359.521	1	6
360.718	1	22
361.914	1	21
363.111	1	29
364.308	1	35
365.504	1	28
366.701	1	41
367.897	1	43
369.093	1	49
370.290	1	43
371.486	1	28
372.682	1	29
373.879	1	36
375.075	1	37
376.271	1	22
377.467	1	36
378.663	1	18
379.859	1	18
381.055	1	13
382.251	1	21
383.447	1	14
384.643	1	11
385.839	1	14
387.035	1	18
388.230	1	6
389.426	1	19
390.622	1	9
391.817	1	15
393.013	1	11
394.208	1	2
395.404	1	5
396.599	1	13
397.795	1	1
398.990	1	-1
400.186	1	12
401.381	1	9
402.576	1	8
403.771	1	14
404.967	1	14
406.162	1	7
407.357	1	6
408.552	1	2
409.747	1	12
410.942	1	15
412.137	1	1
413.332	1	-5
414.526	1	2
415.721	1	0
416.916	1	2
418.111	1	9
419.305	1	3
420.500	1	10
421.695	1	7
422.889	1	0
424.084	1	11
425.278	1	-9
426.472	1	2
427.667	1	14
428.861	1	2
430.055	1	1
431.250	1	8
432.444	1	14
433.638	1	9
434.832	1	-2
436.026	1	3
437.220	1	-2
438.414	1	-4
439.608	1	15
440.802	1	-4
441.996	1	16
443.190	1	4
444.384	1	5
445.578	1	0
446.771	1	6
447.965	1	4
449.159	1	11
450.352	1	16
451.546	1	16
452.739	1	7
453.933	1	5
455.126	1	-2
456.320	1	10
457.513	1	-4
458.706	1	10
459.899	1	7
461.093	1	9
462.286	1	8
463.479	1	7
464.672	1	0
465.865	1	-9
467.058	1	1
468.251	1	4
469.444	1	-6
470.637	1	5
471.830	1	0
473.023	1	11
474.215	1	1
475.408	1	4
476.601	1	6
477.793	1	4
478.986	1	3
480.179	1	-4
481.371	1	8
482.564	1	-1
483.756	1	6
484.948	1	11
486.141	1	-1
487.333	1	0
488.525	1	7
489.718	1	9
490.910	1	-2
492.102	1	17
493.294	1	5
494.486	1	8
495.678	1	0
496.870	1	9
498.062	1	-3
499.254	1	13
500.446	1	12
501.638	1	-2
502.829	1	5
504.021	1	6
505.213	1	0
506.404	1	14
507.596	1	9
508.788	1	18
509.979	1	-1
511.171	1	14
512.362	1	7
513.553	1	22
514.745	1	13
515.936	1	22
517.127	1	12
518.319	1	5
519.510	1	1
520.701	1	10
521.892	1	22
523.083	1	14
524.274	1	11
525.465	1	13
526.656	1	20
527.847	1	20
529.038	1	3
530.229	1	20
531.419	1	13
532.610	1	14
533.801	1	31
534.991	1	19
536.182	1	17
537.373	1	20
538.563	1	14
539.754	1	16
540.944	1	20
542.134	1	14
543.325	1	18
544.515	1	10
545.705	1	8
546.896	1	11
548.086	1	3
549.276	1	2
550.466	1	17
551.656	1	17
552.846	1	10
554.036	1	4
555.226	1	14
556.416	1	15
557.606	1	7
558.796	1	19
559.986	1	19
561.175	1	18
562.365	1	10
563.555	1	14
564.744	1	7
565.934	1	9
567.123	1	11
568.313	1	3
569.502	1	5
570.692	1	13
571.881	1	9
573.070	1	4
574.260	1	13
575.449	1	10
576.638	1	6
577.827	1	2
579.016	1	4
580.205	1	1
581.394	1	3
582.583	1	20
583.772	1	8
584.961	1	0
586.150	1	1
587.339	1	7
588.528	1	11
589.717	1	-5
590.905	1	7
592.094	1	6
593.283	1	2
594.471	1	4
595.660	1	1
596.848	1	7
598.037	1	7
599.225	1	-1
600.413	1	7
601.602	1	-9
602.790	1	8
603.978	1	9
605.166	1	9
606.355	1	15
607.543	1	2
608.731	1	-3
609.919	1	15
611.107	1	5
612.295	1	8
613.483	1	7
614.671	1	13
615.858	1	-2
617.046	1	8
618.234	1	4
619.422	1	8
620.609	1	6
621.797	1	3
622.985	1	10
624.172	1	5
625.360	1	8
626.547	1	7
627.735	1	6
628.922	1	0
630.109	1	8
631.297	1	6
632.484	1	-3
633.671	1	-4
634.858	1	8
636.045	1	6
637.232	1	2
638.419	1	5
639.606	1	9
640.793	1	-8
641.980	1	2
643.167	1	3
644.354	1	-1
645.541	1	-1
646.728	1	3
647.914	1	-11
649.101	1	-1
650.288	1	13
651.474	1	-7
652.661	1	14
653.847	1	4
655.034	1	8
656.220	1	2
657.406	1	15
658.593	1	11
659.779	1	6
660.965	1	2
662.152	1	8
663.338	1	-1
664.524	1	-3
665.710	1	0
666.896	1	7
668.082	1	-1
669.268	1	0
670.454	1	3
671.640	1	-4
672.826	1	5
674.011	1	2
675.197	1	-7
676.383	1	10
677.569	1	4
678.754	1	2
679.940	1	-3
681.125	1	5
682.311	1	-2
683.496	1	-3
684.682	1	-3
685.867	1	9
687.053	1	-4
688.238	1	6
688.746	1	10