File: Data/GaN_130K_350ms/GaN_sample F_spot6_UVVIS_130 K_200um_350 ms 2x2mm1_203.txt
340.368	1	8
341.565	1	5
342.763	1	4
343.960	1	-8
345.157	1	-6
346.354	1	-3
347.552	1	2
348.749	1	7
349.946	1	1
351.143	1	-5
352.340	1	16
353.537	1	-3
354.734	1	5
355.931	1	1
357.127	1	2
358.324	1	11
359.521	1	2
360.718	1	9
361.914	1	6
363.111	1	18
364.308	1	21
365.504	1	23
366.701	1	18
367.897	1	25
369.093	1	12
370.290	1	23
371.486	1	19
372.682	1	8
373.879	1	15
375.075	1	13
376.271	1	15
377.467	1	8
378.663	1	14
379.859	1	6
381.055	1	10
382.251	1	2
383.447	1	8
384.643	1	6
385.839	1	9
387.035	1	15
388.230	1	3
389.426	1	5
390.622	1	-3
391.817	1	11
393.013	1	11
394.208	1	-5
395.404	1	-10
396.599	1	14
397.795	1	-3
398.990	1	7
400.186	1	8
401.381	1	9
402.576	1	4
403.771	1	3
404.967	1	6
406.162	1	1
407.357	1	2
408.552	1	9
409.747	1	8
410.942	1	5
412.137	1	-1
413.332	1	0
414.526	1	2
415.721	1	7
416.916	1	3
418.111	1	10
419.305	1	4
420.500	1	7
421.695	1	9
422.889	1	4
424.084	1	11
425.278	1	1
426.472	1	-4
427.667	1	15
428.861	1	2
430.055	1	5
431.250	1	10
432.444	1	10
433.638	1	13
434.832	1	3
436.026	1	9
437.220	1	-2
438.414	1	-5
439.608	1	7
440.802	1	3
441.996	1	14
443.190	1	4
444.384	1	1
445.578	1	-1
446.771	1	5
447.965	1	4
449.159	1	3
450.352	1	11
451.546	1	16
452.739	1	1
453.933	1	10
455.126	1	-4
456.320	1	0
457.513	1	-1
458.706	1	2
459.899	1	2
461.093	1	4
462.286	1	7
463.479	1	8
464.672	1	13
465.865	1	-4
467.058	1	5
468.251	1	14
469.444	1	0
470.637	1	7
471.830	1	13
473.023	1	9
474.215	1	8
475.408	1	8
476.601	1	-3
477.793	1	-6
478.986	1	2
480.179	1	0
481.371	1	3
482.564	1	0
483.756	1	-1
484.948	1	2
486.141	1	7
487.333	1	-3
488.525	1	14
489.718	1	2
490.910	1	-6
492.102	1	11
493.294	1	6
494.486	1	11
495.678	1	10
496.870	1	-4
498.062	1	3
499.254	1	11
500.446	1	4
501.638	1	4
502.829	1	2
504.021	1	3
505.213	1	5
506.404	1	-2
507.596	1	-5
508.788	1	9
509.979	1	7
511.171	1	11
512.362	1	10
513.553	1	5
514.745	1	11
515.936	1	10
517.127	1	8
518.319	1	-7
519.510	1	1
520.701	1	2
521.892	1	11
523.083	1	-4
524.274	1	0
525.465	1	8
526.656	1	12
527.847	1	6
529.038	1	-6
530.229	1	7
531.419	1	11
532.610	1	8
533.801	1	18
534.991	1	3
536.182	1	10
537.373	1	10
538.563	1	10
539.754	1	-7
540.944	1	11
542.134	1	6
543.325	1	5
544.515	1	17
545.705	1	9
546.896	1	10
548.086	1	-7
549.276	1	2
550.466	1	13
551.656	1	7
552.846	1	5
554.036	1	2
555.226	1	15
556.416	1	11
557.606	1	-1
558.796	1	9
559.986	1	11
561.175	1	2
562.365	1	0
563.555	1	9
564.744	1	2
565.934	1	9
567.123	1	9
568.313	1	-9
569.502	1	9
570.692	1	8
571.881	1	3
573.070	1	-2
574.260	1	-1
575.449	1	3
576.638	1	-2
577.827	1	-6
579.016	1	2
580.205	1	9
581.394	1	-3
582.583	1	13
583.772	1	5
584.961	1	-2
586.150	1	16
587.339	1	4
588.528	1	9
589.717	1	5
590.905	1	7
592.094	1	3
593.283	1	-2
594.471	1	-4
595.660	1	3
596.848	1	5
598.037	1	6
599.225	1	5
600.413	1	3
601.602	1	4
602.790	1	8
603.978	1	10
605.166	1	4
606.355	1	4
607.543	1	5
608.731	1	13
609.919	1	14
611.107	1	9
612.295	1	13
613.483	1	1
614.671	1	7
615.858	1	4
617.046	1	5
618.234	1	5
619.422	1	8
620.609	1	-3
621.797	1	3
622.985	1	2
624.172	1	-6
625.360	1	-5
626.547	1	1
627.735	1	5
628.922	1	-1
630.109	1	5
631.297	1	2
632.484	1	-1
633.671	1	-7
634.858	1	3
636.045	1	18
637.232	1	-6
638.419	1	8
639.606	1	16
640.793	1	-7
641.980	1	8
643.167	1	4
644.354	1	-7
645.541	1	7
646.728	1	8
647.914	1	-10
649.101	1	-6
650.288	1	14
651.474	1	-3
652.661	1	2
653.847	1	0
655.034	1	2
656.220	1	-2
657.406	1	9
658.593	1	9
659.779	1	0
660.965	1	-3
662.152	1	6
663.338	1	3
664.524	1	2
665.710	1	7
666.896	1	7
668.082	1	4
669.268	1	-3
670.454	1	12
671.640	1	-7
672.826	1	-1
674.011	1	3
675.197	1	3
676.383	1	5
677.569	1	0
678.754	1	0
679.940	1	3
681.125	1	12
682.311	1	-4
683.496	1	-5
684.682	1	-4
685.867	1	6
687.053	1	5
688.238	1	7
688.746	1	8