File: Data/GaN_130K_350ms/GaN_sample F_spot6_UVVIS_130 K_200um_350 ms 2x2mm1_278.txt
340.368	1	3
341.565	1	-1
342.763	1	6
343.960	1	-12
345.157	1	-1
346.354	1	7
347.552	1	-6
348.749	1	1
349.946	1	5
351.143	1	-1
352.340	1	9
353.537	1	6
354.734	1	-2
355.931	1	4
357.127	1	6
358.324	1	-4
359.521	1	-1
360.718	1	4
361.914	1	8
363.111	1	10
364.308	1	6
365.504	1	8
366.701	1	6
367.897	1	9
369.093	1	5
370.290	1	12
371.486	1	12
372.682	1	12
373.879	1	3
375.075	1	15
376.271	1	7
377.467	1	14
378.663	1	5
379.859	1	3
381.055	1	3
382.251	1	0
383.447	1	8
384.643	1	2
385.839	1	5
387.035	1	11
388.230	1	2
389.426	1	6
390.622	1	-3
391.817	1	2
393.013	1	2
394.208	1	-6
395.404	1	-11
396.599	1	7
397.795	1	-4
398.990	1	6
400.186	1	5
401.381	1	-1
402.576	1	4
403.771	1	11
404.967	1	2
406.162	1	-5
407.357	1	-2
408.552	1	7
409.747	1	-1
410.942	1	-1
412.137	1	-3
413.332	1	-2
414.526	1	5
415.721	1	10
416.916	1	-2
418.111	1	6
419.305	1	-1
420.500	1	6
421.695	1	-2
422.889	1	3
424.084	1	4
425.278	1	-7
426.472	1	1
427.667	1	9
428.861	1	-3
430.055	1	-4
431.250	1	9
432.444	1	2
433.638	1	8
434.832	1	1
436.026	1	6
437.220	1	-7
438.414	1	-4
439.608	1	14
440.802	1	0
441.996	1	8
443.190	1	6
444.384	1	-2
445.578	1	1
446.771	1	13
447.965	1	1
449.159	1	5
450.352	1	12
451.546	1	10
452.739	1	1
453.933	1	6
455.126	1	-10
456.320	1	4
457.513	1	0
458.706	1	6
459.899	1	-2
461.093	1	4
462.286	1	6
463.479	1	6
464.672	1	1
465.865	1	-4
467.058	1	11
468.251	1	4
469.444	1	6
470.637	1	-3
471.830	1	4
473.023	1	5
474.215	1	4
475.408	1	7
476.601	1	0
477.793	1	-2
478.986	1	-4
480.179	1	-4
481.371	1	4
482.564	1	-3
483.756	1	-1
484.948	1	-1
486.141	1	3
487.333	1	-8
488.525	1	7
489.718	1	3
490.910	1	-5
492.102	1	5
493.294	1	7
494.486	1	18
495.678	1	0
496.870	1	0
498.062	1	-8
499.254	1	5
500.446	1	4
501.638	1	6
502.829	1	1
504.021	1	7
505.213	1	4
506.404	1	1
507.596	1	-1
508.788	1	-1
509.979	1	-6
511.171	1	10
512.362	1	4
513.553	1	4
514.745	1	-2
515.936	1	14
517.127	1	5
518.319	1	-8
519.510	1	1
520.701	1	-13
521.892	1	5
523.083	1	6
524.274	1	0
525.465	1	9
526.656	1	4
527.847	1	-4
529.038	1	-3
530.229	1	3
531.419	1	6
532.610	1	2
533.801	1	11
534.991	1	3
536.182	1	7
537.373	1	3
538.563	1	8
539.754	1	0
540.944	1	10
542.134	1	3
543.325	1	8
544.515	1	-2
545.705	1	2
546.896	1	2
548.086	1	0
549.276	1	-3
550.466	1	11
551.656	1	-3
552.846	1	-3
554.036	1	8
555.226	1	-1
556.416	1	7
557.606	1	-1
558.796	1	8
559.986	1	4
561.175	1	10
562.365	1	1
563.555	1	6
564.744	1	1
565.934	1	3
567.123	1	-1
568.313	1	-7
569.502	1	8
570.692	1	3
571.881	1	-3
573.070	1	-5
574.260	1	3
575.449	1	3
576.638	1	4
577.827	1	-1
579.016	1	5
580.205	1	1
581.394	1	2
582.583	1	14
583.772	1	7
584.961	1	6
586.150	1	11
587.339	1	2
588.528	1	10
589.717	1	1
590.905	1	15
592.094	1	5
593.283	1	-9
594.471	1	-7
595.660	1	-3
596.848	1	2
598.037	1	8
599.225	1	0
600.413	1	6
601.602	1	1
602.790	1	4
603.978	1	3
605.166	1	4
606.355	1	4
607.543	1	-3
608.731	1	-2
609.919	1	4
611.107	1	9
612.295	1	15
613.483	1	-2
614.671	1	1
615.858	1	-2
617.046	1	6
618.234	1	-7
619.422	1	6
620.609	1	-8
621.797	1	-3
622.985	1	1
624.172	1	-5
625.360	1	-4
626.547	1	-2
627.735	1	11
628.922	1	2
630.109	1	9
631.297	1	-2
632.484	1	-10
633.671	1	-7
634.858	1	6
636.045	1	18
637.232	1	0
638.419	1	0
639.606	1	10
640.793	1	-10
641.980	1	-7
643.167	1	-2
644.354	1	-1
645.541	1	1
646.728	1	-2
647.914	1	-4
649.101	1	-10
650.288	1	10
651.474	1	4
652.661	1	4
653.847	1	-10
655.034	1	4
656.220	1	8
657.406	1	10
658.593	1	3
659.779	1	4
660.965	1	5
662.152	1	-5
663.338	1	-5
664.524	1	-14
665.710	1	-1
666.896	1	9
668.082	1	3
669.268	1	-2
670.454	1	3
671.640	1	-10
672.826	1	4
674.011	1	-3
675.197	1	0
676.383	1	0
677.569	1	-1
678.754	1	6
679.940	1	-5
681.125	1	7
682.311	1	-9
683.496	1	0
684.682	1	-2
685.867	1	1
687.053	1	3
688.238	1	11
688.746	1	12