File: Data/GaN_130K_350ms/GaN_sample F_spot6_UVVIS_130 K_200um_350 ms 2x2mm1_178.txt
340.368	1	10
341.565	1	7
342.763	1	2
343.960	1	-6
345.157	1	-9
346.354	1	3
347.552	1	4
348.749	1	10
349.946	1	0
351.143	1	5
352.340	1	11
353.537	1	-6
354.734	1	3
355.931	1	7
357.127	1	10
358.324	1	-1
359.521	1	-1
360.718	1	13
361.914	1	12
363.111	1	22
364.308	1	18
365.504	1	26
366.701	1	31
367.897	1	24
369.093	1	27
370.290	1	24
371.486	1	18
372.682	1	10
373.879	1	13
375.075	1	22
376.271	1	17
377.467	1	22
378.663	1	15
379.859	1	-1
381.055	1	9
382.251	1	1
383.447	1	8
384.643	1	4
385.839	1	11
387.035	1	15
388.230	1	9
389.426	1	1
390.622	1	6
391.817	1	20
393.013	1	6
394.208	1	3
395.404	1	-5
396.599	1	4
397.795	1	2
398.990	1	11
400.186	1	2
401.381	1	9
402.576	1	2
403.771	1	12
404.967	1	8
406.162	1	3
407.357	1	8
408.552	1	-1
409.747	1	7
410.942	1	-3
412.137	1	-2
413.332	1	-7
414.526	1	10
415.721	1	9
416.916	1	5
418.111	1	7
419.305	1	7
420.500	1	3
421.695	1	-5
422.889	1	1
424.084	1	8
425.278	1	3
426.472	1	3
427.667	1	1
428.861	1	2
430.055	1	2
431.250	1	10
432.444	1	4
433.638	1	7
434.832	1	4
436.026	1	9
437.220	1	-5
438.414	1	0
439.608	1	4
440.802	1	-4
441.996	1	10
443.190	1	9
444.384	1	8
445.578	1	-7
446.771	1	7
447.965	1	5
449.159	1	2
450.352	1	7
451.546	1	15
452.739	1	3
453.933	1	6
455.126	1	6
456.320	1	-3
457.513	1	2
458.706	1	-2
459.899	1	10
461.093	1	5
462.286	1	6
463.479	1	6
464.672	1	5
465.865	1	2
467.058	1	6
468.251	1	5
469.444	1	-4
470.637	1	5
471.830	1	7
473.023	1	7
474.215	1	1
475.408	1	8
476.601	1	3
477.793	1	-4
478.986	1	6
480.179	1	-2
481.371	1	11
482.564	1	5
483.756	1	9
484.948	1	-3
486.141	1	5
487.333	1	-1
488.525	1	7
489.718	1	8
490.910	1	11
492.102	1	3
493.294	1	7
494.486	1	13
495.678	1	0
496.870	1	2
498.062	1	6
499.254	1	13
500.446	1	8
501.638	1	2
502.829	1	2
504.021	1	-2
505.213	1	5
506.404	1	9
507.596	1	1
508.788	1	4
509.979	1	7
511.171	1	19
512.362	1	6
513.553	1	8
514.745	1	11
515.936	1	18
517.127	1	5
518.319	1	4
519.510	1	2
520.701	1	8
521.892	1	9
523.083	1	14
524.274	1	9
525.465	1	4
526.656	1	0
527.847	1	9
529.038	1	-1
530.229	1	17
531.419	1	16
532.610	1	8
533.801	1	25
534.991	1	10
536.182	1	24
537.373	1	14
538.563	1	8
539.754	1	0
540.944	1	17
542.134	1	8
543.325	1	5
544.515	1	7
545.705	1	7
546.896	1	13
548.086	1	-1
549.276	1	5
550.466	1	15
551.656	1	8
552.846	1	0
554.036	1	9
555.226	1	9
556.416	1	9
557.606	1	8
558.796	1	18
559.986	1	12
561.175	1	7
562.365	1	8
563.555	1	12
564.744	1	4
565.934	1	14
567.123	1	14
568.313	1	-2
569.502	1	5
570.692	1	12
571.881	1	9
573.070	1	9
574.260	1	6
575.449	1	10
576.638	1	7
577.827	1	-2
579.016	1	3
580.205	1	-3
581.394	1	0
582.583	1	20
583.772	1	4
584.961	1	-5
586.150	1	17
587.339	1	-3
588.528	1	11
589.717	1	-8
590.905	1	1
592.094	1	7
593.283	1	-5
594.471	1	5
595.660	1	5
596.848	1	6
598.037	1	4
599.225	1	2
600.413	1	7
601.602	1	-4
602.790	1	-4
603.978	1	3
605.166	1	10
606.355	1	7
607.543	1	5
608.731	1	10
609.919	1	8
611.107	1	8
612.295	1	9
613.483	1	-7
614.671	1	-1
615.858	1	-10
617.046	1	7
618.234	1	-8
619.422	1	8
620.609	1	-6
621.797	1	1
622.985	1	7
624.172	1	2
625.360	1	4
626.547	1	0
627.735	1	6
628.922	1	-6
630.109	1	1
631.297	1	-3
632.484	1	-5
633.671	1	-6
634.858	1	9
636.045	1	22
637.232	1	-3
638.419	1	7
639.606	1	1
640.793	1	-6
641.980	1	5
643.167	1	5
644.354	1	7
645.541	1	6
646.728	1	8
647.914	1	-11
649.101	1	-3
650.288	1	8
651.474	1	-3
652.661	1	4
653.847	1	0
655.034	1	1
656.220	1	0
657.406	1	6
658.593	1	6
659.779	1	3
660.965	1	3
662.152	1	-1
663.338	1	3
664.524	1	-4
665.710	1	2
666.896	1	8
668.082	1	3
669.268	1	4
670.454	1	1
671.640	1	2
672.826	1	6
674.011	1	7
675.197	1	0
676.383	1	4
677.569	1	1
678.754	1	11
679.940	1	-3
681.125	1	19
682.311	1	-6
683.496	1	-1
684.682	1	2
685.867	1	7
687.053	1	5
688.238	1	5
688.746	1	3