File: Data/GaN_130K_350ms/GaN_sample F_spot6_UVVIS_130 K_200um_350 ms 2x2mm1_197.txt
340.368	1	-5
341.565	1	6
342.763	1	2
343.960	1	-9
345.157	1	-21
346.354	1	-3
347.552	1	-4
348.749	1	11
349.946	1	4
351.143	1	1
352.340	1	12
353.537	1	3
354.734	1	-2
355.931	1	-2
357.127	1	10
358.324	1	2
359.521	1	-3
360.718	1	6
361.914	1	13
363.111	1	14
364.308	1	11
365.504	1	22
366.701	1	19
367.897	1	20
369.093	1	20
370.290	1	18
371.486	1	20
372.682	1	10
373.879	1	17
375.075	1	16
376.271	1	21
377.467	1	24
378.663	1	10
379.859	1	1
381.055	1	11
382.251	1	8
383.447	1	-2
384.643	1	19
385.839	1	13
387.035	1	15
388.230	1	3
389.426	1	10
390.622	1	10
391.817	1	12
393.013	1	4
394.208	1	1
395.404	1	-1
396.599	1	14
397.795	1	0
398.990	1	7
400.186	1	5
401.381	1	6
402.576	1	12
403.771	1	15
404.967	1	2
406.162	1	0
407.357	1	6
408.552	1	-3
409.747	1	3
410.942	1	8
412.137	1	-5
413.332	1	0
414.526	1	9
415.721	1	-3
416.916	1	7
418.111	1	9
419.305	1	-4
420.500	1	2
421.695	1	0
422.889	1	7
424.084	1	6
425.278	1	-6
426.472	1	7
427.667	1	7
428.861	1	10
430.055	1	0
431.250	1	5
432.444	1	8
433.638	1	12
434.832	1	8
436.026	1	6
437.220	1	-6
438.414	1	5
439.608	1	7
440.802	1	-8
441.996	1	11
443.190	1	-2
444.384	1	-5
445.578	1	0
446.771	1	7
447.965	1	0
449.159	1	7
450.352	1	16
451.546	1	13
452.739	1	0
453.933	1	13
455.126	1	-5
456.320	1	-3
457.513	1	1
458.706	1	4
459.899	1	1
461.093	1	12
462.286	1	-4
463.479	1	15
464.672	1	2
465.865	1	2
467.058	1	1
468.251	1	6
469.444	1	2
470.637	1	1
471.830	1	4
473.023	1	7
474.215	1	5
475.408	1	6
476.601	1	7
477.793	1	-3
478.986	1	3
480.179	1	3
481.371	1	7
482.564	1	6
483.756	1	7
484.948	1	7
486.141	1	-1
487.333	1	-2
488.525	1	17
489.718	1	-2
490.910	1	2
492.102	1	15
493.294	1	14
494.486	1	18
495.678	1	-9
496.870	1	2
498.062	1	-1
499.254	1	6
500.446	1	1
501.638	1	14
502.829	1	0
504.021	1	0
505.213	1	2
506.404	1	-1
507.596	1	-1
508.788	1	3
509.979	1	4
511.171	1	11
512.362	1	3
513.553	1	13
514.745	1	-1
515.936	1	14
517.127	1	6
518.319	1	1
519.510	1	-2
520.701	1	8
521.892	1	12
523.083	1	2
524.274	1	-1
525.465	1	9
526.656	1	10
527.847	1	12
529.038	1	10
530.229	1	16
531.419	1	7
532.610	1	5
533.801	1	10
534.991	1	2
536.182	1	11
537.373	1	7
538.563	1	14
539.754	1	-1
540.944	1	14
542.134	1	0
543.325	1	1
544.515	1	10
545.705	1	3
546.896	1	9
548.086	1	3
549.276	1	-2
550.466	1	3
551.656	1	8
552.846	1	-4
554.036	1	-2
555.226	1	6
556.416	1	10
557.606	1	4
558.796	1	17
559.986	1	6
561.175	1	12
562.365	1	17
563.555	1	17
564.744	1	9
565.934	1	7
567.123	1	2
568.313	1	2
569.502	1	-2
570.692	1	7
571.881	1	-6
573.070	1	13
574.260	1	2
575.449	1	5
576.638	1	1
577.827	1	0
579.016	1	-6
580.205	1	-2
581.394	1	-3
582.583	1	12
583.772	1	5
584.961	1	-1
586.150	1	5
587.339	1	0
588.528	1	7
589.717	1	-1
590.905	1	4
592.094	1	6
593.283	1	-3
594.471	1	8
595.660	1	12
596.848	1	6
598.037	1	4
599.225	1	0
600.413	1	15
601.602	1	7
602.790	1	5
603.978	1	6
605.166	1	5
606.355	1	5
607.543	1	-1
608.731	1	11
609.919	1	5
611.107	1	10
612.295	1	10
613.483	1	-3
614.671	1	2
615.858	1	-4
617.046	1	9
618.234	1	4
619.422	1	0
620.609	1	-4
621.797	1	0
622.985	1	3
624.172	1	-5
625.360	1	7
626.547	1	-1
627.735	1	16
628.922	1	-4
630.109	1	0
631.297	1	0
632.484	1	-7
633.671	1	4
634.858	1	14
636.045	1	18
637.232	1	-4
638.419	1	1
639.606	1	5
640.793	1	-4
641.980	1	1
643.167	1	1
644.354	1	-8
645.541	1	-4
646.728	1	10
647.914	1	-1
649.101	1	-7
650.288	1	10
651.474	1	6
652.661	1	2
653.847	1	-5
655.034	1	-2
656.220	1	5
657.406	1	6
658.593	1	0
659.779	1	-3
660.965	1	-1
662.152	1	9
663.338	1	-4
664.524	1	-8
665.710	1	0
666.896	1	4
668.082	1	-1
669.268	1	-1
670.454	1	2
671.640	1	-6
672.826	1	3
674.011	1	1
675.197	1	0
676.383	1	10
677.569	1	5
678.754	1	8
679.940	1	4
681.125	1	10
682.311	1	-11
683.496	1	4
684.682	1	10
685.867	1	4
687.053	1	2
688.238	1	14
688.746	1	12