File: Data/GaN_130K_350ms/GaN_sample F_spot6_UVVIS_130 K_200um_350 ms 2x2mm1_305.txt
340.368	1	9
341.565	1	-1
342.763	1	-3
343.960	1	-8
345.157	1	-4
346.354	1	1
347.552	1	-6
348.749	1	7
349.946	1	4
351.143	1	6
352.340	1	12
353.537	1	4
354.734	1	7
355.931	1	-1
357.127	1	8
358.324	1	-7
359.521	1	-2
360.718	1	5
361.914	1	9
363.111	1	13
364.308	1	18
365.504	1	7
366.701	1	7
367.897	1	5
369.093	1	14
370.290	1	14
371.486	1	11
372.682	1	9
373.879	1	12
375.075	1	18
376.271	1	10
377.467	1	15
378.663	1	7
379.859	1	-3
381.055	1	5
382.251	1	4
383.447	1	3
384.643	1	16
385.839	1	2
387.035	1	17
388.230	1	-4
389.426	1	8
390.622	1	8
391.817	1	7
393.013	1	4
394.208	1	-5
395.404	1	-7
396.599	1	12
397.795	1	-3
398.990	1	4
400.186	1	1
401.381	1	9
402.576	1	8
403.771	1	13
404.967	1	4
406.162	1	3
407.357	1	5
408.552	1	0
409.747	1	7
410.942	1	-2
412.137	1	-2
413.332	1	3
414.526	1	13
415.721	1	0
416.916	1	-1
418.111	1	2
419.305	1	0
420.500	1	-5
421.695	1	-3
422.889	1	2
424.084	1	2
425.278	1	-3
426.472	1	4
427.667	1	10
428.861	1	1
430.055	1	3
431.250	1	15
432.444	1	3
433.638	1	1
434.832	1	6
436.026	1	13
437.220	1	2
438.414	1	-3
439.608	1	12
440.802	1	-9
441.996	1	10
443.190	1	-1
444.384	1	2
445.578	1	-4
446.771	1	2
447.965	1	0
449.159	1	4
450.352	1	10
451.546	1	14
452.739	1	7
453.933	1	1
455.126	1	-5
456.320	1	-2
457.513	1	-9
458.706	1	2
459.899	1	-1
461.093	1	5
462.286	1	7
463.479	1	11
464.672	1	1
465.865	1	-12
467.058	1	5
468.251	1	5
469.444	1	2
470.637	1	7
471.830	1	8
473.023	1	16
474.215	1	9
475.408	1	-4
476.601	1	-1
477.793	1	-1
478.986	1	3
480.179	1	2
481.371	1	10
482.564	1	1
483.756	1	-4
484.948	1	3
486.141	1	-1
487.333	1	-10
488.525	1	3
489.718	1	7
490.910	1	-9
492.102	1	5
493.294	1	1
494.486	1	10
495.678	1	1
496.870	1	6
498.062	1	-1
499.254	1	9
500.446	1	1
501.638	1	2
502.829	1	-3
504.021	1	-2
505.213	1	4
506.404	1	-5
507.596	1	8
508.788	1	8
509.979	1	3
511.171	1	4
512.362	1	4
513.553	1	10
514.745	1	-5
515.936	1	10
517.127	1	4
518.319	1	-3
519.510	1	7
520.701	1	-5
521.892	1	4
523.083	1	2
524.274	1	-6
525.465	1	10
526.656	1	8
527.847	1	5
529.038	1	-7
530.229	1	5
531.419	1	12
532.610	1	-1
533.801	1	21
534.991	1	5
536.182	1	12
537.373	1	-1
538.563	1	10
539.754	1	-4
540.944	1	-6
542.134	1	-6
543.325	1	-5
544.515	1	-3
545.705	1	-3
546.896	1	3
548.086	1	-15
549.276	1	6
550.466	1	8
551.656	1	-9
552.846	1	-9
554.036	1	-4
555.226	1	12
556.416	1	14
557.606	1	0
558.796	1	7
559.986	1	-1
561.175	1	15
562.365	1	1
563.555	1	12
564.744	1	-4
565.934	1	-2
567.123	1	-5
568.313	1	-14
569.502	1	-2
570.692	1	9
571.881	1	-1
573.070	1	1
574.260	1	3
575.449	1	3
576.638	1	-2
577.827	1	-1
579.016	1	-1
580.205	1	-4
581.394	1	5
582.583	1	10
583.772	1	13
584.961	1	-5
586.150	1	14
587.339	1	-8
588.528	1	14
589.717	1	-3
590.905	1	6
592.094	1	2
593.283	1	-1
594.471	1	1
595.660	1	-3
596.848	1	-1
598.037	1	-3
599.225	1	1
600.413	1	12
601.602	1	-1
602.790	1	-5
603.978	1	5
605.166	1	8
606.355	1	11
607.543	1	2
608.731	1	3
609.919	1	7
611.107	1	10
612.295	1	9
613.483	1	-5
614.671	1	5
615.858	1	-3
617.046	1	13
618.234	1	12
619.422	1	4
620.609	1	-1
621.797	1	3
622.985	1	7
624.172	1	4
625.360	1	2
626.547	1	8
627.735	1	7
628.922	1	-5
630.109	1	1
631.297	1	4
632.484	1	-3
633.671	1	-5
634.858	1	11
636.045	1	12
637.232	1	0
638.419	1	11
639.606	1	9
640.793	1	-10
641.980	1	-4
643.167	1	0
644.354	1	-5
645.541	1	7
646.728	1	5
647.914	1	-1
649.101	1	-8
650.288	1	-1
651.474	1	1
652.661	1	-5
653.847	1	-3
655.034	1	-7
656.220	1	-1
657.406	1	6
658.593	1	-2
659.779	1	4
660.965	1	3
662.152	1	2
663.338	1	-3
664.524	1	-10
665.710	1	-1
666.896	1	-1
668.082	1	4
669.268	1	2
670.454	1	-6
671.640	1	-10
672.826	1	-7
674.011	1	3
675.197	1	4
676.383	1	3
677.569	1	5
678.754	1	5
679.940	1	-2
681.125	1	13
682.311	1	0
683.496	1	0
684.682	1	5
685.867	1	-5
687.053	1	-3
688.238	1	11
688.746	1	4