File: Data/GaN_130K_350ms/GaN_sample F_spot6_UVVIS_130 K_200um_350 ms 2x2mm1_140.txt
340.368	1	2
341.565	1	2
342.763	1	2
343.960	1	1
345.157	1	-5
346.354	1	4
347.552	1	4
348.749	1	10
349.946	1	10
351.143	1	11
352.340	1	16
353.537	1	3
354.734	1	4
355.931	1	10
357.127	1	20
358.324	1	10
359.521	1	-9
360.718	1	19
361.914	1	19
363.111	1	28
364.308	1	36
365.504	1	37
366.701	1	46
367.897	1	47
369.093	1	51
370.290	1	46
371.486	1	32
372.682	1	31
373.879	1	38
375.075	1	24
376.271	1	26
377.467	1	24
378.663	1	11
379.859	1	16
381.055	1	19
382.251	1	19
383.447	1	22
384.643	1	17
385.839	1	11
387.035	1	21
388.230	1	2
389.426	1	20
390.622	1	0
391.817	1	14
393.013	1	14
394.208	1	0
395.404	1	5
396.599	1	15
397.795	1	3
398.990	1	3
400.186	1	-1
401.381	1	11
402.576	1	8
403.771	1	9
404.967	1	2
406.162	1	4
407.357	1	3
408.552	1	2
409.747	1	16
410.942	1	9
412.137	1	7
413.332	1	-2
414.526	1	2
415.721	1	-1
416.916	1	4
418.111	1	14
419.305	1	5
420.500	1	9
421.695	1	0
422.889	1	1
424.084	1	13
425.278	1	1
426.472	1	2
427.667	1	4
428.861	1	4
430.055	1	6
431.250	1	5
432.444	1	16
433.638	1	-1
434.832	1	2
436.026	1	13
437.220	1	3
438.414	1	2
439.608	1	20
440.802	1	-2
441.996	1	10
443.190	1	8
444.384	1	8
445.578	1	5
446.771	1	8
447.965	1	13
449.159	1	7
450.352	1	13
451.546	1	5
452.739	1	1
453.933	1	9
455.126	1	-3
456.320	1	-2
457.513	1	-9
458.706	1	11
459.899	1	-1
461.093	1	12
462.286	1	8
463.479	1	10
464.672	1	12
465.865	1	-5
467.058	1	8
468.251	1	5
469.444	1	6
470.637	1	4
471.830	1	2
473.023	1	3
474.215	1	-9
475.408	1	1
476.601	1	7
477.793	1	0
478.986	1	1
480.179	1	-1
481.371	1	9
482.564	1	-2
483.756	1	-1
484.948	1	0
486.141	1	7
487.333	1	0
488.525	1	13
489.718	1	8
490.910	1	-7
492.102	1	14
493.294	1	10
494.486	1	17
495.678	1	4
496.870	1	7
498.062	1	-1
499.254	1	4
500.446	1	7
501.638	1	13
502.829	1	1
504.021	1	16
505.213	1	13
506.404	1	2
507.596	1	2
508.788	1	14
509.979	1	14
511.171	1	10
512.362	1	12
513.553	1	10
514.745	1	21
515.936	1	25
517.127	1	22
518.319	1	10
519.510	1	12
520.701	1	19
521.892	1	17
523.083	1	21
524.274	1	10
525.465	1	20
526.656	1	15
527.847	1	8
529.038	1	12
530.229	1	17
531.419	1	24
532.610	1	17
533.801	1	32
534.991	1	22
536.182	1	22
537.373	1	20
538.563	1	19
539.754	1	14
540.944	1	17
542.134	1	7
543.325	1	19
544.515	1	19
545.705	1	10
546.896	1	13
548.086	1	8
549.276	1	3
550.466	1	19
551.656	1	15
552.846	1	12
554.036	1	7
555.226	1	9
556.416	1	13
557.606	1	2
558.796	1	12
559.986	1	9
561.175	1	17
562.365	1	15
563.555	1	12
564.744	1	8
565.934	1	8
567.123	1	11
568.313	1	1
569.502	1	15
570.692	1	21
571.881	1	13
573.070	1	7
574.260	1	7
575.449	1	13
576.638	1	9
577.827	1	8
579.016	1	15
580.205	1	-1
581.394	1	10
582.583	1	22
583.772	1	14
584.961	1	12
586.150	1	11
587.339	1	10
588.528	1	23
589.717	1	4
590.905	1	10
592.094	1	2
593.283	1	-4
594.471	1	1
595.660	1	0
596.848	1	9
598.037	1	4
599.225	1	9
600.413	1	5
601.602	1	13
602.790	1	5
603.978	1	10
605.166	1	8
606.355	1	6
607.543	1	14
608.731	1	6
609.919	1	10
611.107	1	10
612.295	1	12
613.483	1	-7
614.671	1	1
615.858	1	-5
617.046	1	12
618.234	1	2
619.422	1	6
620.609	1	-5
621.797	1	8
622.985	1	2
624.172	1	5
625.360	1	8
626.547	1	7
627.735	1	15
628.922	1	-1
630.109	1	13
631.297	1	-11
632.484	1	-11
633.671	1	-6
634.858	1	12
636.045	1	13
637.232	1	-7
638.419	1	6
639.606	1	8
640.793	1	-7
641.980	1	-2
643.167	1	5
644.354	1	-2
645.541	1	3
646.728	1	7
647.914	1	-4
649.101	1	0
650.288	1	11
651.474	1	-4
652.661	1	-2
653.847	1	4
655.034	1	0
656.220	1	2
657.406	1	2
658.593	1	-1
659.779	1	0
660.965	1	2
662.152	1	12
663.338	1	7
664.524	1	-4
665.710	1	5
666.896	1	9
668.082	1	5
669.268	1	8
670.454	1	-6
671.640	1	2
672.826	1	4
674.011	1	6
675.197	1	0
676.383	1	5
677.569	1	1
678.754	1	16
679.940	1	0
681.125	1	11
682.311	1	2
683.496	1	-5
684.682	1	6
685.867	1	6
687.053	1	-1
688.238	1	7
688.746	1	6