File: Data/GaN_130K_350ms/GaN_sample F_spot6_UVVIS_130 K_200um_350 ms 2x2mm1_204.txt
340.368	1	4
341.565	1	-5
342.763	1	7
343.960	1	-6
345.157	1	-10
346.354	1	0
347.552	1	0
348.749	1	11
349.946	1	8
351.143	1	10
352.340	1	10
353.537	1	0
354.734	1	1
355.931	1	9
357.127	1	8
358.324	1	7
359.521	1	3
360.718	1	3
361.914	1	14
363.111	1	20
364.308	1	16
365.504	1	15
366.701	1	15
367.897	1	5
369.093	1	19
370.290	1	21
371.486	1	15
372.682	1	17
373.879	1	17
375.075	1	16
376.271	1	8
377.467	1	11
378.663	1	13
379.859	1	4
381.055	1	17
382.251	1	4
383.447	1	1
384.643	1	7
385.839	1	3
387.035	1	8
388.230	1	0
389.426	1	5
390.622	1	11
391.817	1	5
393.013	1	5
394.208	1	-6
395.404	1	-7
396.599	1	8
397.795	1	3
398.990	1	-1
400.186	1	1
401.381	1	9
402.576	1	2
403.771	1	15
404.967	1	5
406.162	1	8
407.357	1	1
408.552	1	4
409.747	1	5
410.942	1	3
412.137	1	-7
413.332	1	-2
414.526	1	7
415.721	1	8
416.916	1	8
418.111	1	5
419.305	1	10
420.500	1	6
421.695	1	1
422.889	1	2
424.084	1	8
425.278	1	0
426.472	1	1
427.667	1	14
428.861	1	4
430.055	1	3
431.250	1	6
432.444	1	0
433.638	1	2
434.832	1	0
436.026	1	0
437.220	1	4
438.414	1	-4
439.608	1	14
440.802	1	0
441.996	1	12
443.190	1	-1
444.384	1	-1
445.578	1	3
446.771	1	5
447.965	1	8
449.159	1	14
450.352	1	8
451.546	1	12
452.739	1	2
453.933	1	6
455.126	1	-5
456.320	1	-3
457.513	1	0
458.706	1	7
459.899	1	-7
461.093	1	13
462.286	1	10
463.479	1	3
464.672	1	6
465.865	1	-7
467.058	1	10
468.251	1	6
469.444	1	-2
470.637	1	14
471.830	1	14
473.023	1	6
474.215	1	4
475.408	1	6
476.601	1	9
477.793	1	-3
478.986	1	0
480.179	1	4
481.371	1	-2
482.564	1	-3
483.756	1	5
484.948	1	0
486.141	1	1
487.333	1	-6
488.525	1	12
489.718	1	9
490.910	1	-8
492.102	1	11
493.294	1	5
494.486	1	10
495.678	1	-5
496.870	1	3
498.062	1	1
499.254	1	9
500.446	1	2
501.638	1	-2
502.829	1	11
504.021	1	4
505.213	1	6
506.404	1	8
507.596	1	1
508.788	1	-2
509.979	1	-2
511.171	1	13
512.362	1	-4
513.553	1	5
514.745	1	3
515.936	1	10
517.127	1	3
518.319	1	-2
519.510	1	-1
520.701	1	2
521.892	1	7
523.083	1	8
524.274	1	-2
525.465	1	9
526.656	1	8
527.847	1	4
529.038	1	8
530.229	1	9
531.419	1	10
532.610	1	11
533.801	1	21
534.991	1	-3
536.182	1	8
537.373	1	11
538.563	1	7
539.754	1	4
540.944	1	11
542.134	1	5
543.325	1	2
544.515	1	10
545.705	1	1
546.896	1	3
548.086	1	-1
549.276	1	4
550.466	1	9
551.656	1	10
552.846	1	-1
554.036	1	9
555.226	1	7
556.416	1	10
557.606	1	-1
558.796	1	19
559.986	1	2
561.175	1	12
562.365	1	5
563.555	1	6
564.744	1	1
565.934	1	0
567.123	1	-3
568.313	1	-3
569.502	1	7
570.692	1	4
571.881	1	4
573.070	1	4
574.260	1	7
575.449	1	5
576.638	1	0
577.827	1	1
579.016	1	-4
580.205	1	1
581.394	1	4
582.583	1	18
583.772	1	7
584.961	1	0
586.150	1	13
587.339	1	1
588.528	1	12
589.717	1	-10
590.905	1	2
592.094	1	-4
593.283	1	-5
594.471	1	7
595.660	1	9
596.848	1	6
598.037	1	1
599.225	1	3
600.413	1	2
601.602	1	-7
602.790	1	-4
603.978	1	-2
605.166	1	12
606.355	1	5
607.543	1	5
608.731	1	1
609.919	1	18
611.107	1	10
612.295	1	5
613.483	1	2
614.671	1	-7
615.858	1	-7
617.046	1	2
618.234	1	2
619.422	1	2
620.609	1	1
621.797	1	5
622.985	1	14
624.172	1	-3
625.360	1	2
626.547	1	3
627.735	1	6
628.922	1	-2
630.109	1	9
631.297	1	1
632.484	1	-6
633.671	1	-1
634.858	1	4
636.045	1	18
637.232	1	-14
638.419	1	5
639.606	1	7
640.793	1	-4
641.980	1	2
643.167	1	1
644.354	1	-2
645.541	1	3
646.728	1	6
647.914	1	-7
649.101	1	3
650.288	1	6
651.474	1	0
652.661	1	-1
653.847	1	3
655.034	1	4
656.220	1	-4
657.406	1	4
658.593	1	-4
659.779	1	1
660.965	1	0
662.152	1	7
663.338	1	-1
664.524	1	-6
665.710	1	10
666.896	1	5
668.082	1	4
669.268	1	1
670.454	1	0
671.640	1	-6
672.826	1	8
674.011	1	-2
675.197	1	-4
676.383	1	-3
677.569	1	4
678.754	1	3
679.940	1	-4
681.125	1	5
682.311	1	-4
683.496	1	-2
684.682	1	0
685.867	1	1
687.053	1	-1
688.238	1	1
688.746	1	0