File: Data/GaN_130K_350ms/GaN_sample F_spot6_UVVIS_130 K_200um_350 ms 2x2mm1_113.txt
340.368	1	0
341.565	1	0
342.763	1	6
343.960	1	-5
345.157	1	-13
346.354	1	8
347.552	1	4
348.749	1	5
349.946	1	11
351.143	1	-1
352.340	1	11
353.537	1	5
354.734	1	4
355.931	1	10
357.127	1	12
358.324	1	17
359.521	1	19
360.718	1	26
361.914	1	25
363.111	1	47
364.308	1	61
365.504	1	54
366.701	1	73
367.897	1	81
369.093	1	70
370.290	1	72
371.486	1	65
372.682	1	60
373.879	1	46
375.075	1	49
376.271	1	29
377.467	1	37
378.663	1	32
379.859	1	22
381.055	1	13
382.251	1	23
383.447	1	20
384.643	1	23
385.839	1	25
387.035	1	33
388.230	1	12
389.426	1	24
390.622	1	19
391.817	1	22
393.013	1	13
394.208	1	17
395.404	1	-4
396.599	1	15
397.795	1	8
398.990	1	13
400.186	1	12
401.381	1	17
402.576	1	19
403.771	1	16
404.967	1	3
406.162	1	9
407.357	1	4
408.552	1	4
409.747	1	7
410.942	1	1
412.137	1	-3
413.332	1	0
414.526	1	2
415.721	1	7
416.916	1	3
418.111	1	8
419.305	1	-1
420.500	1	12
421.695	1	8
422.889	1	4
424.084	1	13
425.278	1	-9
426.472	1	4
427.667	1	3
428.861	1	-2
430.055	1	10
431.250	1	20
432.444	1	17
433.638	1	4
434.832	1	11
436.026	1	1
437.220	1	-1
438.414	1	5
439.608	1	24
440.802	1	-4
441.996	1	11
443.190	1	12
444.384	1	10
445.578	1	-9
446.771	1	12
447.965	1	6
449.159	1	6
450.352	1	5
451.546	1	10
452.739	1	17
453.933	1	11
455.126	1	-6
456.320	1	-5
457.513	1	0
458.706	1	8
459.899	1	4
461.093	1	15
462.286	1	13
463.479	1	9
464.672	1	12
465.865	1	-2
467.058	1	4
468.251	1	0
469.444	1	10
470.637	1	2
471.830	1	7
473.023	1	13
474.215	1	6
475.408	1	5
476.601	1	3
477.793	1	4
478.986	1	2
480.179	1	4
481.371	1	11
482.564	1	8
483.756	1	9
484.948	1	-3
486.141	1	5
487.333	1	11
488.525	1	5
489.718	1	7
490.910	1	8
492.102	1	15
493.294	1	19
494.486	1	24
495.678	1	8
496.870	1	17
498.062	1	6
499.254	1	23
500.446	1	20
501.638	1	15
502.829	1	15
504.021	1	10
505.213	1	22
506.404	1	26
507.596	1	17
508.788	1	22
509.979	1	10
511.171	1	35
512.362	1	9
513.553	1	30
514.745	1	29
515.936	1	34
517.127	1	24
518.319	1	21
519.510	1	32
520.701	1	20
521.892	1	32
523.083	1	34
524.274	1	19
525.465	1	31
526.656	1	38
527.847	1	37
529.038	1	26
530.229	1	42
531.419	1	42
532.610	1	25
533.801	1	52
534.991	1	33
536.182	1	35
537.373	1	37
538.563	1	43
539.754	1	15
540.944	1	38
542.134	1	25
543.325	1	35
544.515	1	20
545.705	1	17
546.896	1	21
548.086	1	17
549.276	1	17
550.466	1	38
551.656	1	17
552.846	1	21
554.036	1	21
555.226	1	17
556.416	1	23
557.606	1	20
558.796	1	31
559.986	1	20
561.175	1	21
562.365	1	20
563.555	1	26
564.744	1	24
565.934	1	20
567.123	1	16
568.313	1	7
569.502	1	13
570.692	1	17
571.881	1	12
573.070	1	15
574.260	1	22
575.449	1	11
576.638	1	-1
577.827	1	4
579.016	1	2
580.205	1	4
581.394	1	10
582.583	1	24
583.772	1	16
584.961	1	10
586.150	1	13
587.339	1	8
588.528	1	12
589.717	1	-4
590.905	1	16
592.094	1	1
593.283	1	-2
594.471	1	4
595.660	1	5
596.848	1	11
598.037	1	7
599.225	1	16
600.413	1	13
601.602	1	6
602.790	1	7
603.978	1	13
605.166	1	10
606.355	1	12
607.543	1	-2
608.731	1	11
609.919	1	14
611.107	1	9
612.295	1	10
613.483	1	8
614.671	1	1
615.858	1	-12
617.046	1	8
618.234	1	5
619.422	1	8
620.609	1	-6
621.797	1	5
622.985	1	18
624.172	1	-1
625.360	1	1
626.547	1	7
627.735	1	6
628.922	1	-2
630.109	1	10
631.297	1	1
632.484	1	-4
633.671	1	7
634.858	1	4
636.045	1	10
637.232	1	1
638.419	1	8
639.606	1	7
640.793	1	-5
641.980	1	0
643.167	1	4
644.354	1	4
645.541	1	9
646.728	1	10
647.914	1	1
649.101	1	-2
650.288	1	12
651.474	1	-5
652.661	1	6
653.847	1	6
655.034	1	3
656.220	1	-5
657.406	1	2
658.593	1	5
659.779	1	9
660.965	1	1
662.152	1	-4
663.338	1	7
664.524	1	0
665.710	1	15
666.896	1	4
668.082	1	0
669.268	1	0
670.454	1	5
671.640	1	-3
672.826	1	2
674.011	1	3
675.197	1	5
676.383	1	7
677.569	1	0
678.754	1	9
679.940	1	-3
681.125	1	11
682.311	1	-7
683.496	1	1
684.682	1	0
685.867	1	4
687.053	1	0
688.238	1	8
688.746	1	6