File: Data/GaN_130K_350ms/GaN_sample F_spot6_UVVIS_130 K_200um_350 ms 2x2mm1_174.txt
340.368	1	8
341.565	1	1
342.763	1	-3
343.960	1	-1
345.157	1	-10
346.354	1	-1
347.552	1	-1
348.749	1	0
349.946	1	7
351.143	1	4
352.340	1	9
353.537	1	0
354.734	1	3
355.931	1	11
357.127	1	7
358.324	1	3
359.521	1	-7
360.718	1	11
361.914	1	7
363.111	1	23
364.308	1	28
365.504	1	21
366.701	1	24
367.897	1	28
369.093	1	17
370.290	1	26
371.486	1	27
372.682	1	11
373.879	1	26
375.075	1	25
376.271	1	24
377.467	1	17
378.663	1	20
379.859	1	10
381.055	1	8
382.251	1	3
383.447	1	6
384.643	1	22
385.839	1	8
387.035	1	14
388.230	1	8
389.426	1	11
390.622	1	12
391.817	1	13
393.013	1	16
394.208	1	-4
395.404	1	-12
396.599	1	14
397.795	1	6
398.990	1	8
400.186	1	3
401.381	1	8
402.576	1	8
403.771	1	14
404.967	1	13
406.162	1	6
407.357	1	5
408.552	1	7
409.747	1	4
410.942	1	11
412.137	1	14
413.332	1	3
414.526	1	0
415.721	1	8
416.916	1	2
418.111	1	8
419.305	1	7
420.500	1	6
421.695	1	2
422.889	1	13
424.084	1	11
425.278	1	-8
426.472	1	7
427.667	1	5
428.861	1	2
430.055	1	5
431.250	1	4
432.444	1	5
433.638	1	13
434.832	1	5
436.026	1	8
437.220	1	-2
438.414	1	2
439.608	1	11
440.802	1	0
441.996	1	9
443.190	1	8
444.384	1	-10
445.578	1	3
446.771	1	0
447.965	1	4
449.159	1	11
450.352	1	4
451.546	1	9
452.739	1	14
453.933	1	6
455.126	1	-6
456.320	1	-2
457.513	1	-1
458.706	1	3
459.899	1	1
461.093	1	14
462.286	1	11
463.479	1	23
464.672	1	2
465.865	1	-6
467.058	1	15
468.251	1	2
469.444	1	5
470.637	1	2
471.830	1	-1
473.023	1	5
474.215	1	2
475.408	1	15
476.601	1	-2
477.793	1	2
478.986	1	4
480.179	1	4
481.371	1	12
482.564	1	2
483.756	1	6
484.948	1	1
486.141	1	7
487.333	1	1
488.525	1	8
489.718	1	13
490.910	1	-3
492.102	1	6
493.294	1	6
494.486	1	13
495.678	1	2
496.870	1	4
498.062	1	-2
499.254	1	4
500.446	1	8
501.638	1	9
502.829	1	5
504.021	1	-1
505.213	1	5
506.404	1	2
507.596	1	0
508.788	1	-1
509.979	1	7
511.171	1	5
512.362	1	9
513.553	1	10
514.745	1	-2
515.936	1	20
517.127	1	15
518.319	1	-1
519.510	1	9
520.701	1	5
521.892	1	14
523.083	1	2
524.274	1	1
525.465	1	15
526.656	1	8
527.847	1	2
529.038	1	8
530.229	1	9
531.419	1	15
532.610	1	11
533.801	1	22
534.991	1	7
536.182	1	10
537.373	1	14
538.563	1	15
539.754	1	6
540.944	1	3
542.134	1	10
543.325	1	6
544.515	1	11
545.705	1	9
546.896	1	3
548.086	1	-2
549.276	1	-4
550.466	1	17
551.656	1	7
552.846	1	-3
554.036	1	6
555.226	1	7
556.416	1	8
557.606	1	12
558.796	1	13
559.986	1	7
561.175	1	9
562.365	1	21
563.555	1	16
564.744	1	11
565.934	1	1
567.123	1	3
568.313	1	9
569.502	1	7
570.692	1	11
571.881	1	4
573.070	1	8
574.260	1	9
575.449	1	14
576.638	1	3
577.827	1	0
579.016	1	2
580.205	1	-2
581.394	1	7
582.583	1	14
583.772	1	6
584.961	1	5
586.150	1	6
587.339	1	1
588.528	1	13
589.717	1	2
590.905	1	9
592.094	1	1
593.283	1	-9
594.471	1	6
595.660	1	7
596.848	1	11
598.037	1	2
599.225	1	8
600.413	1	5
601.602	1	-2
602.790	1	3
603.978	1	-2
605.166	1	10
606.355	1	13
607.543	1	14
608.731	1	2
609.919	1	2
611.107	1	20
612.295	1	19
613.483	1	-2
614.671	1	-3
615.858	1	-4
617.046	1	8
618.234	1	9
619.422	1	10
620.609	1	-14
621.797	1	2
622.985	1	-4
624.172	1	3
625.360	1	1
626.547	1	2
627.735	1	1
628.922	1	-3
630.109	1	10
631.297	1	-5
632.484	1	-8
633.671	1	-4
634.858	1	5
636.045	1	10
637.232	1	-1
638.419	1	10
639.606	1	15
640.793	1	-8
641.980	1	1
643.167	1	2
644.354	1	-2
645.541	1	-6
646.728	1	8
647.914	1	-1
649.101	1	-4
650.288	1	7
651.474	1	7
652.661	1	2
653.847	1	3
655.034	1	-2
656.220	1	0
657.406	1	-1
658.593	1	3
659.779	1	9
660.965	1	10
662.152	1	7
663.338	1	10
664.524	1	4
665.710	1	11
666.896	1	4
668.082	1	1
669.268	1	-3
670.454	1	5
671.640	1	-6
672.826	1	9
674.011	1	3
675.197	1	0
676.383	1	-2
677.569	1	8
678.754	1	5
679.940	1	1
681.125	1	11
682.311	1	-2
683.496	1	-9
684.682	1	3
685.867	1	-2
687.053	1	-2
688.238	1	6
688.746	1	3