File: Data/GaN_130K_350ms/GaN_sample F_spot6_UVVIS_130 K_200um_350 ms 2x2mm1_287.txt
340.368	1	4
341.565	1	3
342.763	1	-1
343.960	1	-11
345.157	1	-12
346.354	1	-4
347.552	1	-3
348.749	1	2
349.946	1	8
351.143	1	-1
352.340	1	5
353.537	1	-1
354.734	1	-13
355.931	1	5
357.127	1	1
358.324	1	8
359.521	1	-2
360.718	1	0
361.914	1	-4
363.111	1	18
364.308	1	11
365.504	1	15
366.701	1	13
367.897	1	7
369.093	1	15
370.290	1	14
371.486	1	8
372.682	1	-1
373.879	1	14
375.075	1	15
376.271	1	9
377.467	1	19
378.663	1	8
379.859	1	5
381.055	1	1
382.251	1	3
383.447	1	7
384.643	1	1
385.839	1	7
387.035	1	6
388.230	1	0
389.426	1	5
390.622	1	3
391.817	1	2
393.013	1	-1
394.208	1	0
395.404	1	0
396.599	1	3
397.795	1	-7
398.990	1	4
400.186	1	-7
401.381	1	8
402.576	1	1
403.771	1	3
404.967	1	3
406.162	1	6
407.357	1	1
408.552	1	-2
409.747	1	3
410.942	1	-1
412.137	1	-7
413.332	1	-2
414.526	1	-1
415.721	1	8
416.916	1	0
418.111	1	6
419.305	1	2
420.500	1	-2
421.695	1	-2
422.889	1	5
424.084	1	6
425.278	1	1
426.472	1	-1
427.667	1	16
428.861	1	1
430.055	1	3
431.250	1	8
432.444	1	6
433.638	1	-4
434.832	1	2
436.026	1	-2
437.220	1	-8
438.414	1	3
439.608	1	18
440.802	1	-8
441.996	1	3
443.190	1	6
444.384	1	-1
445.578	1	-3
446.771	1	10
447.965	1	5
449.159	1	5
450.352	1	9
451.546	1	10
452.739	1	-2
453.933	1	1
455.126	1	-8
456.320	1	-1
457.513	1	-3
458.706	1	7
459.899	1	5
461.093	1	3
462.286	1	6
463.479	1	1
464.672	1	8
465.865	1	2
467.058	1	3
468.251	1	-2
469.444	1	-4
470.637	1	9
471.830	1	3
473.023	1	6
474.215	1	10
475.408	1	2
476.601	1	-2
477.793	1	0
478.986	1	1
480.179	1	-1
481.371	1	9
482.564	1	-5
483.756	1	3
484.948	1	7
486.141	1	-4
487.333	1	-11
488.525	1	4
489.718	1	14
490.910	1	-8
492.102	1	5
493.294	1	9
494.486	1	10
495.678	1	-1
496.870	1	-2
498.062	1	-8
499.254	1	9
500.446	1	4
501.638	1	2
502.829	1	-2
504.021	1	7
505.213	1	8
506.404	1	-2
507.596	1	-6
508.788	1	9
509.979	1	-1
511.171	1	5
512.362	1	0
513.553	1	11
514.745	1	7
515.936	1	12
517.127	1	9
518.319	1	-7
519.510	1	-4
520.701	1	-2
521.892	1	12
523.083	1	12
524.274	1	-4
525.465	1	6
526.656	1	5
527.847	1	2
529.038	1	-3
530.229	1	2
531.419	1	7
532.610	1	-5
533.801	1	19
534.991	1	4
536.182	1	7
537.373	1	7
538.563	1	9
539.754	1	-2
540.944	1	8
542.134	1	0
543.325	1	-1
544.515	1	3
545.705	1	5
546.896	1	6
548.086	1	-5
549.276	1	0
550.466	1	5
551.656	1	3
552.846	1	-4
554.036	1	4
555.226	1	-1
556.416	1	5
557.606	1	-4
558.796	1	20
559.986	1	-7
561.175	1	-6
562.365	1	6
563.555	1	0
564.744	1	11
565.934	1	-5
567.123	1	6
568.313	1	-2
569.502	1	2
570.692	1	3
571.881	1	4
573.070	1	2
574.260	1	4
575.449	1	2
576.638	1	2
577.827	1	-8
579.016	1	-1
580.205	1	1
581.394	1	6
582.583	1	7
583.772	1	6
584.961	1	-6
586.150	1	4
587.339	1	4
588.528	1	11
589.717	1	-5
590.905	1	7
592.094	1	2
593.283	1	-9
594.471	1	9
595.660	1	4
596.848	1	-3
598.037	1	7
599.225	1	3
600.413	1	6
601.602	1	-1
602.790	1	7
603.978	1	8
605.166	1	6
606.355	1	10
607.543	1	-5
608.731	1	5
609.919	1	6
611.107	1	6
612.295	1	7
613.483	1	-2
614.671	1	5
615.858	1	2
617.046	1	6
618.234	1	9
619.422	1	-2
620.609	1	-4
621.797	1	5
622.985	1	9
624.172	1	2
625.360	1	-2
626.547	1	1
627.735	1	11
628.922	1	-7
630.109	1	5
631.297	1	1
632.484	1	-4
633.671	1	-10
634.858	1	11
636.045	1	15
637.232	1	2
638.419	1	-3
639.606	1	8
640.793	1	-3
641.980	1	2
643.167	1	11
644.354	1	-3
645.541	1	8
646.728	1	9
647.914	1	-11
649.101	1	0
650.288	1	9
651.474	1	-4
652.661	1	-5
653.847	1	-3
655.034	1	-4
656.220	1	-5
657.406	1	10
658.593	1	-3
659.779	1	-8
660.965	1	-2
662.152	1	0
663.338	1	-2
664.524	1	-4
665.710	1	13
666.896	1	6
668.082	1	7
669.268	1	5
670.454	1	5
671.640	1	-6
672.826	1	-1
674.011	1	3
675.197	1	-6
676.383	1	4
677.569	1	-4
678.754	1	0
679.940	1	-9
681.125	1	11
682.311	1	-3
683.496	1	-4
684.682	1	3
685.867	1	1
687.053	1	-4
688.238	1	10
688.746	1	10