File: Data/GaN_130K_350ms/GaN_sample F_spot6_UVVIS_130 K_200um_350 ms 2x2mm1_224.txt
340.368	1	4
341.565	1	-7
342.763	1	9
343.960	1	-7
345.157	1	-8
346.354	1	-3
347.552	1	0
348.749	1	5
349.946	1	5
351.143	1	2
352.340	1	12
353.537	1	1
354.734	1	2
355.931	1	18
357.127	1	14
358.324	1	-5
359.521	1	2
360.718	1	3
361.914	1	3
363.111	1	25
364.308	1	15
365.504	1	9
366.701	1	14
367.897	1	10
369.093	1	7
370.290	1	20
371.486	1	8
372.682	1	17
373.879	1	24
375.075	1	8
376.271	1	9
377.467	1	8
378.663	1	10
379.859	1	4
381.055	1	1
382.251	1	13
383.447	1	4
384.643	1	11
385.839	1	11
387.035	1	3
388.230	1	5
389.426	1	2
390.622	1	7
391.817	1	11
393.013	1	10
394.208	1	2
395.404	1	-4
396.599	1	16
397.795	1	6
398.990	1	1
400.186	1	0
401.381	1	2
402.576	1	7
403.771	1	13
404.967	1	-1
406.162	1	-2
407.357	1	13
408.552	1	4
409.747	1	6
410.942	1	9
412.137	1	3
413.332	1	1
414.526	1	5
415.721	1	4
416.916	1	6
418.111	1	12
419.305	1	-6
420.500	1	5
421.695	1	8
422.889	1	7
424.084	1	5
425.278	1	0
426.472	1	-1
427.667	1	16
428.861	1	0
430.055	1	-2
431.250	1	12
432.444	1	9
433.638	1	0
434.832	1	4
436.026	1	9
437.220	1	-3
438.414	1	0
439.608	1	11
440.802	1	0
441.996	1	0
443.190	1	6
444.384	1	-11
445.578	1	-6
446.771	1	7
447.965	1	8
449.159	1	4
450.352	1	3
451.546	1	19
452.739	1	11
453.933	1	-1
455.126	1	-3
456.320	1	-5
457.513	1	-5
458.706	1	8
459.899	1	5
461.093	1	12
462.286	1	9
463.479	1	2
464.672	1	8
465.865	1	-5
467.058	1	18
468.251	1	-3
469.444	1	4
470.637	1	2
471.830	1	5
473.023	1	6
474.215	1	2
475.408	1	0
476.601	1	-2
477.793	1	-2
478.986	1	-1
480.179	1	2
481.371	1	12
482.564	1	-2
483.756	1	7
484.948	1	-2
486.141	1	-3
487.333	1	4
488.525	1	9
489.718	1	6
490.910	1	-6
492.102	1	6
493.294	1	5
494.486	1	11
495.678	1	-2
496.870	1	5
498.062	1	0
499.254	1	11
500.446	1	4
501.638	1	0
502.829	1	0
504.021	1	4
505.213	1	2
506.404	1	2
507.596	1	0
508.788	1	9
509.979	1	3
511.171	1	16
512.362	1	-11
513.553	1	9
514.745	1	3
515.936	1	16
517.127	1	5
518.319	1	3
519.510	1	9
520.701	1	7
521.892	1	6
523.083	1	5
524.274	1	7
525.465	1	16
526.656	1	3
527.847	1	4
529.038	1	1
530.229	1	12
531.419	1	-1
532.610	1	-1
533.801	1	16
534.991	1	2
536.182	1	13
537.373	1	-1
538.563	1	18
539.754	1	0
540.944	1	7
542.134	1	3
543.325	1	3
544.515	1	10
545.705	1	5
546.896	1	14
548.086	1	5
549.276	1	0
550.466	1	13
551.656	1	3
552.846	1	-4
554.036	1	9
555.226	1	6
556.416	1	4
557.606	1	-6
558.796	1	8
559.986	1	5
561.175	1	9
562.365	1	1
563.555	1	11
564.744	1	8
565.934	1	4
567.123	1	6
568.313	1	6
569.502	1	-1
570.692	1	17
571.881	1	5
573.070	1	6
574.260	1	7
575.449	1	9
576.638	1	2
577.827	1	-6
579.016	1	1
580.205	1	-1
581.394	1	3
582.583	1	6
583.772	1	2
584.961	1	-2
586.150	1	3
587.339	1	2
588.528	1	10
589.717	1	5
590.905	1	7
592.094	1	1
593.283	1	-6
594.471	1	-1
595.660	1	-5
596.848	1	8
598.037	1	4
599.225	1	4
600.413	1	13
601.602	1	-8
602.790	1	5
603.978	1	3
605.166	1	12
606.355	1	2
607.543	1	3
608.731	1	-1
609.919	1	1
611.107	1	-1
612.295	1	10
613.483	1	7
614.671	1	-1
615.858	1	-4
617.046	1	4
618.234	1	-4
619.422	1	4
620.609	1	-2
621.797	1	1
622.985	1	9
624.172	1	-3
625.360	1	2
626.547	1	3
627.735	1	8
628.922	1	-3
630.109	1	7
631.297	1	-6
632.484	1	-5
633.671	1	3
634.858	1	0
636.045	1	11
637.232	1	0
638.419	1	3
639.606	1	-2
640.793	1	-9
641.980	1	-3
643.167	1	9
644.354	1	3
645.541	1	11
646.728	1	11
647.914	1	-3
649.101	1	1
650.288	1	11
651.474	1	3
652.661	1	-4
653.847	1	-1
655.034	1	1
656.220	1	2
657.406	1	-1
658.593	1	5
659.779	1	-6
660.965	1	8
662.152	1	7
663.338	1	-4
664.524	1	1
665.710	1	9
666.896	1	4
668.082	1	1
669.268	1	-2
670.454	1	-2
671.640	1	-9
672.826	1	2
674.011	1	-4
675.197	1	0
676.383	1	1
677.569	1	8
678.754	1	5
679.940	1	-5
681.125	1	10
682.311	1	-16
683.496	1	2
684.682	1	-2
685.867	1	6
687.053	1	10
688.238	1	2
688.746	1	9