File: Data/GaN_130K_350ms/GaN_sample F_spot6_UVVIS_130 K_200um_350 ms 2x2mm1_125.txt
340.368	1	12
341.565	1	2
342.763	1	9
343.960	1	-8
345.157	1	-12
346.354	1	1
347.552	1	-2
348.749	1	5
349.946	1	14
351.143	1	8
352.340	1	16
353.537	1	2
354.734	1	3
355.931	1	12
357.127	1	7
358.324	1	9
359.521	1	6
360.718	1	14
361.914	1	20
363.111	1	51
364.308	1	45
365.504	1	43
366.701	1	59
367.897	1	52
369.093	1	61
370.290	1	55
371.486	1	48
372.682	1	38
373.879	1	41
375.075	1	37
376.271	1	45
377.467	1	30
378.663	1	28
379.859	1	26
381.055	1	21
382.251	1	14
383.447	1	18
384.643	1	23
385.839	1	19
387.035	1	20
388.230	1	12
389.426	1	18
390.622	1	15
391.817	1	22
393.013	1	21
394.208	1	0
395.404	1	10
396.599	1	10
397.795	1	6
398.990	1	5
400.186	1	5
401.381	1	6
402.576	1	15
403.771	1	17
404.967	1	10
406.162	1	1
407.357	1	6
408.552	1	3
409.747	1	10
410.942	1	9
412.137	1	-3
413.332	1	4
414.526	1	13
415.721	1	1
416.916	1	10
418.111	1	9
419.305	1	1
420.500	1	11
421.695	1	1
422.889	1	3
424.084	1	6
425.278	1	1
426.472	1	3
427.667	1	6
428.861	1	6
430.055	1	-2
431.250	1	16
432.444	1	5
433.638	1	9
434.832	1	8
436.026	1	10
437.220	1	4
438.414	1	-5
439.608	1	18
440.802	1	5
441.996	1	10
443.190	1	12
444.384	1	-3
445.578	1	-4
446.771	1	12
447.965	1	3
449.159	1	4
450.352	1	12
451.546	1	10
452.739	1	7
453.933	1	4
455.126	1	-8
456.320	1	11
457.513	1	3
458.706	1	6
459.899	1	5
461.093	1	2
462.286	1	11
463.479	1	11
464.672	1	11
465.865	1	-4
467.058	1	11
468.251	1	2
469.444	1	3
470.637	1	-4
471.830	1	12
473.023	1	13
474.215	1	1
475.408	1	6
476.601	1	6
477.793	1	3
478.986	1	-4
480.179	1	5
481.371	1	19
482.564	1	-2
483.756	1	7
484.948	1	5
486.141	1	-3
487.333	1	3
488.525	1	2
489.718	1	11
490.910	1	-8
492.102	1	9
493.294	1	12
494.486	1	19
495.678	1	4
496.870	1	10
498.062	1	8
499.254	1	12
500.446	1	15
501.638	1	13
502.829	1	8
504.021	1	17
505.213	1	22
506.404	1	13
507.596	1	14
508.788	1	11
509.979	1	15
511.171	1	23
512.362	1	20
513.553	1	14
514.745	1	16
515.936	1	22
517.127	1	21
518.319	1	16
519.510	1	12
520.701	1	17
521.892	1	29
523.083	1	30
524.274	1	13
525.465	1	28
526.656	1	25
527.847	1	19
529.038	1	22
530.229	1	32
531.419	1	16
532.610	1	21
533.801	1	39
534.991	1	18
536.182	1	38
537.373	1	26
538.563	1	22
539.754	1	14
540.944	1	31
542.134	1	17
543.325	1	30
544.515	1	20
545.705	1	10
546.896	1	17
548.086	1	17
549.276	1	17
550.466	1	18
551.656	1	19
552.846	1	10
554.036	1	18
555.226	1	17
556.416	1	27
557.606	1	15
558.796	1	20
559.986	1	13
561.175	1	14
562.365	1	21
563.555	1	23
564.744	1	12
565.934	1	12
567.123	1	20
568.313	1	9
569.502	1	7
570.692	1	14
571.881	1	9
573.070	1	9
574.260	1	3
575.449	1	7
576.638	1	5
577.827	1	-2
579.016	1	7
580.205	1	9
581.394	1	17
582.583	1	14
583.772	1	13
584.961	1	8
586.150	1	7
587.339	1	4
588.528	1	20
589.717	1	6
590.905	1	15
592.094	1	9
593.283	1	-9
594.471	1	15
595.660	1	16
596.848	1	12
598.037	1	11
599.225	1	5
600.413	1	10
601.602	1	4
602.790	1	2
603.978	1	5
605.166	1	11
606.355	1	21
607.543	1	12
608.731	1	6
609.919	1	9
611.107	1	6
612.295	1	9
613.483	1	1
614.671	1	11
615.858	1	3
617.046	1	6
618.234	1	14
619.422	1	4
620.609	1	2
621.797	1	-1
622.985	1	1
624.172	1	5
625.360	1	0
626.547	1	10
627.735	1	4
628.922	1	-11
630.109	1	11
631.297	1	-1
632.484	1	-3
633.671	1	-2
634.858	1	15
636.045	1	9
637.232	1	1
638.419	1	12
639.606	1	2
640.793	1	-9
641.980	1	9
643.167	1	0
644.354	1	-4
645.541	1	5
646.728	1	12
647.914	1	-3
649.101	1	-1
650.288	1	14
651.474	1	-8
652.661	1	-4
653.847	1	2
655.034	1	2
656.220	1	1
657.406	1	7
658.593	1	9
659.779	1	10
660.965	1	1
662.152	1	1
663.338	1	-1
664.524	1	-1
665.710	1	10
666.896	1	4
668.082	1	6
669.268	1	-4
670.454	1	9
671.640	1	-13
672.826	1	-9
674.011	1	1
675.197	1	-1
676.383	1	6
677.569	1	5
678.754	1	-1
679.940	1	5
681.125	1	15
682.311	1	-6
683.496	1	-2
684.682	1	-2
685.867	1	16
687.053	1	1
688.238	1	11
688.746	1	1