File: Data/GaN_130K_350ms/GaN_sample F_spot6_UVVIS_130 K_200um_350 ms 2x2mm1_270.txt
340.368	1	4
341.565	1	-8
342.763	1	7
343.960	1	-11
345.157	1	-14
346.354	1	5
347.552	1	-3
348.749	1	-1
349.946	1	5
351.143	1	1
352.340	1	12
353.537	1	-3
354.734	1	-3
355.931	1	-1
357.127	1	4
358.324	1	4
359.521	1	-3
360.718	1	5
361.914	1	-5
363.111	1	16
364.308	1	7
365.504	1	15
366.701	1	12
367.897	1	7
369.093	1	11
370.290	1	10
371.486	1	9
372.682	1	10
373.879	1	13
375.075	1	9
376.271	1	8
377.467	1	13
378.663	1	0
379.859	1	-3
381.055	1	-2
382.251	1	5
383.447	1	-1
384.643	1	5
385.839	1	13
387.035	1	7
388.230	1	2
389.426	1	10
390.622	1	1
391.817	1	8
393.013	1	4
394.208	1	-4
395.404	1	-5
396.599	1	13
397.795	1	-7
398.990	1	2
400.186	1	6
401.381	1	9
402.576	1	-3
403.771	1	5
404.967	1	8
406.162	1	0
407.357	1	-5
408.552	1	4
409.747	1	-5
410.942	1	4
412.137	1	-3
413.332	1	6
414.526	1	3
415.721	1	2
416.916	1	-4
418.111	1	4
419.305	1	8
420.500	1	3
421.695	1	-2
422.889	1	0
424.084	1	7
425.278	1	-5
426.472	1	11
427.667	1	10
428.861	1	-3
430.055	1	1
431.250	1	12
432.444	1	15
433.638	1	3
434.832	1	4
436.026	1	6
437.220	1	3
438.414	1	-6
439.608	1	7
440.802	1	-4
441.996	1	13
443.190	1	8
444.384	1	-1
445.578	1	6
446.771	1	14
447.965	1	-3
449.159	1	7
450.352	1	8
451.546	1	7
452.739	1	8
453.933	1	10
455.126	1	-7
456.320	1	-2
457.513	1	-4
458.706	1	2
459.899	1	5
461.093	1	7
462.286	1	2
463.479	1	7
464.672	1	8
465.865	1	-7
467.058	1	6
468.251	1	-1
469.444	1	-1
470.637	1	8
471.830	1	0
473.023	1	10
474.215	1	1
475.408	1	1
476.601	1	0
477.793	1	-3
478.986	1	-1
480.179	1	-3
481.371	1	14
482.564	1	-9
483.756	1	-6
484.948	1	-5
486.141	1	1
487.333	1	-10
488.525	1	8
489.718	1	-2
490.910	1	-8
492.102	1	3
493.294	1	7
494.486	1	17
495.678	1	-1
496.870	1	1
498.062	1	-5
499.254	1	6
500.446	1	6
501.638	1	-9
502.829	1	0
504.021	1	1
505.213	1	-1
506.404	1	-4
507.596	1	2
508.788	1	-3
509.979	1	0
511.171	1	15
512.362	1	-4
513.553	1	11
514.745	1	2
515.936	1	7
517.127	1	6
518.319	1	-5
519.510	1	-2
520.701	1	3
521.892	1	11
523.083	1	0
524.274	1	-3
525.465	1	8
526.656	1	-1
527.847	1	10
529.038	1	-7
530.229	1	-1
531.419	1	7
532.610	1	-2
533.801	1	19
534.991	1	-2
536.182	1	16
537.373	1	0
538.563	1	7
539.754	1	1
540.944	1	6
542.134	1	-1
543.325	1	0
544.515	1	2
545.705	1	2
546.896	1	-2
548.086	1	2
549.276	1	0
550.466	1	6
551.656	1	1
552.846	1	-5
554.036	1	2
555.226	1	3
556.416	1	7
557.606	1	-1
558.796	1	11
559.986	1	4
561.175	1	-1
562.365	1	7
563.555	1	13
564.744	1	12
565.934	1	3
567.123	1	3
568.313	1	-4
569.502	1	-1
570.692	1	3
571.881	1	0
573.070	1	7
574.260	1	9
575.449	1	4
576.638	1	-5
577.827	1	-3
579.016	1	7
580.205	1	-12
581.394	1	-6
582.583	1	8
583.772	1	-2
584.961	1	-2
586.150	1	6
587.339	1	-2
588.528	1	14
589.717	1	-8
590.905	1	2
592.094	1	9
593.283	1	-3
594.471	1	6
595.660	1	5
596.848	1	9
598.037	1	14
599.225	1	6
600.413	1	1
601.602	1	0
602.790	1	-3
603.978	1	-2
605.166	1	8
606.355	1	7
607.543	1	7
608.731	1	8
609.919	1	8
611.107	1	11
612.295	1	12
613.483	1	-5
614.671	1	4
615.858	1	3
617.046	1	4
618.234	1	2
619.422	1	6
620.609	1	-6
621.797	1	0
622.985	1	15
624.172	1	-5
625.360	1	2
626.547	1	1
627.735	1	9
628.922	1	-10
630.109	1	7
631.297	1	-4
632.484	1	-6
633.671	1	1
634.858	1	0
636.045	1	11
637.232	1	-4
638.419	1	4
639.606	1	5
640.793	1	-3
641.980	1	-5
643.167	1	2
644.354	1	-1
645.541	1	1
646.728	1	3
647.914	1	-12
649.101	1	-9
650.288	1	13
651.474	1	-4
652.661	1	-1
653.847	1	4
655.034	1	1
656.220	1	-1
657.406	1	3
658.593	1	5
659.779	1	4
660.965	1	0
662.152	1	-6
663.338	1	2
664.524	1	-1
665.710	1	12
666.896	1	4
668.082	1	-6
669.268	1	-11
670.454	1	-9
671.640	1	-4
672.826	1	-8
674.011	1	-1
675.197	1	-2
676.383	1	-2
677.569	1	5
678.754	1	6
679.940	1	0
681.125	1	6
682.311	1	-11
683.496	1	4
684.682	1	5
685.867	1	0
687.053	1	3
688.238	1	5
688.746	1	4