File: Data/GaN_130K_350ms/GaN_sample F_spot6_UVVIS_130 K_200um_350 ms 2x2mm1_269.txt
340.368	1	4
341.565	1	2
342.763	1	4
343.960	1	-9
345.157	1	-4
346.354	1	-5
347.552	1	6
348.749	1	1
349.946	1	9
351.143	1	2
352.340	1	11
353.537	1	-7
354.734	1	3
355.931	1	9
357.127	1	4
358.324	1	2
359.521	1	8
360.718	1	10
361.914	1	1
363.111	1	9
364.308	1	13
365.504	1	10
366.701	1	15
367.897	1	1
369.093	1	13
370.290	1	21
371.486	1	9
372.682	1	0
373.879	1	15
375.075	1	15
376.271	1	14
377.467	1	12
378.663	1	6
379.859	1	1
381.055	1	9
382.251	1	3
383.447	1	7
384.643	1	-3
385.839	1	3
387.035	1	16
388.230	1	0
389.426	1	-2
390.622	1	5
391.817	1	13
393.013	1	6
394.208	1	-7
395.404	1	-3
396.599	1	2
397.795	1	-3
398.990	1	-8
400.186	1	-3
401.381	1	5
402.576	1	7
403.771	1	11
404.967	1	2
406.162	1	1
407.357	1	5
408.552	1	1
409.747	1	4
410.942	1	1
412.137	1	3
413.332	1	-2
414.526	1	-1
415.721	1	4
416.916	1	4
418.111	1	15
419.305	1	1
420.500	1	4
421.695	1	-2
422.889	1	5
424.084	1	13
425.278	1	-2
426.472	1	10
427.667	1	13
428.861	1	-8
430.055	1	-1
431.250	1	9
432.444	1	8
433.638	1	13
434.832	1	3
436.026	1	-5
437.220	1	-1
438.414	1	1
439.608	1	8
440.802	1	-1
441.996	1	3
443.190	1	-1
444.384	1	-4
445.578	1	-2
446.771	1	5
447.965	1	5
449.159	1	3
450.352	1	3
451.546	1	13
452.739	1	-1
453.933	1	4
455.126	1	4
456.320	1	6
457.513	1	1
458.706	1	2
459.899	1	1
461.093	1	3
462.286	1	12
463.479	1	13
464.672	1	7
465.865	1	-6
467.058	1	4
468.251	1	-5
469.444	1	-3
470.637	1	-1
471.830	1	7
473.023	1	3
474.215	1	-3
475.408	1	4
476.601	1	-1
477.793	1	-5
478.986	1	0
480.179	1	4
481.371	1	7
482.564	1	-3
483.756	1	1
484.948	1	8
486.141	1	3
487.333	1	-11
488.525	1	0
489.718	1	9
490.910	1	-4
492.102	1	3
493.294	1	3
494.486	1	14
495.678	1	-1
496.870	1	3
498.062	1	-4
499.254	1	4
500.446	1	2
501.638	1	2
502.829	1	-4
504.021	1	1
505.213	1	3
506.404	1	4
507.596	1	6
508.788	1	-2
509.979	1	-3
511.171	1	5
512.362	1	-5
513.553	1	6
514.745	1	4
515.936	1	12
517.127	1	4
518.319	1	-2
519.510	1	2
520.701	1	-7
521.892	1	1
523.083	1	9
524.274	1	-10
525.465	1	2
526.656	1	2
527.847	1	-1
529.038	1	-5
530.229	1	10
531.419	1	8
532.610	1	-14
533.801	1	14
534.991	1	4
536.182	1	8
537.373	1	8
538.563	1	17
539.754	1	-6
540.944	1	0
542.134	1	1
543.325	1	-1
544.515	1	6
545.705	1	0
546.896	1	8
548.086	1	-6
549.276	1	3
550.466	1	1
551.656	1	7
552.846	1	-2
554.036	1	-8
555.226	1	9
556.416	1	8
557.606	1	-8
558.796	1	6
559.986	1	0
561.175	1	2
562.365	1	13
563.555	1	7
564.744	1	3
565.934	1	1
567.123	1	-1
568.313	1	3
569.502	1	-1
570.692	1	9
571.881	1	1
573.070	1	-4
574.260	1	5
575.449	1	9
576.638	1	-12
577.827	1	0
579.016	1	-1
580.205	1	-5
581.394	1	1
582.583	1	12
583.772	1	5
584.961	1	0
586.150	1	9
587.339	1	-3
588.528	1	3
589.717	1	-2
590.905	1	8
592.094	1	1
593.283	1	-12
594.471	1	6
595.660	1	-10
596.848	1	5
598.037	1	6
599.225	1	5
600.413	1	6
601.602	1	-6
602.790	1	-3
603.978	1	7
605.166	1	8
606.355	1	10
607.543	1	-1
608.731	1	-1
609.919	1	8
611.107	1	9
612.295	1	9
613.483	1	0
614.671	1	3
615.858	1	-6
617.046	1	2
618.234	1	-1
619.422	1	3
620.609	1	-9
621.797	1	-7
622.985	1	8
624.172	1	2
625.360	1	6
626.547	1	4
627.735	1	2
628.922	1	6
630.109	1	16
631.297	1	1
632.484	1	-7
633.671	1	-10
634.858	1	12
636.045	1	6
637.232	1	-7
638.419	1	8
639.606	1	12
640.793	1	-8
641.980	1	6
643.167	1	-2
644.354	1	-1
645.541	1	1
646.728	1	14
647.914	1	-5
649.101	1	1
650.288	1	3
651.474	1	-4
652.661	1	4
653.847	1	0
655.034	1	-1
656.220	1	4
657.406	1	2
658.593	1	-1
659.779	1	2
660.965	1	2
662.152	1	6
663.338	1	8
664.524	1	-3
665.710	1	-7
666.896	1	1
668.082	1	-4
669.268	1	-2
670.454	1	8
671.640	1	-9
672.826	1	-5
674.011	1	6
675.197	1	-1
676.383	1	0
677.569	1	3
678.754	1	4
679.940	1	-14
681.125	1	14
682.311	1	-5
683.496	1	1
684.682	1	-2
685.867	1	-5
687.053	1	-2
688.238	1	8
688.746	1	2