File: Data/GaN_130K_350ms/GaN_sample F_spot6_UVVIS_130 K_200um_350 ms 2x2mm1_133.txt
340.368	1	9
341.565	1	2
342.763	1	5
343.960	1	-4
345.157	1	-3
346.354	1	-2
347.552	1	2
348.749	1	8
349.946	1	-2
351.143	1	4
352.340	1	20
353.537	1	-7
354.734	1	6
355.931	1	6
357.127	1	13
358.324	1	5
359.521	1	11
360.718	1	16
361.914	1	11
363.111	1	28
364.308	1	32
365.504	1	50
366.701	1	51
367.897	1	34
369.093	1	44
370.290	1	41
371.486	1	39
372.682	1	34
373.879	1	31
375.075	1	31
376.271	1	27
377.467	1	28
378.663	1	16
379.859	1	11
381.055	1	14
382.251	1	17
383.447	1	16
384.643	1	15
385.839	1	11
387.035	1	18
388.230	1	3
389.426	1	15
390.622	1	4
391.817	1	16
393.013	1	13
394.208	1	-3
395.404	1	-5
396.599	1	21
397.795	1	6
398.990	1	12
400.186	1	4
401.381	1	11
402.576	1	10
403.771	1	19
404.967	1	4
406.162	1	2
407.357	1	10
408.552	1	10
409.747	1	0
410.942	1	6
412.137	1	-1
413.332	1	0
414.526	1	5
415.721	1	1
416.916	1	14
418.111	1	7
419.305	1	7
420.500	1	11
421.695	1	0
422.889	1	7
424.084	1	10
425.278	1	6
426.472	1	0
427.667	1	12
428.861	1	5
430.055	1	1
431.250	1	14
432.444	1	11
433.638	1	12
434.832	1	14
436.026	1	10
437.220	1	2
438.414	1	7
439.608	1	24
440.802	1	-6
441.996	1	8
443.190	1	6
444.384	1	-1
445.578	1	3
446.771	1	17
447.965	1	7
449.159	1	6
450.352	1	6
451.546	1	9
452.739	1	8
453.933	1	5
455.126	1	-5
456.320	1	-6
457.513	1	-4
458.706	1	16
459.899	1	2
461.093	1	11
462.286	1	12
463.479	1	16
464.672	1	12
465.865	1	0
467.058	1	7
468.251	1	8
469.444	1	-1
470.637	1	3
471.830	1	1
473.023	1	8
474.215	1	-2
475.408	1	3
476.601	1	6
477.793	1	-3
478.986	1	3
480.179	1	-5
481.371	1	11
482.564	1	-2
483.756	1	12
484.948	1	5
486.141	1	4
487.333	1	8
488.525	1	9
489.718	1	11
490.910	1	0
492.102	1	9
493.294	1	13
494.486	1	12
495.678	1	17
496.870	1	19
498.062	1	5
499.254	1	11
500.446	1	15
501.638	1	9
502.829	1	4
504.021	1	20
505.213	1	10
506.404	1	7
507.596	1	7
508.788	1	18
509.979	1	17
511.171	1	23
512.362	1	3
513.553	1	22
514.745	1	7
515.936	1	14
517.127	1	25
518.319	1	5
519.510	1	15
520.701	1	11
521.892	1	15
523.083	1	21
524.274	1	6
525.465	1	17
526.656	1	22
527.847	1	9
529.038	1	19
530.229	1	25
531.419	1	27
532.610	1	16
533.801	1	26
534.991	1	17
536.182	1	28
537.373	1	15
538.563	1	21
539.754	1	6
540.944	1	17
542.134	1	5
543.325	1	27
544.515	1	18
545.705	1	9
546.896	1	18
548.086	1	4
549.276	1	-1
550.466	1	16
551.656	1	12
552.846	1	7
554.036	1	12
555.226	1	16
556.416	1	4
557.606	1	6
558.796	1	16
559.986	1	20
561.175	1	18
562.365	1	12
563.555	1	19
564.744	1	15
565.934	1	9
567.123	1	5
568.313	1	14
569.502	1	9
570.692	1	22
571.881	1	8
573.070	1	11
574.260	1	7
575.449	1	11
576.638	1	0
577.827	1	4
579.016	1	7
580.205	1	4
581.394	1	3
582.583	1	19
583.772	1	8
584.961	1	0
586.150	1	10
587.339	1	8
588.528	1	14
589.717	1	9
590.905	1	12
592.094	1	-3
593.283	1	6
594.471	1	3
595.660	1	13
596.848	1	3
598.037	1	15
599.225	1	7
600.413	1	11
601.602	1	-5
602.790	1	3
603.978	1	5
605.166	1	5
606.355	1	16
607.543	1	2
608.731	1	7
609.919	1	5
611.107	1	5
612.295	1	14
613.483	1	2
614.671	1	11
615.858	1	1
617.046	1	9
618.234	1	9
619.422	1	3
620.609	1	1
621.797	1	7
622.985	1	12
624.172	1	10
625.360	1	3
626.547	1	9
627.735	1	14
628.922	1	-6
630.109	1	10
631.297	1	0
632.484	1	-6
633.671	1	0
634.858	1	10
636.045	1	14
637.232	1	-8
638.419	1	-1
639.606	1	5
640.793	1	-6
641.980	1	1
643.167	1	3
644.354	1	-2
645.541	1	1
646.728	1	20
647.914	1	-5
649.101	1	-5
650.288	1	12
651.474	1	-3
652.661	1	6
653.847	1	9
655.034	1	8
656.220	1	-3
657.406	1	7
658.593	1	6
659.779	1	6
660.965	1	10
662.152	1	-2
663.338	1	7
664.524	1	-3
665.710	1	3
666.896	1	7
668.082	1	-1
669.268	1	-3
670.454	1	7
671.640	1	-7
672.826	1	0
674.011	1	-3
675.197	1	6
676.383	1	2
677.569	1	9
678.754	1	6
679.940	1	6
681.125	1	11
682.311	1	-9
683.496	1	-2
684.682	1	-1
685.867	1	-6
687.053	1	-8
688.238	1	14
688.746	1	12