File: Data/GaN_130K_350ms/GaN_sample F_spot6_UVVIS_130 K_200um_350 ms 2x2mm1_138.txt
340.368	1	4
341.565	1	-3
342.763	1	5
343.960	1	-6
345.157	1	-9
346.354	1	3
347.552	1	0
348.749	1	7
349.946	1	5
351.143	1	8
352.340	1	14
353.537	1	1
354.734	1	-3
355.931	1	11
357.127	1	10
358.324	1	4
359.521	1	7
360.718	1	10
361.914	1	15
363.111	1	35
364.308	1	39
365.504	1	37
366.701	1	40
367.897	1	40
369.093	1	42
370.290	1	45
371.486	1	46
372.682	1	32
373.879	1	42
375.075	1	40
376.271	1	19
377.467	1	24
378.663	1	26
379.859	1	12
381.055	1	11
382.251	1	13
383.447	1	14
384.643	1	13
385.839	1	12
387.035	1	20
388.230	1	10
389.426	1	23
390.622	1	8
391.817	1	14
393.013	1	13
394.208	1	4
395.404	1	5
396.599	1	18
397.795	1	8
398.990	1	16
400.186	1	-1
401.381	1	18
402.576	1	8
403.771	1	21
404.967	1	5
406.162	1	10
407.357	1	12
408.552	1	-1
409.747	1	-3
410.942	1	15
412.137	1	3
413.332	1	0
414.526	1	7
415.721	1	6
416.916	1	8
418.111	1	13
419.305	1	3
420.500	1	6
421.695	1	6
422.889	1	1
424.084	1	2
425.278	1	1
426.472	1	2
427.667	1	19
428.861	1	1
430.055	1	6
431.250	1	10
432.444	1	11
433.638	1	7
434.832	1	2
436.026	1	3
437.220	1	3
438.414	1	6
439.608	1	14
440.802	1	-10
441.996	1	10
443.190	1	1
444.384	1	-4
445.578	1	5
446.771	1	4
447.965	1	1
449.159	1	5
450.352	1	10
451.546	1	10
452.739	1	1
453.933	1	2
455.126	1	-12
456.320	1	-2
457.513	1	-3
458.706	1	12
459.899	1	9
461.093	1	6
462.286	1	10
463.479	1	8
464.672	1	7
465.865	1	-5
467.058	1	13
468.251	1	10
469.444	1	1
470.637	1	2
471.830	1	3
473.023	1	5
474.215	1	5
475.408	1	0
476.601	1	-1
477.793	1	-2
478.986	1	3
480.179	1	0
481.371	1	14
482.564	1	-2
483.756	1	-1
484.948	1	1
486.141	1	-5
487.333	1	2
488.525	1	7
489.718	1	13
490.910	1	-2
492.102	1	15
493.294	1	14
494.486	1	15
495.678	1	-3
496.870	1	4
498.062	1	-2
499.254	1	17
500.446	1	12
501.638	1	7
502.829	1	-1
504.021	1	14
505.213	1	12
506.404	1	4
507.596	1	4
508.788	1	8
509.979	1	22
511.171	1	13
512.362	1	7
513.553	1	21
514.745	1	10
515.936	1	37
517.127	1	15
518.319	1	3
519.510	1	5
520.701	1	9
521.892	1	24
523.083	1	12
524.274	1	9
525.465	1	19
526.656	1	17
527.847	1	29
529.038	1	8
530.229	1	17
531.419	1	18
532.610	1	14
533.801	1	25
534.991	1	20
536.182	1	21
537.373	1	17
538.563	1	28
539.754	1	18
540.944	1	16
542.134	1	13
543.325	1	13
544.515	1	21
545.705	1	14
546.896	1	14
548.086	1	3
549.276	1	4
550.466	1	18
551.656	1	3
552.846	1	13
554.036	1	3
555.226	1	15
556.416	1	10
557.606	1	14
558.796	1	15
559.986	1	10
561.175	1	11
562.365	1	20
563.555	1	14
564.744	1	10
565.934	1	13
567.123	1	7
568.313	1	12
569.502	1	6
570.692	1	16
571.881	1	7
573.070	1	9
574.260	1	6
575.449	1	12
576.638	1	3
577.827	1	-1
579.016	1	0
580.205	1	-1
581.394	1	10
582.583	1	20
583.772	1	16
584.961	1	7
586.150	1	7
587.339	1	6
588.528	1	12
589.717	1	9
590.905	1	11
592.094	1	8
593.283	1	4
594.471	1	7
595.660	1	12
596.848	1	2
598.037	1	14
599.225	1	7
600.413	1	13
601.602	1	4
602.790	1	-3
603.978	1	2
605.166	1	9
606.355	1	6
607.543	1	11
608.731	1	7
609.919	1	8
611.107	1	11
612.295	1	11
613.483	1	-5
614.671	1	11
615.858	1	-2
617.046	1	12
618.234	1	3
619.422	1	4
620.609	1	3
621.797	1	1
622.985	1	20
624.172	1	1
625.360	1	16
626.547	1	6
627.735	1	16
628.922	1	-8
630.109	1	7
631.297	1	5
632.484	1	-3
633.671	1	-11
634.858	1	6
636.045	1	10
637.232	1	-5
638.419	1	10
639.606	1	7
640.793	1	-3
641.980	1	12
643.167	1	12
644.354	1	-8
645.541	1	1
646.728	1	10
647.914	1	-8
649.101	1	6
650.288	1	5
651.474	1	-3
652.661	1	-5
653.847	1	-2
655.034	1	6
656.220	1	4
657.406	1	-5
658.593	1	9
659.779	1	8
660.965	1	6
662.152	1	6
663.338	1	-3
664.524	1	-8
665.710	1	5
666.896	1	2
668.082	1	8
669.268	1	-5
670.454	1	5
671.640	1	-3
672.826	1	2
674.011	1	-2
675.197	1	2
676.383	1	2
677.569	1	3
678.754	1	11
679.940	1	-3
681.125	1	11
682.311	1	-1
683.496	1	-1
684.682	1	0
685.867	1	1
687.053	1	6
688.238	1	16
688.746	1	11