File: Data/GaN_130K_350ms/GaN_sample F_spot6_UVVIS_130 K_200um_350 ms 2x2mm1_293.txt
340.368	1	8
341.565	1	-8
342.763	1	-3
343.960	1	-4
345.157	1	-18
346.354	1	11
347.552	1	-3
348.749	1	0
349.946	1	4
351.143	1	3
352.340	1	5
353.537	1	8
354.734	1	1
355.931	1	6
357.127	1	18
358.324	1	3
359.521	1	-5
360.718	1	9
361.914	1	4
363.111	1	15
364.308	1	23
365.504	1	12
366.701	1	2
367.897	1	8
369.093	1	13
370.290	1	16
371.486	1	13
372.682	1	7
373.879	1	7
375.075	1	4
376.271	1	2
377.467	1	6
378.663	1	9
379.859	1	10
381.055	1	1
382.251	1	5
383.447	1	-3
384.643	1	2
385.839	1	1
387.035	1	5
388.230	1	1
389.426	1	5
390.622	1	0
391.817	1	8
393.013	1	10
394.208	1	-1
395.404	1	-5
396.599	1	6
397.795	1	1
398.990	1	1
400.186	1	-4
401.381	1	11
402.576	1	8
403.771	1	8
404.967	1	5
406.162	1	4
407.357	1	2
408.552	1	-1
409.747	1	-9
410.942	1	2
412.137	1	7
413.332	1	2
414.526	1	4
415.721	1	4
416.916	1	10
418.111	1	1
419.305	1	-1
420.500	1	10
421.695	1	-3
422.889	1	10
424.084	1	7
425.278	1	0
426.472	1	3
427.667	1	16
428.861	1	2
430.055	1	6
431.250	1	11
432.444	1	9
433.638	1	0
434.832	1	2
436.026	1	6
437.220	1	-3
438.414	1	-3
439.608	1	10
440.802	1	-1
441.996	1	11
443.190	1	-1
444.384	1	2
445.578	1	2
446.771	1	-7
447.965	1	9
449.159	1	2
450.352	1	8
451.546	1	6
452.739	1	4
453.933	1	6
455.126	1	-4
456.320	1	-1
457.513	1	-5
458.706	1	4
459.899	1	11
461.093	1	8
462.286	1	-2
463.479	1	6
464.672	1	7
465.865	1	-7
467.058	1	7
468.251	1	6
469.444	1	-2
470.637	1	6
471.830	1	2
473.023	1	0
474.215	1	8
475.408	1	1
476.601	1	-4
477.793	1	-3
478.986	1	-1
480.179	1	-3
481.371	1	9
482.564	1	-1
483.756	1	-2
484.948	1	-1
486.141	1	2
487.333	1	-8
488.525	1	5
489.718	1	7
490.910	1	-4
492.102	1	9
493.294	1	8
494.486	1	13
495.678	1	-2
496.870	1	6
498.062	1	-5
499.254	1	6
500.446	1	-1
501.638	1	4
502.829	1	7
504.021	1	-2
505.213	1	-3
506.404	1	-2
507.596	1	-15
508.788	1	-9
509.979	1	-2
511.171	1	10
512.362	1	0
513.553	1	5
514.745	1	2
515.936	1	10
517.127	1	5
518.319	1	5
519.510	1	-6
520.701	1	2
521.892	1	0
523.083	1	3
524.274	1	-8
525.465	1	10
526.656	1	12
527.847	1	13
529.038	1	-8
530.229	1	6
531.419	1	4
532.610	1	1
533.801	1	19
534.991	1	0
536.182	1	8
537.373	1	9
538.563	1	10
539.754	1	-2
540.944	1	3
542.134	1	-1
543.325	1	4
544.515	1	2
545.705	1	2
546.896	1	0
548.086	1	-12
549.276	1	-2
550.466	1	4
551.656	1	9
552.846	1	3
554.036	1	0
555.226	1	8
556.416	1	5
557.606	1	-2
558.796	1	8
559.986	1	0
561.175	1	6
562.365	1	4
563.555	1	6
564.744	1	5
565.934	1	5
567.123	1	3
568.313	1	-5
569.502	1	1
570.692	1	9
571.881	1	4
573.070	1	4
574.260	1	2
575.449	1	3
576.638	1	-8
577.827	1	-3
579.016	1	0
580.205	1	3
581.394	1	-4
582.583	1	14
583.772	1	-2
584.961	1	1
586.150	1	16
587.339	1	-3
588.528	1	2
589.717	1	-6
590.905	1	3
592.094	1	4
593.283	1	-9
594.471	1	2
595.660	1	2
596.848	1	3
598.037	1	3
599.225	1	5
600.413	1	12
601.602	1	-8
602.790	1	0
603.978	1	4
605.166	1	8
606.355	1	5
607.543	1	7
608.731	1	3
609.919	1	15
611.107	1	9
612.295	1	2
613.483	1	-1
614.671	1	2
615.858	1	-2
617.046	1	10
618.234	1	-2
619.422	1	4
620.609	1	1
621.797	1	1
622.985	1	10
624.172	1	4
625.360	1	2
626.547	1	6
627.735	1	7
628.922	1	-8
630.109	1	5
631.297	1	0
632.484	1	-6
633.671	1	-2
634.858	1	10
636.045	1	10
637.232	1	-2
638.419	1	7
639.606	1	3
640.793	1	-8
641.980	1	-3
643.167	1	2
644.354	1	-4
645.541	1	-1
646.728	1	15
647.914	1	-8
649.101	1	3
650.288	1	11
651.474	1	3
652.661	1	-9
653.847	1	4
655.034	1	9
656.220	1	-2
657.406	1	5
658.593	1	6
659.779	1	3
660.965	1	0
662.152	1	5
663.338	1	3
664.524	1	-4
665.710	1	-1
666.896	1	7
668.082	1	-3
669.268	1	-8
670.454	1	1
671.640	1	-14
672.826	1	-2
674.011	1	4
675.197	1	-1
676.383	1	0
677.569	1	-4
678.754	1	10
679.940	1	6
681.125	1	7
682.311	1	-14
683.496	1	-6
684.682	1	-2
685.867	1	-6
687.053	1	2
688.238	1	3
688.746	1	6