File: Data/GaN_130K_350ms/GaN_sample F_spot6_UVVIS_130 K_200um_350 ms 2x2mm1_155.txt
340.368	1	-2
341.565	1	-2
342.763	1	6
343.960	1	-12
345.157	1	-14
346.354	1	3
347.552	1	-1
348.749	1	5
349.946	1	5
351.143	1	-1
352.340	1	7
353.537	1	6
354.734	1	6
355.931	1	4
357.127	1	8
358.324	1	6
359.521	1	14
360.718	1	19
361.914	1	8
363.111	1	27
364.308	1	26
365.504	1	29
366.701	1	42
367.897	1	33
369.093	1	26
370.290	1	46
371.486	1	30
372.682	1	26
373.879	1	23
375.075	1	25
376.271	1	17
377.467	1	22
378.663	1	15
379.859	1	9
381.055	1	10
382.251	1	5
383.447	1	10
384.643	1	11
385.839	1	10
387.035	1	15
388.230	1	11
389.426	1	19
390.622	1	8
391.817	1	11
393.013	1	10
394.208	1	8
395.404	1	1
396.599	1	3
397.795	1	-3
398.990	1	5
400.186	1	2
401.381	1	12
402.576	1	4
403.771	1	12
404.967	1	3
406.162	1	-3
407.357	1	8
408.552	1	-3
409.747	1	7
410.942	1	12
412.137	1	11
413.332	1	10
414.526	1	11
415.721	1	12
416.916	1	3
418.111	1	8
419.305	1	9
420.500	1	7
421.695	1	1
422.889	1	7
424.084	1	9
425.278	1	3
426.472	1	2
427.667	1	10
428.861	1	2
430.055	1	-2
431.250	1	17
432.444	1	15
433.638	1	10
434.832	1	3
436.026	1	10
437.220	1	0
438.414	1	-3
439.608	1	13
440.802	1	1
441.996	1	12
443.190	1	6
444.384	1	0
445.578	1	6
446.771	1	9
447.965	1	0
449.159	1	6
450.352	1	9
451.546	1	7
452.739	1	3
453.933	1	3
455.126	1	-2
456.320	1	-5
457.513	1	-4
458.706	1	11
459.899	1	5
461.093	1	19
462.286	1	12
463.479	1	5
464.672	1	6
465.865	1	-5
467.058	1	3
468.251	1	7
469.444	1	-2
470.637	1	1
471.830	1	-2
473.023	1	3
474.215	1	2
475.408	1	11
476.601	1	-3
477.793	1	-1
478.986	1	9
480.179	1	3
481.371	1	6
482.564	1	0
483.756	1	1
484.948	1	6
486.141	1	-1
487.333	1	-2
488.525	1	9
489.718	1	7
490.910	1	-1
492.102	1	14
493.294	1	10
494.486	1	14
495.678	1	9
496.870	1	8
498.062	1	-5
499.254	1	12
500.446	1	9
501.638	1	6
502.829	1	9
504.021	1	5
505.213	1	10
506.404	1	0
507.596	1	13
508.788	1	11
509.979	1	-2
511.171	1	17
512.362	1	22
513.553	1	17
514.745	1	0
515.936	1	23
517.127	1	13
518.319	1	4
519.510	1	7
520.701	1	16
521.892	1	19
523.083	1	14
524.274	1	4
525.465	1	13
526.656	1	24
527.847	1	11
529.038	1	4
530.229	1	18
531.419	1	16
532.610	1	14
533.801	1	21
534.991	1	16
536.182	1	18
537.373	1	11
538.563	1	15
539.754	1	13
540.944	1	9
542.134	1	5
543.325	1	6
544.515	1	15
545.705	1	7
546.896	1	14
548.086	1	-4
549.276	1	3
550.466	1	12
551.656	1	11
552.846	1	0
554.036	1	12
555.226	1	14
556.416	1	11
557.606	1	8
558.796	1	17
559.986	1	6
561.175	1	14
562.365	1	13
563.555	1	11
564.744	1	10
565.934	1	11
567.123	1	-1
568.313	1	3
569.502	1	9
570.692	1	14
571.881	1	6
573.070	1	9
574.260	1	8
575.449	1	9
576.638	1	4
577.827	1	1
579.016	1	3
580.205	1	-6
581.394	1	-8
582.583	1	7
583.772	1	23
584.961	1	0
586.150	1	9
587.339	1	3
588.528	1	11
589.717	1	5
590.905	1	10
592.094	1	4
593.283	1	-2
594.471	1	-3
595.660	1	3
596.848	1	7
598.037	1	8
599.225	1	10
600.413	1	12
601.602	1	0
602.790	1	7
603.978	1	5
605.166	1	2
606.355	1	5
607.543	1	-1
608.731	1	-2
609.919	1	11
611.107	1	5
612.295	1	10
613.483	1	4
614.671	1	6
615.858	1	1
617.046	1	5
618.234	1	1
619.422	1	-2
620.609	1	-4
621.797	1	5
622.985	1	9
624.172	1	1
625.360	1	1
626.547	1	6
627.735	1	12
628.922	1	-2
630.109	1	6
631.297	1	1
632.484	1	-3
633.671	1	-3
634.858	1	13
636.045	1	23
637.232	1	-9
638.419	1	4
639.606	1	0
640.793	1	-10
641.980	1	-1
643.167	1	11
644.354	1	1
645.541	1	8
646.728	1	0
647.914	1	-8
649.101	1	-6
650.288	1	14
651.474	1	0
652.661	1	-6
653.847	1	6
655.034	1	7
656.220	1	-1
657.406	1	9
658.593	1	2
659.779	1	10
660.965	1	8
662.152	1	1
663.338	1	-6
664.524	1	1
665.710	1	-2
666.896	1	0
668.082	1	8
669.268	1	3
670.454	1	5
671.640	1	-13
672.826	1	7
674.011	1	-5
675.197	1	1
676.383	1	2
677.569	1	7
678.754	1	13
679.940	1	0
681.125	1	7
682.311	1	-2
683.496	1	5
684.682	1	8
685.867	1	8
687.053	1	0
688.238	1	6
688.746	1	9