File: Data/GaN_130K_350ms/GaN_sample F_spot6_UVVIS_130 K_200um_350 ms 2x2mm1_146.txt
340.368	1	9
341.565	1	4
342.763	1	2
343.960	1	-7
345.157	1	-12
346.354	1	0
347.552	1	-1
348.749	1	15
349.946	1	3
351.143	1	0
352.340	1	17
353.537	1	-6
354.734	1	-1
355.931	1	2
357.127	1	8
358.324	1	19
359.521	1	1
360.718	1	14
361.914	1	10
363.111	1	12
364.308	1	20
365.504	1	43
366.701	1	45
367.897	1	39
369.093	1	40
370.290	1	42
371.486	1	34
372.682	1	27
373.879	1	28
375.075	1	32
376.271	1	27
377.467	1	23
378.663	1	14
379.859	1	9
381.055	1	8
382.251	1	17
383.447	1	20
384.643	1	21
385.839	1	20
387.035	1	20
388.230	1	4
389.426	1	15
390.622	1	13
391.817	1	15
393.013	1	10
394.208	1	3
395.404	1	-1
396.599	1	15
397.795	1	1
398.990	1	5
400.186	1	-4
401.381	1	8
402.576	1	9
403.771	1	13
404.967	1	5
406.162	1	3
407.357	1	7
408.552	1	-8
409.747	1	2
410.942	1	4
412.137	1	0
413.332	1	0
414.526	1	4
415.721	1	19
416.916	1	9
418.111	1	9
419.305	1	0
420.500	1	-2
421.695	1	0
422.889	1	7
424.084	1	8
425.278	1	4
426.472	1	4
427.667	1	7
428.861	1	-5
430.055	1	3
431.250	1	13
432.444	1	4
433.638	1	1
434.832	1	-3
436.026	1	6
437.220	1	4
438.414	1	-3
439.608	1	19
440.802	1	9
441.996	1	9
443.190	1	4
444.384	1	-1
445.578	1	7
446.771	1	-5
447.965	1	4
449.159	1	7
450.352	1	14
451.546	1	14
452.739	1	7
453.933	1	6
455.126	1	-6
456.320	1	-1
457.513	1	-3
458.706	1	10
459.899	1	3
461.093	1	8
462.286	1	15
463.479	1	11
464.672	1	5
465.865	1	3
467.058	1	21
468.251	1	7
469.444	1	-3
470.637	1	5
471.830	1	3
473.023	1	7
474.215	1	9
475.408	1	5
476.601	1	10
477.793	1	6
478.986	1	-2
480.179	1	-5
481.371	1	15
482.564	1	4
483.756	1	5
484.948	1	4
486.141	1	9
487.333	1	-4
488.525	1	13
489.718	1	2
490.910	1	-3
492.102	1	11
493.294	1	5
494.486	1	14
495.678	1	9
496.870	1	12
498.062	1	2
499.254	1	17
500.446	1	1
501.638	1	5
502.829	1	2
504.021	1	-5
505.213	1	17
506.404	1	3
507.596	1	1
508.788	1	4
509.979	1	15
511.171	1	10
512.362	1	7
513.553	1	16
514.745	1	9
515.936	1	21
517.127	1	14
518.319	1	12
519.510	1	6
520.701	1	1
521.892	1	14
523.083	1	17
524.274	1	3
525.465	1	19
526.656	1	18
527.847	1	9
529.038	1	7
530.229	1	20
531.419	1	16
532.610	1	16
533.801	1	30
534.991	1	12
536.182	1	20
537.373	1	13
538.563	1	23
539.754	1	6
540.944	1	12
542.134	1	8
543.325	1	19
544.515	1	18
545.705	1	14
546.896	1	10
548.086	1	6
549.276	1	4
550.466	1	18
551.656	1	15
552.846	1	13
554.036	1	9
555.226	1	11
556.416	1	10
557.606	1	7
558.796	1	7
559.986	1	8
561.175	1	11
562.365	1	5
563.555	1	20
564.744	1	1
565.934	1	4
567.123	1	7
568.313	1	4
569.502	1	7
570.692	1	15
571.881	1	14
573.070	1	2
574.260	1	2
575.449	1	15
576.638	1	5
577.827	1	3
579.016	1	2
580.205	1	-6
581.394	1	-2
582.583	1	22
583.772	1	9
584.961	1	1
586.150	1	13
587.339	1	0
588.528	1	7
589.717	1	-1
590.905	1	12
592.094	1	6
593.283	1	-5
594.471	1	13
595.660	1	11
596.848	1	-4
598.037	1	5
599.225	1	8
600.413	1	11
601.602	1	2
602.790	1	7
603.978	1	7
605.166	1	6
606.355	1	16
607.543	1	8
608.731	1	2
609.919	1	6
611.107	1	7
612.295	1	7
613.483	1	-1
614.671	1	2
615.858	1	-4
617.046	1	8
618.234	1	2
619.422	1	8
620.609	1	2
621.797	1	2
622.985	1	6
624.172	1	4
625.360	1	2
626.547	1	7
627.735	1	16
628.922	1	-5
630.109	1	6
631.297	1	2
632.484	1	0
633.671	1	1
634.858	1	8
636.045	1	16
637.232	1	-2
638.419	1	-4
639.606	1	5
640.793	1	0
641.980	1	-1
643.167	1	10
644.354	1	5
645.541	1	4
646.728	1	5
647.914	1	-5
649.101	1	-5
650.288	1	16
651.474	1	-1
652.661	1	1
653.847	1	-2
655.034	1	5
656.220	1	1
657.406	1	6
658.593	1	5
659.779	1	3
660.965	1	3
662.152	1	1
663.338	1	7
664.524	1	4
665.710	1	-1
666.896	1	11
668.082	1	-1
669.268	1	-3
670.454	1	4
671.640	1	5
672.826	1	2
674.011	1	-2
675.197	1	4
676.383	1	9
677.569	1	9
678.754	1	5
679.940	1	0
681.125	1	8
682.311	1	0
683.496	1	-7
684.682	1	-3
685.867	1	5
687.053	1	7
688.238	1	13
688.746	1	2