File: Data/GaN_130K_350ms/GaN_sample F_spot6_UVVIS_130 K_200um_350 ms 2x2mm1_108.txt
340.368	1	6
341.565	1	0
342.763	1	11
343.960	1	-8
345.157	1	-10
346.354	1	3
347.552	1	-3
348.749	1	9
349.946	1	17
351.143	1	5
352.340	1	10
353.537	1	3
354.734	1	8
355.931	1	8
357.127	1	6
358.324	1	12
359.521	1	6
360.718	1	22
361.914	1	38
363.111	1	45
364.308	1	61
365.504	1	67
366.701	1	77
367.897	1	77
369.093	1	94
370.290	1	85
371.486	1	65
372.682	1	57
373.879	1	57
375.075	1	48
376.271	1	52
377.467	1	43
378.663	1	41
379.859	1	31
381.055	1	25
382.251	1	17
383.447	1	31
384.643	1	27
385.839	1	19
387.035	1	25
388.230	1	17
389.426	1	32
390.622	1	9
391.817	1	18
393.013	1	14
394.208	1	12
395.404	1	6
396.599	1	18
397.795	1	7
398.990	1	19
400.186	1	12
401.381	1	9
402.576	1	17
403.771	1	6
404.967	1	19
406.162	1	10
407.357	1	15
408.552	1	10
409.747	1	1
410.942	1	11
412.137	1	3
413.332	1	1
414.526	1	15
415.721	1	9
416.916	1	10
418.111	1	5
419.305	1	16
420.500	1	8
421.695	1	2
422.889	1	7
424.084	1	13
425.278	1	-2
426.472	1	0
427.667	1	7
428.861	1	2
430.055	1	9
431.250	1	16
432.444	1	13
433.638	1	11
434.832	1	6
436.026	1	10
437.220	1	1
438.414	1	5
439.608	1	11
440.802	1	3
441.996	1	18
443.190	1	4
444.384	1	-7
445.578	1	10
446.771	1	2
447.965	1	17
449.159	1	4
450.352	1	17
451.546	1	10
452.739	1	11
453.933	1	15
455.126	1	-3
456.320	1	0
457.513	1	-3
458.706	1	5
459.899	1	3
461.093	1	7
462.286	1	3
463.479	1	4
464.672	1	8
465.865	1	5
467.058	1	-7
468.251	1	6
469.444	1	5
470.637	1	10
471.830	1	-3
473.023	1	7
474.215	1	-1
475.408	1	16
476.601	1	0
477.793	1	4
478.986	1	8
480.179	1	5
481.371	1	13
482.564	1	3
483.756	1	5
484.948	1	7
486.141	1	7
487.333	1	5
488.525	1	12
489.718	1	15
490.910	1	2
492.102	1	21
493.294	1	13
494.486	1	25
495.678	1	8
496.870	1	15
498.062	1	8
499.254	1	16
500.446	1	16
501.638	1	18
502.829	1	15
504.021	1	16
505.213	1	31
506.404	1	17
507.596	1	14
508.788	1	26
509.979	1	19
511.171	1	39
512.362	1	21
513.553	1	28
514.745	1	32
515.936	1	36
517.127	1	38
518.319	1	26
519.510	1	38
520.701	1	30
521.892	1	47
523.083	1	39
524.274	1	29
525.465	1	42
526.656	1	32
527.847	1	35
529.038	1	23
530.229	1	46
531.419	1	37
532.610	1	33
533.801	1	45
534.991	1	44
536.182	1	36
537.373	1	31
538.563	1	29
539.754	1	32
540.944	1	41
542.134	1	28
543.325	1	27
544.515	1	30
545.705	1	20
546.896	1	35
548.086	1	18
549.276	1	39
550.466	1	37
551.656	1	32
552.846	1	28
554.036	1	23
555.226	1	28
556.416	1	28
557.606	1	12
558.796	1	40
559.986	1	25
561.175	1	18
562.365	1	28
563.555	1	29
564.744	1	19
565.934	1	19
567.123	1	24
568.313	1	18
569.502	1	12
570.692	1	15
571.881	1	15
573.070	1	19
574.260	1	11
575.449	1	16
576.638	1	15
577.827	1	9
579.016	1	10
580.205	1	11
581.394	1	20
582.583	1	18
583.772	1	13
584.961	1	8
586.150	1	12
587.339	1	8
588.528	1	13
589.717	1	6
590.905	1	11
592.094	1	3
593.283	1	4
594.471	1	7
595.660	1	8
596.848	1	15
598.037	1	10
599.225	1	5
600.413	1	13
601.602	1	-2
602.790	1	9
603.978	1	11
605.166	1	18
606.355	1	12
607.543	1	10
608.731	1	5
609.919	1	6
611.107	1	7
612.295	1	16
613.483	1	5
614.671	1	6
615.858	1	1
617.046	1	13
618.234	1	-1
619.422	1	11
620.609	1	2
621.797	1	7
622.985	1	6
624.172	1	5
625.360	1	9
626.547	1	6
627.735	1	9
628.922	1	2
630.109	1	11
631.297	1	3
632.484	1	3
633.671	1	4
634.858	1	10
636.045	1	15
637.232	1	-1
638.419	1	8
639.606	1	12
640.793	1	-5
641.980	1	7
643.167	1	10
644.354	1	0
645.541	1	10
646.728	1	7
647.914	1	-1
649.101	1	4
650.288	1	7
651.474	1	3
652.661	1	-5
653.847	1	4
655.034	1	10
656.220	1	-5
657.406	1	5
658.593	1	-1
659.779	1	2
660.965	1	12
662.152	1	10
663.338	1	8
664.524	1	-7
665.710	1	12
666.896	1	6
668.082	1	11
669.268	1	4
670.454	1	7
671.640	1	-8
672.826	1	-2
674.011	1	2
675.197	1	-2
676.383	1	3
677.569	1	0
678.754	1	5
679.940	1	-2
681.125	1	18
682.311	1	-4
683.496	1	-6
684.682	1	-1
685.867	1	4
687.053	1	8
688.238	1	9
688.746	1	16