File: Data/GaN_130K_350ms/GaN_sample F_spot6_UVVIS_130 K_200um_350 ms 2x2mm1_151.txt
340.368	1	2
341.565	1	6
342.763	1	7
343.960	1	-12
345.157	1	-11
346.354	1	-1
347.552	1	3
348.749	1	18
349.946	1	7
351.143	1	5
352.340	1	10
353.537	1	2
354.734	1	6
355.931	1	4
357.127	1	10
358.324	1	8
359.521	1	7
360.718	1	18
361.914	1	16
363.111	1	37
364.308	1	25
365.504	1	34
366.701	1	25
367.897	1	34
369.093	1	41
370.290	1	37
371.486	1	30
372.682	1	20
373.879	1	36
375.075	1	28
376.271	1	25
377.467	1	17
378.663	1	13
379.859	1	17
381.055	1	16
382.251	1	12
383.447	1	14
384.643	1	16
385.839	1	11
387.035	1	12
388.230	1	6
389.426	1	4
390.622	1	8
391.817	1	21
393.013	1	16
394.208	1	3
395.404	1	-8
396.599	1	6
397.795	1	-8
398.990	1	8
400.186	1	4
401.381	1	9
402.576	1	8
403.771	1	20
404.967	1	11
406.162	1	0
407.357	1	7
408.552	1	-5
409.747	1	9
410.942	1	10
412.137	1	-1
413.332	1	-2
414.526	1	4
415.721	1	-1
416.916	1	0
418.111	1	11
419.305	1	2
420.500	1	11
421.695	1	2
422.889	1	2
424.084	1	13
425.278	1	4
426.472	1	11
427.667	1	8
428.861	1	0
430.055	1	9
431.250	1	13
432.444	1	8
433.638	1	-2
434.832	1	2
436.026	1	5
437.220	1	-4
438.414	1	-2
439.608	1	16
440.802	1	-5
441.996	1	12
443.190	1	6
444.384	1	4
445.578	1	-2
446.771	1	3
447.965	1	-5
449.159	1	8
450.352	1	14
451.546	1	9
452.739	1	3
453.933	1	9
455.126	1	-5
456.320	1	-1
457.513	1	-10
458.706	1	6
459.899	1	5
461.093	1	1
462.286	1	10
463.479	1	11
464.672	1	9
465.865	1	3
467.058	1	7
468.251	1	6
469.444	1	4
470.637	1	10
471.830	1	7
473.023	1	7
474.215	1	5
475.408	1	8
476.601	1	0
477.793	1	0
478.986	1	1
480.179	1	-1
481.371	1	14
482.564	1	3
483.756	1	-4
484.948	1	4
486.141	1	12
487.333	1	1
488.525	1	4
489.718	1	13
490.910	1	3
492.102	1	17
493.294	1	13
494.486	1	20
495.678	1	6
496.870	1	5
498.062	1	-1
499.254	1	9
500.446	1	13
501.638	1	7
502.829	1	6
504.021	1	7
505.213	1	6
506.404	1	10
507.596	1	-2
508.788	1	7
509.979	1	16
511.171	1	22
512.362	1	10
513.553	1	13
514.745	1	10
515.936	1	17
517.127	1	10
518.319	1	1
519.510	1	10
520.701	1	5
521.892	1	19
523.083	1	10
524.274	1	11
525.465	1	19
526.656	1	18
527.847	1	13
529.038	1	10
530.229	1	8
531.419	1	17
532.610	1	7
533.801	1	23
534.991	1	13
536.182	1	18
537.373	1	12
538.563	1	17
539.754	1	2
540.944	1	16
542.134	1	8
543.325	1	8
544.515	1	17
545.705	1	12
546.896	1	12
548.086	1	0
549.276	1	5
550.466	1	12
551.656	1	12
552.846	1	5
554.036	1	17
555.226	1	8
556.416	1	15
557.606	1	7
558.796	1	20
559.986	1	17
561.175	1	16
562.365	1	17
563.555	1	21
564.744	1	17
565.934	1	5
567.123	1	9
568.313	1	5
569.502	1	6
570.692	1	11
571.881	1	11
573.070	1	3
574.260	1	11
575.449	1	3
576.638	1	2
577.827	1	6
579.016	1	9
580.205	1	-3
581.394	1	6
582.583	1	19
583.772	1	8
584.961	1	4
586.150	1	8
587.339	1	9
588.528	1	8
589.717	1	-5
590.905	1	9
592.094	1	14
593.283	1	0
594.471	1	8
595.660	1	11
596.848	1	4
598.037	1	8
599.225	1	5
600.413	1	0
601.602	1	0
602.790	1	2
603.978	1	3
605.166	1	8
606.355	1	7
607.543	1	7
608.731	1	9
609.919	1	12
611.107	1	4
612.295	1	11
613.483	1	-5
614.671	1	8
615.858	1	3
617.046	1	11
618.234	1	8
619.422	1	-1
620.609	1	-4
621.797	1	-2
622.985	1	5
624.172	1	4
625.360	1	6
626.547	1	-2
627.735	1	10
628.922	1	-4
630.109	1	10
631.297	1	5
632.484	1	-6
633.671	1	-3
634.858	1	9
636.045	1	22
637.232	1	-2
638.419	1	13
639.606	1	12
640.793	1	-8
641.980	1	7
643.167	1	6
644.354	1	-5
645.541	1	-1
646.728	1	16
647.914	1	-1
649.101	1	-5
650.288	1	5
651.474	1	1
652.661	1	6
653.847	1	-1
655.034	1	-4
656.220	1	-4
657.406	1	-1
658.593	1	1
659.779	1	2
660.965	1	12
662.152	1	5
663.338	1	4
664.524	1	-4
665.710	1	6
666.896	1	14
668.082	1	0
669.268	1	-3
670.454	1	5
671.640	1	-10
672.826	1	5
674.011	1	3
675.197	1	-4
676.383	1	7
677.569	1	4
678.754	1	14
679.940	1	8
681.125	1	20
682.311	1	-8
683.496	1	-6
684.682	1	1
685.867	1	11
687.053	1	10
688.238	1	9
688.746	1	10