File: Data/GaN_130K_350ms/GaN_sample F_spot6_UVVIS_130 K_200um_350 ms 2x2mm1_184.txt
340.368	1	4
341.565	1	7
342.763	1	0
343.960	1	-9
345.157	1	-12
346.354	1	10
347.552	1	5
348.749	1	10
349.946	1	10
351.143	1	6
352.340	1	9
353.537	1	1
354.734	1	-10
355.931	1	4
357.127	1	5
358.324	1	7
359.521	1	2
360.718	1	5
361.914	1	6
363.111	1	14
364.308	1	18
365.504	1	20
366.701	1	11
367.897	1	6
369.093	1	12
370.290	1	24
371.486	1	23
372.682	1	11
373.879	1	19
375.075	1	21
376.271	1	13
377.467	1	16
378.663	1	15
379.859	1	4
381.055	1	4
382.251	1	6
383.447	1	12
384.643	1	8
385.839	1	10
387.035	1	13
388.230	1	1
389.426	1	17
390.622	1	10
391.817	1	6
393.013	1	7
394.208	1	2
395.404	1	-3
396.599	1	9
397.795	1	1
398.990	1	3
400.186	1	3
401.381	1	4
402.576	1	6
403.771	1	14
404.967	1	2
406.162	1	-2
407.357	1	1
408.552	1	4
409.747	1	5
410.942	1	2
412.137	1	6
413.332	1	5
414.526	1	6
415.721	1	8
416.916	1	5
418.111	1	8
419.305	1	3
420.500	1	7
421.695	1	6
422.889	1	1
424.084	1	12
425.278	1	8
426.472	1	10
427.667	1	4
428.861	1	5
430.055	1	3
431.250	1	9
432.444	1	-1
433.638	1	6
434.832	1	15
436.026	1	4
437.220	1	-1
438.414	1	-2
439.608	1	16
440.802	1	1
441.996	1	10
443.190	1	5
444.384	1	-6
445.578	1	-1
446.771	1	8
447.965	1	8
449.159	1	16
450.352	1	12
451.546	1	2
452.739	1	7
453.933	1	2
455.126	1	-7
456.320	1	1
457.513	1	-3
458.706	1	7
459.899	1	5
461.093	1	12
462.286	1	9
463.479	1	8
464.672	1	12
465.865	1	-10
467.058	1	6
468.251	1	20
469.444	1	5
470.637	1	8
471.830	1	3
473.023	1	5
474.215	1	-5
475.408	1	4
476.601	1	-2
477.793	1	-1
478.986	1	1
480.179	1	3
481.371	1	5
482.564	1	7
483.756	1	-3
484.948	1	-3
486.141	1	0
487.333	1	-7
488.525	1	12
489.718	1	1
490.910	1	-3
492.102	1	10
493.294	1	11
494.486	1	17
495.678	1	4
496.870	1	5
498.062	1	5
499.254	1	10
500.446	1	8
501.638	1	8
502.829	1	3
504.021	1	5
505.213	1	2
506.404	1	5
507.596	1	3
508.788	1	0
509.979	1	3
511.171	1	11
512.362	1	13
513.553	1	11
514.745	1	4
515.936	1	19
517.127	1	-2
518.319	1	-3
519.510	1	3
520.701	1	3
521.892	1	10
523.083	1	0
524.274	1	-3
525.465	1	10
526.656	1	13
527.847	1	6
529.038	1	8
530.229	1	6
531.419	1	7
532.610	1	8
533.801	1	17
534.991	1	13
536.182	1	9
537.373	1	3
538.563	1	19
539.754	1	-4
540.944	1	13
542.134	1	-5
543.325	1	5
544.515	1	3
545.705	1	1
546.896	1	12
548.086	1	1
549.276	1	-5
550.466	1	14
551.656	1	11
552.846	1	7
554.036	1	12
555.226	1	12
556.416	1	23
557.606	1	10
558.796	1	15
559.986	1	8
561.175	1	8
562.365	1	8
563.555	1	16
564.744	1	-4
565.934	1	4
567.123	1	8
568.313	1	-3
569.502	1	2
570.692	1	7
571.881	1	6
573.070	1	8
574.260	1	3
575.449	1	8
576.638	1	0
577.827	1	-6
579.016	1	5
580.205	1	9
581.394	1	-1
582.583	1	11
583.772	1	4
584.961	1	-1
586.150	1	6
587.339	1	11
588.528	1	8
589.717	1	-7
590.905	1	11
592.094	1	-1
593.283	1	-3
594.471	1	5
595.660	1	0
596.848	1	5
598.037	1	2
599.225	1	12
600.413	1	12
601.602	1	7
602.790	1	1
603.978	1	3
605.166	1	8
606.355	1	5
607.543	1	-3
608.731	1	1
609.919	1	8
611.107	1	8
612.295	1	13
613.483	1	-3
614.671	1	4
615.858	1	-3
617.046	1	8
618.234	1	6
619.422	1	8
620.609	1	-1
621.797	1	6
622.985	1	2
624.172	1	-1
625.360	1	10
626.547	1	4
627.735	1	14
628.922	1	-11
630.109	1	9
631.297	1	5
632.484	1	-5
633.671	1	-3
634.858	1	9
636.045	1	15
637.232	1	1
638.419	1	9
639.606	1	10
640.793	1	-6
641.980	1	-1
643.167	1	8
644.354	1	-5
645.541	1	4
646.728	1	10
647.914	1	-8
649.101	1	-5
650.288	1	10
651.474	1	-7
652.661	1	4
653.847	1	7
655.034	1	-1
656.220	1	-6
657.406	1	10
658.593	1	1
659.779	1	-5
660.965	1	0
662.152	1	7
663.338	1	-2
664.524	1	-10
665.710	1	3
666.896	1	8
668.082	1	5
669.268	1	-4
670.454	1	4
671.640	1	-3
672.826	1	9
674.011	1	5
675.197	1	7
676.383	1	3
677.569	1	5
678.754	1	-1
679.940	1	-6
681.125	1	9
682.311	1	-14
683.496	1	7
684.682	1	-5
685.867	1	-7
687.053	1	-3
688.238	1	9
688.746	1	5