File: Data/GaN_130K_350ms/GaN_sample F_spot6_UVVIS_130 K_200um_350 ms 2x2mm1_191.txt
340.368	1	6
341.565	1	-4
342.763	1	6
343.960	1	-3
345.157	1	-11
346.354	1	-7
347.552	1	5
348.749	1	1
349.946	1	5
351.143	1	0
352.340	1	17
353.537	1	8
354.734	1	-3
355.931	1	3
357.127	1	18
358.324	1	3
359.521	1	6
360.718	1	15
361.914	1	15
363.111	1	21
364.308	1	20
365.504	1	25
366.701	1	19
367.897	1	14
369.093	1	11
370.290	1	28
371.486	1	12
372.682	1	17
373.879	1	19
375.075	1	16
376.271	1	9
377.467	1	18
378.663	1	20
379.859	1	9
381.055	1	12
382.251	1	8
383.447	1	6
384.643	1	12
385.839	1	5
387.035	1	11
388.230	1	-5
389.426	1	5
390.622	1	20
391.817	1	8
393.013	1	9
394.208	1	2
395.404	1	-7
396.599	1	9
397.795	1	-3
398.990	1	1
400.186	1	3
401.381	1	6
402.576	1	13
403.771	1	14
404.967	1	1
406.162	1	-3
407.357	1	2
408.552	1	-3
409.747	1	1
410.942	1	1
412.137	1	0
413.332	1	4
414.526	1	7
415.721	1	0
416.916	1	5
418.111	1	7
419.305	1	11
420.500	1	14
421.695	1	-1
422.889	1	1
424.084	1	8
425.278	1	7
426.472	1	3
427.667	1	16
428.861	1	6
430.055	1	4
431.250	1	8
432.444	1	14
433.638	1	11
434.832	1	6
436.026	1	7
437.220	1	1
438.414	1	1
439.608	1	18
440.802	1	4
441.996	1	16
443.190	1	-6
444.384	1	2
445.578	1	-3
446.771	1	7
447.965	1	6
449.159	1	8
450.352	1	20
451.546	1	8
452.739	1	9
453.933	1	0
455.126	1	-6
456.320	1	-3
457.513	1	-1
458.706	1	10
459.899	1	4
461.093	1	7
462.286	1	4
463.479	1	7
464.672	1	5
465.865	1	2
467.058	1	3
468.251	1	6
469.444	1	4
470.637	1	6
471.830	1	8
473.023	1	11
474.215	1	2
475.408	1	7
476.601	1	3
477.793	1	-1
478.986	1	0
480.179	1	-2
481.371	1	13
482.564	1	0
483.756	1	-3
484.948	1	8
486.141	1	4
487.333	1	4
488.525	1	11
489.718	1	7
490.910	1	2
492.102	1	11
493.294	1	6
494.486	1	11
495.678	1	5
496.870	1	-2
498.062	1	1
499.254	1	6
500.446	1	2
501.638	1	9
502.829	1	-2
504.021	1	3
505.213	1	9
506.404	1	2
507.596	1	12
508.788	1	-3
509.979	1	4
511.171	1	12
512.362	1	7
513.553	1	7
514.745	1	4
515.936	1	12
517.127	1	2
518.319	1	1
519.510	1	0
520.701	1	3
521.892	1	6
523.083	1	2
524.274	1	-8
525.465	1	5
526.656	1	12
527.847	1	0
529.038	1	2
530.229	1	16
531.419	1	11
532.610	1	-6
533.801	1	14
534.991	1	7
536.182	1	15
537.373	1	14
538.563	1	12
539.754	1	6
540.944	1	6
542.134	1	2
543.325	1	4
544.515	1	0
545.705	1	7
546.896	1	6
548.086	1	-4
549.276	1	-6
550.466	1	0
551.656	1	12
552.846	1	0
554.036	1	8
555.226	1	3
556.416	1	9
557.606	1	-4
558.796	1	9
559.986	1	6
561.175	1	2
562.365	1	5
563.555	1	9
564.744	1	3
565.934	1	2
567.123	1	11
568.313	1	6
569.502	1	4
570.692	1	14
571.881	1	-8
573.070	1	-4
574.260	1	8
575.449	1	8
576.638	1	0
577.827	1	3
579.016	1	-1
580.205	1	-2
581.394	1	2
582.583	1	5
583.772	1	-5
584.961	1	9
586.150	1	16
587.339	1	-2
588.528	1	11
589.717	1	5
590.905	1	18
592.094	1	-2
593.283	1	-11
594.471	1	7
595.660	1	6
596.848	1	5
598.037	1	8
599.225	1	7
600.413	1	18
601.602	1	-8
602.790	1	1
603.978	1	6
605.166	1	8
606.355	1	8
607.543	1	7
608.731	1	-2
609.919	1	10
611.107	1	10
612.295	1	12
613.483	1	1
614.671	1	-2
615.858	1	-8
617.046	1	0
618.234	1	0
619.422	1	-4
620.609	1	-4
621.797	1	3
622.985	1	8
624.172	1	9
625.360	1	7
626.547	1	1
627.735	1	12
628.922	1	-8
630.109	1	8
631.297	1	9
632.484	1	-7
633.671	1	1
634.858	1	7
636.045	1	17
637.232	1	-5
638.419	1	8
639.606	1	5
640.793	1	-8
641.980	1	-6
643.167	1	-2
644.354	1	-8
645.541	1	-5
646.728	1	11
647.914	1	-1
649.101	1	-2
650.288	1	2
651.474	1	-3
652.661	1	-6
653.847	1	0
655.034	1	4
656.220	1	7
657.406	1	14
658.593	1	5
659.779	1	5
660.965	1	4
662.152	1	1
663.338	1	3
664.524	1	0
665.710	1	1
666.896	1	6
668.082	1	-7
669.268	1	-1
670.454	1	0
671.640	1	-8
672.826	1	5
674.011	1	2
675.197	1	-2
676.383	1	8
677.569	1	2
678.754	1	3
679.940	1	2
681.125	1	22
682.311	1	-9
683.496	1	-2
684.682	1	-4
685.867	1	-4
687.053	1	-1
688.238	1	6
688.746	1	6