File: Data/GaN_130K_350ms/GaN_sample F_spot6_UVVIS_130 K_200um_350 ms 2x2mm1_189.txt
340.368	1	13
341.565	1	1
342.763	1	7
343.960	1	-6
345.157	1	-7
346.354	1	1
347.552	1	0
348.749	1	13
349.946	1	5
351.143	1	-3
352.340	1	19
353.537	1	-7
354.734	1	-4
355.931	1	-1
357.127	1	1
358.324	1	4
359.521	1	-8
360.718	1	-1
361.914	1	16
363.111	1	19
364.308	1	18
365.504	1	16
366.701	1	18
367.897	1	16
369.093	1	17
370.290	1	19
371.486	1	19
372.682	1	15
373.879	1	19
375.075	1	16
376.271	1	7
377.467	1	12
378.663	1	6
379.859	1	13
381.055	1	3
382.251	1	14
383.447	1	12
384.643	1	4
385.839	1	12
387.035	1	12
388.230	1	2
389.426	1	1
390.622	1	-3
391.817	1	7
393.013	1	15
394.208	1	8
395.404	1	2
396.599	1	12
397.795	1	2
398.990	1	6
400.186	1	-2
401.381	1	11
402.576	1	4
403.771	1	7
404.967	1	13
406.162	1	0
407.357	1	1
408.552	1	2
409.747	1	5
410.942	1	9
412.137	1	7
413.332	1	3
414.526	1	16
415.721	1	1
416.916	1	2
418.111	1	22
419.305	1	7
420.500	1	2
421.695	1	7
422.889	1	2
424.084	1	14
425.278	1	3
426.472	1	1
427.667	1	11
428.861	1	1
430.055	1	5
431.250	1	12
432.444	1	11
433.638	1	2
434.832	1	3
436.026	1	5
437.220	1	1
438.414	1	-8
439.608	1	12
440.802	1	-6
441.996	1	9
443.190	1	1
444.384	1	6
445.578	1	6
446.771	1	15
447.965	1	9
449.159	1	2
450.352	1	16
451.546	1	12
452.739	1	13
453.933	1	6
455.126	1	-5
456.320	1	-2
457.513	1	-12
458.706	1	6
459.899	1	0
461.093	1	8
462.286	1	14
463.479	1	15
464.672	1	5
465.865	1	-5
467.058	1	9
468.251	1	-1
469.444	1	3
470.637	1	6
471.830	1	9
473.023	1	11
474.215	1	10
475.408	1	4
476.601	1	3
477.793	1	2
478.986	1	4
480.179	1	5
481.371	1	8
482.564	1	2
483.756	1	5
484.948	1	2
486.141	1	2
487.333	1	2
488.525	1	7
489.718	1	2
490.910	1	-7
492.102	1	9
493.294	1	13
494.486	1	11
495.678	1	0
496.870	1	4
498.062	1	3
499.254	1	11
500.446	1	1
501.638	1	10
502.829	1	6
504.021	1	-2
505.213	1	6
506.404	1	7
507.596	1	4
508.788	1	1
509.979	1	-3
511.171	1	15
512.362	1	9
513.553	1	7
514.745	1	-5
515.936	1	16
517.127	1	11
518.319	1	4
519.510	1	2
520.701	1	5
521.892	1	11
523.083	1	12
524.274	1	1
525.465	1	11
526.656	1	9
527.847	1	6
529.038	1	-5
530.229	1	11
531.419	1	8
532.610	1	6
533.801	1	20
534.991	1	12
536.182	1	15
537.373	1	13
538.563	1	16
539.754	1	-1
540.944	1	13
542.134	1	4
543.325	1	9
544.515	1	2
545.705	1	5
546.896	1	-4
548.086	1	-3
549.276	1	1
550.466	1	5
551.656	1	12
552.846	1	1
554.036	1	9
555.226	1	11
556.416	1	7
557.606	1	-1
558.796	1	17
559.986	1	5
561.175	1	9
562.365	1	12
563.555	1	13
564.744	1	12
565.934	1	10
567.123	1	9
568.313	1	4
569.502	1	5
570.692	1	6
571.881	1	6
573.070	1	6
574.260	1	0
575.449	1	6
576.638	1	14
577.827	1	-6
579.016	1	-6
580.205	1	3
581.394	1	-2
582.583	1	6
583.772	1	14
584.961	1	-5
586.150	1	10
587.339	1	5
588.528	1	7
589.717	1	-16
590.905	1	10
592.094	1	5
593.283	1	-6
594.471	1	8
595.660	1	2
596.848	1	-3
598.037	1	3
599.225	1	1
600.413	1	8
601.602	1	-1
602.790	1	-8
603.978	1	-3
605.166	1	15
606.355	1	3
607.543	1	0
608.731	1	3
609.919	1	1
611.107	1	5
612.295	1	5
613.483	1	-3
614.671	1	7
615.858	1	-2
617.046	1	-1
618.234	1	7
619.422	1	-1
620.609	1	-4
621.797	1	7
622.985	1	4
624.172	1	-4
625.360	1	8
626.547	1	15
627.735	1	11
628.922	1	-6
630.109	1	11
631.297	1	1
632.484	1	-4
633.671	1	-11
634.858	1	12
636.045	1	11
637.232	1	3
638.419	1	5
639.606	1	8
640.793	1	-5
641.980	1	-1
643.167	1	2
644.354	1	-2
645.541	1	2
646.728	1	5
647.914	1	-4
649.101	1	1
650.288	1	7
651.474	1	-4
652.661	1	-3
653.847	1	3
655.034	1	-7
656.220	1	3
657.406	1	8
658.593	1	-8
659.779	1	7
660.965	1	4
662.152	1	-1
663.338	1	0
664.524	1	-7
665.710	1	1
666.896	1	5
668.082	1	-3
669.268	1	5
670.454	1	6
671.640	1	-5
672.826	1	-5
674.011	1	7
675.197	1	2
676.383	1	8
677.569	1	6
678.754	1	4
679.940	1	-1
681.125	1	16
682.311	1	-4
683.496	1	-3
684.682	1	0
685.867	1	10
687.053	1	-3
688.238	1	13
688.746	1	-2