File: Data/GaN_130K_350ms/GaN_sample F_spot6_UVVIS_130 K_200um_350 ms 2x2mm1_202.txt
340.368	1	9
341.565	1	-2
342.763	1	-3
343.960	1	-3
345.157	1	-10
346.354	1	6
347.552	1	1
348.749	1	9
349.946	1	3
351.143	1	-2
352.340	1	9
353.537	1	6
354.734	1	-2
355.931	1	10
357.127	1	12
358.324	1	6
359.521	1	1
360.718	1	-1
361.914	1	6
363.111	1	12
364.308	1	20
365.504	1	19
366.701	1	20
367.897	1	17
369.093	1	18
370.290	1	16
371.486	1	16
372.682	1	4
373.879	1	15
375.075	1	13
376.271	1	17
377.467	1	18
378.663	1	9
379.859	1	13
381.055	1	9
382.251	1	9
383.447	1	9
384.643	1	6
385.839	1	5
387.035	1	21
388.230	1	5
389.426	1	5
390.622	1	8
391.817	1	12
393.013	1	1
394.208	1	-5
395.404	1	1
396.599	1	4
397.795	1	-7
398.990	1	11
400.186	1	-5
401.381	1	16
402.576	1	6
403.771	1	4
404.967	1	-1
406.162	1	0
407.357	1	2
408.552	1	7
409.747	1	2
410.942	1	6
412.137	1	-1
413.332	1	-6
414.526	1	7
415.721	1	8
416.916	1	4
418.111	1	11
419.305	1	5
420.500	1	9
421.695	1	3
422.889	1	9
424.084	1	11
425.278	1	-2
426.472	1	4
427.667	1	5
428.861	1	-5
430.055	1	8
431.250	1	11
432.444	1	10
433.638	1	11
434.832	1	1
436.026	1	4
437.220	1	3
438.414	1	-6
439.608	1	12
440.802	1	-5
441.996	1	9
443.190	1	10
444.384	1	6
445.578	1	-4
446.771	1	5
447.965	1	4
449.159	1	3
450.352	1	0
451.546	1	5
452.739	1	4
453.933	1	14
455.126	1	-10
456.320	1	-1
457.513	1	-5
458.706	1	14
459.899	1	2
461.093	1	21
462.286	1	8
463.479	1	6
464.672	1	19
465.865	1	-12
467.058	1	9
468.251	1	-2
469.444	1	-4
470.637	1	2
471.830	1	2
473.023	1	5
474.215	1	-3
475.408	1	7
476.601	1	-5
477.793	1	6
478.986	1	3
480.179	1	4
481.371	1	12
482.564	1	0
483.756	1	3
484.948	1	-2
486.141	1	-5
487.333	1	1
488.525	1	0
489.718	1	-1
490.910	1	-5
492.102	1	4
493.294	1	6
494.486	1	19
495.678	1	-9
496.870	1	5
498.062	1	-6
499.254	1	12
500.446	1	8
501.638	1	6
502.829	1	4
504.021	1	0
505.213	1	1
506.404	1	-5
507.596	1	7
508.788	1	-6
509.979	1	-1
511.171	1	18
512.362	1	-1
513.553	1	8
514.745	1	3
515.936	1	15
517.127	1	10
518.319	1	0
519.510	1	5
520.701	1	-1
521.892	1	4
523.083	1	12
524.274	1	3
525.465	1	12
526.656	1	11
527.847	1	9
529.038	1	-4
530.229	1	5
531.419	1	18
532.610	1	6
533.801	1	19
534.991	1	9
536.182	1	13
537.373	1	9
538.563	1	11
539.754	1	11
540.944	1	15
542.134	1	6
543.325	1	6
544.515	1	5
545.705	1	1
546.896	1	8
548.086	1	-2
549.276	1	3
550.466	1	8
551.656	1	9
552.846	1	0
554.036	1	2
555.226	1	10
556.416	1	10
557.606	1	-1
558.796	1	16
559.986	1	7
561.175	1	6
562.365	1	5
563.555	1	8
564.744	1	10
565.934	1	4
567.123	1	6
568.313	1	-7
569.502	1	-1
570.692	1	8
571.881	1	3
573.070	1	-1
574.260	1	6
575.449	1	4
576.638	1	1
577.827	1	1
579.016	1	-7
580.205	1	0
581.394	1	0
582.583	1	13
583.772	1	0
584.961	1	-4
586.150	1	12
587.339	1	-3
588.528	1	11
589.717	1	0
590.905	1	10
592.094	1	5
593.283	1	-2
594.471	1	1
595.660	1	-2
596.848	1	7
598.037	1	4
599.225	1	3
600.413	1	11
601.602	1	7
602.790	1	-3
603.978	1	4
605.166	1	10
606.355	1	13
607.543	1	-1
608.731	1	11
609.919	1	3
611.107	1	12
612.295	1	12
613.483	1	2
614.671	1	9
615.858	1	-2
617.046	1	4
618.234	1	-4
619.422	1	6
620.609	1	-6
621.797	1	10
622.985	1	2
624.172	1	-2
625.360	1	-7
626.547	1	-1
627.735	1	12
628.922	1	-7
630.109	1	2
631.297	1	3
632.484	1	-7
633.671	1	-5
634.858	1	7
636.045	1	8
637.232	1	-8
638.419	1	9
639.606	1	4
640.793	1	-15
641.980	1	5
643.167	1	5
644.354	1	-1
645.541	1	0
646.728	1	10
647.914	1	-8
649.101	1	1
650.288	1	14
651.474	1	1
652.661	1	6
653.847	1	5
655.034	1	5
656.220	1	0
657.406	1	6
658.593	1	1
659.779	1	-1
660.965	1	4
662.152	1	0
663.338	1	3
664.524	1	3
665.710	1	9
666.896	1	8
668.082	1	4
669.268	1	7
670.454	1	-1
671.640	1	-7
672.826	1	-4
674.011	1	-2
675.197	1	-5
676.383	1	8
677.569	1	5
678.754	1	5
679.940	1	5
681.125	1	8
682.311	1	-12
683.496	1	-4
684.682	1	0
685.867	1	0
687.053	1	1
688.238	1	11
688.746	1	2