File: Data/GaN_130K_350ms/GaN_sample F_spot6_UVVIS_130 K_200um_350 ms 2x2mm1_128.txt
340.368	1	11
341.565	1	1
342.763	1	10
343.960	1	-8
345.157	1	-9
346.354	1	10
347.552	1	5
348.749	1	12
349.946	1	7
351.143	1	6
352.340	1	13
353.537	1	-2
354.734	1	4
355.931	1	7
357.127	1	7
358.324	1	5
359.521	1	4
360.718	1	19
361.914	1	20
363.111	1	32
364.308	1	36
365.504	1	53
366.701	1	51
367.897	1	56
369.093	1	51
370.290	1	56
371.486	1	40
372.682	1	36
373.879	1	40
375.075	1	39
376.271	1	18
377.467	1	30
378.663	1	25
379.859	1	10
381.055	1	21
382.251	1	20
383.447	1	20
384.643	1	10
385.839	1	17
387.035	1	22
388.230	1	11
389.426	1	15
390.622	1	12
391.817	1	16
393.013	1	10
394.208	1	9
395.404	1	0
396.599	1	18
397.795	1	7
398.990	1	7
400.186	1	11
401.381	1	9
402.576	1	8
403.771	1	14
404.967	1	9
406.162	1	-3
407.357	1	17
408.552	1	3
409.747	1	6
410.942	1	9
412.137	1	2
413.332	1	8
414.526	1	7
415.721	1	2
416.916	1	2
418.111	1	12
419.305	1	3
420.500	1	12
421.695	1	3
422.889	1	7
424.084	1	11
425.278	1	4
426.472	1	12
427.667	1	5
428.861	1	-6
430.055	1	15
431.250	1	15
432.444	1	9
433.638	1	1
434.832	1	3
436.026	1	3
437.220	1	5
438.414	1	-3
439.608	1	11
440.802	1	-4
441.996	1	11
443.190	1	2
444.384	1	3
445.578	1	9
446.771	1	5
447.965	1	10
449.159	1	10
450.352	1	14
451.546	1	14
452.739	1	14
453.933	1	-2
455.126	1	-1
456.320	1	-1
457.513	1	1
458.706	1	7
459.899	1	4
461.093	1	18
462.286	1	21
463.479	1	16
464.672	1	10
465.865	1	0
467.058	1	7
468.251	1	7
469.444	1	10
470.637	1	11
471.830	1	6
473.023	1	12
474.215	1	11
475.408	1	2
476.601	1	1
477.793	1	0
478.986	1	-1
480.179	1	2
481.371	1	13
482.564	1	2
483.756	1	-2
484.948	1	0
486.141	1	-1
487.333	1	4
488.525	1	7
489.718	1	13
490.910	1	1
492.102	1	9
493.294	1	10
494.486	1	26
495.678	1	7
496.870	1	8
498.062	1	15
499.254	1	24
500.446	1	12
501.638	1	10
502.829	1	5
504.021	1	9
505.213	1	10
506.404	1	12
507.596	1	7
508.788	1	12
509.979	1	23
511.171	1	17
512.362	1	8
513.553	1	24
514.745	1	25
515.936	1	25
517.127	1	18
518.319	1	8
519.510	1	17
520.701	1	20
521.892	1	27
523.083	1	18
524.274	1	18
525.465	1	27
526.656	1	21
527.847	1	20
529.038	1	15
530.229	1	33
531.419	1	24
532.610	1	21
533.801	1	38
534.991	1	14
536.182	1	30
537.373	1	20
538.563	1	21
539.754	1	24
540.944	1	11
542.134	1	14
543.325	1	12
544.515	1	11
545.705	1	17
546.896	1	31
548.086	1	5
549.276	1	6
550.466	1	19
551.656	1	29
552.846	1	5
554.036	1	19
555.226	1	16
556.416	1	19
557.606	1	18
558.796	1	23
559.986	1	16
561.175	1	18
562.365	1	7
563.555	1	22
564.744	1	19
565.934	1	8
567.123	1	15
568.313	1	6
569.502	1	11
570.692	1	16
571.881	1	13
573.070	1	6
574.260	1	8
575.449	1	9
576.638	1	1
577.827	1	1
579.016	1	14
580.205	1	0
581.394	1	8
582.583	1	21
583.772	1	4
584.961	1	2
586.150	1	14
587.339	1	7
588.528	1	13
589.717	1	-7
590.905	1	16
592.094	1	3
593.283	1	-7
594.471	1	6
595.660	1	7
596.848	1	12
598.037	1	7
599.225	1	6
600.413	1	13
601.602	1	-4
602.790	1	4
603.978	1	9
605.166	1	5
606.355	1	11
607.543	1	4
608.731	1	7
609.919	1	0
611.107	1	14
612.295	1	11
613.483	1	-6
614.671	1	0
615.858	1	2
617.046	1	6
618.234	1	7
619.422	1	3
620.609	1	0
621.797	1	-3
622.985	1	10
624.172	1	10
625.360	1	6
626.547	1	10
627.735	1	8
628.922	1	-7
630.109	1	10
631.297	1	2
632.484	1	-9
633.671	1	1
634.858	1	11
636.045	1	13
637.232	1	1
638.419	1	14
639.606	1	3
640.793	1	-7
641.980	1	4
643.167	1	7
644.354	1	0
645.541	1	3
646.728	1	16
647.914	1	-3
649.101	1	3
650.288	1	10
651.474	1	-1
652.661	1	0
653.847	1	1
655.034	1	3
656.220	1	5
657.406	1	7
658.593	1	6
659.779	1	1
660.965	1	0
662.152	1	1
663.338	1	-2
664.524	1	-2
665.710	1	7
666.896	1	6
668.082	1	11
669.268	1	-3
670.454	1	13
671.640	1	1
672.826	1	-1
674.011	1	5
675.197	1	-2
676.383	1	6
677.569	1	-4
678.754	1	4
679.940	1	7
681.125	1	9
682.311	1	-1
683.496	1	2
684.682	1	8
685.867	1	6
687.053	1	11
688.238	1	10
688.746	1	9