File: Data/GaN_130K_350ms/GaN_sample F_spot6_UVVIS_130 K_200um_350 ms 2x2mm1_180.txt
340.368	1	9
341.565	1	5
342.763	1	3
343.960	1	-9
345.157	1	-19
346.354	1	3
347.552	1	1
348.749	1	6
349.946	1	7
351.143	1	3
352.340	1	11
353.537	1	2
354.734	1	2
355.931	1	14
357.127	1	16
358.324	1	1
359.521	1	4
360.718	1	9
361.914	1	9
363.111	1	20
364.308	1	21
365.504	1	18
366.701	1	24
367.897	1	24
369.093	1	27
370.290	1	38
371.486	1	22
372.682	1	16
373.879	1	27
375.075	1	10
376.271	1	11
377.467	1	5
378.663	1	6
379.859	1	13
381.055	1	0
382.251	1	2
383.447	1	11
384.643	1	13
385.839	1	8
387.035	1	12
388.230	1	0
389.426	1	12
390.622	1	9
391.817	1	15
393.013	1	5
394.208	1	0
395.404	1	-8
396.599	1	6
397.795	1	0
398.990	1	5
400.186	1	-2
401.381	1	-1
402.576	1	10
403.771	1	9
404.967	1	4
406.162	1	-4
407.357	1	3
408.552	1	7
409.747	1	7
410.942	1	-1
412.137	1	-1
413.332	1	-1
414.526	1	13
415.721	1	1
416.916	1	1
418.111	1	11
419.305	1	-5
420.500	1	15
421.695	1	2
422.889	1	-1
424.084	1	14
425.278	1	6
426.472	1	4
427.667	1	12
428.861	1	6
430.055	1	-1
431.250	1	22
432.444	1	6
433.638	1	7
434.832	1	1
436.026	1	6
437.220	1	7
438.414	1	-10
439.608	1	9
440.802	1	0
441.996	1	13
443.190	1	5
444.384	1	-7
445.578	1	-2
446.771	1	7
447.965	1	-3
449.159	1	13
450.352	1	16
451.546	1	16
452.739	1	9
453.933	1	6
455.126	1	1
456.320	1	3
457.513	1	4
458.706	1	5
459.899	1	-1
461.093	1	19
462.286	1	10
463.479	1	8
464.672	1	13
465.865	1	-2
467.058	1	5
468.251	1	10
469.444	1	-4
470.637	1	6
471.830	1	4
473.023	1	11
474.215	1	4
475.408	1	7
476.601	1	-9
477.793	1	5
478.986	1	8
480.179	1	2
481.371	1	11
482.564	1	-1
483.756	1	10
484.948	1	3
486.141	1	4
487.333	1	1
488.525	1	9
489.718	1	8
490.910	1	0
492.102	1	14
493.294	1	4
494.486	1	16
495.678	1	3
496.870	1	-1
498.062	1	0
499.254	1	6
500.446	1	7
501.638	1	6
502.829	1	5
504.021	1	0
505.213	1	5
506.404	1	16
507.596	1	-2
508.788	1	16
509.979	1	7
511.171	1	14
512.362	1	1
513.553	1	9
514.745	1	4
515.936	1	16
517.127	1	11
518.319	1	8
519.510	1	-2
520.701	1	10
521.892	1	16
523.083	1	7
524.274	1	0
525.465	1	4
526.656	1	15
527.847	1	6
529.038	1	-2
530.229	1	10
531.419	1	8
532.610	1	7
533.801	1	19
534.991	1	-3
536.182	1	21
537.373	1	7
538.563	1	20
539.754	1	6
540.944	1	6
542.134	1	5
543.325	1	10
544.515	1	3
545.705	1	5
546.896	1	11
548.086	1	1
549.276	1	3
550.466	1	22
551.656	1	13
552.846	1	1
554.036	1	13
555.226	1	5
556.416	1	11
557.606	1	11
558.796	1	17
559.986	1	17
561.175	1	14
562.365	1	7
563.555	1	18
564.744	1	11
565.934	1	9
567.123	1	3
568.313	1	-3
569.502	1	0
570.692	1	10
571.881	1	-2
573.070	1	8
574.260	1	7
575.449	1	6
576.638	1	1
577.827	1	1
579.016	1	5
580.205	1	-9
581.394	1	10
582.583	1	8
583.772	1	8
584.961	1	-2
586.150	1	9
587.339	1	2
588.528	1	11
589.717	1	4
590.905	1	8
592.094	1	-3
593.283	1	-4
594.471	1	2
595.660	1	10
596.848	1	6
598.037	1	11
599.225	1	-5
600.413	1	0
601.602	1	4
602.790	1	-6
603.978	1	-3
605.166	1	5
606.355	1	11
607.543	1	-4
608.731	1	8
609.919	1	7
611.107	1	7
612.295	1	7
613.483	1	-4
614.671	1	1
615.858	1	2
617.046	1	5
618.234	1	-1
619.422	1	-10
620.609	1	0
621.797	1	-6
622.985	1	8
624.172	1	4
625.360	1	-5
626.547	1	4
627.735	1	13
628.922	1	-4
630.109	1	7
631.297	1	2
632.484	1	2
633.671	1	-4
634.858	1	7
636.045	1	12
637.232	1	-13
638.419	1	4
639.606	1	4
640.793	1	1
641.980	1	-7
643.167	1	-5
644.354	1	-3
645.541	1	9
646.728	1	13
647.914	1	-1
649.101	1	3
650.288	1	1
651.474	1	-1
652.661	1	-10
653.847	1	4
655.034	1	6
656.220	1	-2
657.406	1	2
658.593	1	1
659.779	1	7
660.965	1	3
662.152	1	2
663.338	1	4
664.524	1	-4
665.710	1	-1
666.896	1	10
668.082	1	7
669.268	1	2
670.454	1	3
671.640	1	-2
672.826	1	1
674.011	1	3
675.197	1	-5
676.383	1	3
677.569	1	8
678.754	1	2
679.940	1	-4
681.125	1	7
682.311	1	-5
683.496	1	-1
684.682	1	-10
685.867	1	7
687.053	1	1
688.238	1	6
688.746	1	4