File: Data/GaN_130K_350ms/GaN_sample F_spot6_UVVIS_130 K_200um_350 ms 2x2mm1_121.txt
340.368	1	7
341.565	1	7
342.763	1	2
343.960	1	-12
345.157	1	-1
346.354	1	14
347.552	1	5
348.749	1	8
349.946	1	10
351.143	1	8
352.340	1	17
353.537	1	-1
354.734	1	11
355.931	1	9
357.127	1	2
358.324	1	7
359.521	1	13
360.718	1	28
361.914	1	27
363.111	1	38
364.308	1	50
365.504	1	53
366.701	1	62
367.897	1	65
369.093	1	66
370.290	1	64
371.486	1	50
372.682	1	46
373.879	1	32
375.075	1	44
376.271	1	40
377.467	1	36
378.663	1	19
379.859	1	20
381.055	1	13
382.251	1	13
383.447	1	19
384.643	1	16
385.839	1	24
387.035	1	24
388.230	1	10
389.426	1	17
390.622	1	9
391.817	1	15
393.013	1	12
394.208	1	5
395.404	1	-1
396.599	1	13
397.795	1	8
398.990	1	3
400.186	1	5
401.381	1	8
402.576	1	9
403.771	1	12
404.967	1	14
406.162	1	4
407.357	1	2
408.552	1	12
409.747	1	7
410.942	1	3
412.137	1	7
413.332	1	2
414.526	1	0
415.721	1	4
416.916	1	3
418.111	1	23
419.305	1	5
420.500	1	10
421.695	1	9
422.889	1	12
424.084	1	15
425.278	1	7
426.472	1	9
427.667	1	-1
428.861	1	3
430.055	1	6
431.250	1	9
432.444	1	10
433.638	1	6
434.832	1	7
436.026	1	11
437.220	1	1
438.414	1	-8
439.608	1	14
440.802	1	-4
441.996	1	12
443.190	1	11
444.384	1	6
445.578	1	3
446.771	1	18
447.965	1	8
449.159	1	11
450.352	1	8
451.546	1	5
452.739	1	11
453.933	1	11
455.126	1	-2
456.320	1	5
457.513	1	-7
458.706	1	14
459.899	1	2
461.093	1	16
462.286	1	10
463.479	1	14
464.672	1	6
465.865	1	-2
467.058	1	4
468.251	1	14
469.444	1	7
470.637	1	10
471.830	1	2
473.023	1	13
474.215	1	8
475.408	1	6
476.601	1	3
477.793	1	5
478.986	1	0
480.179	1	8
481.371	1	8
482.564	1	7
483.756	1	9
484.948	1	1
486.141	1	1
487.333	1	4
488.525	1	9
489.718	1	16
490.910	1	-3
492.102	1	11
493.294	1	12
494.486	1	23
495.678	1	2
496.870	1	9
498.062	1	4
499.254	1	14
500.446	1	11
501.638	1	13
502.829	1	13
504.021	1	16
505.213	1	25
506.404	1	12
507.596	1	18
508.788	1	25
509.979	1	22
511.171	1	19
512.362	1	17
513.553	1	27
514.745	1	24
515.936	1	25
517.127	1	22
518.319	1	17
519.510	1	21
520.701	1	16
521.892	1	26
523.083	1	16
524.274	1	10
525.465	1	30
526.656	1	29
527.847	1	22
529.038	1	16
530.229	1	29
531.419	1	36
532.610	1	20
533.801	1	37
534.991	1	22
536.182	1	26
537.373	1	24
538.563	1	34
539.754	1	17
540.944	1	39
542.134	1	25
543.325	1	19
544.515	1	28
545.705	1	25
546.896	1	25
548.086	1	20
549.276	1	21
550.466	1	31
551.656	1	17
552.846	1	22
554.036	1	17
555.226	1	17
556.416	1	21
557.606	1	14
558.796	1	26
559.986	1	12
561.175	1	15
562.365	1	24
563.555	1	21
564.744	1	3
565.934	1	18
567.123	1	11
568.313	1	10
569.502	1	5
570.692	1	14
571.881	1	9
573.070	1	17
574.260	1	16
575.449	1	16
576.638	1	4
577.827	1	-1
579.016	1	11
580.205	1	7
581.394	1	7
582.583	1	19
583.772	1	11
584.961	1	4
586.150	1	12
587.339	1	10
588.528	1	20
589.717	1	7
590.905	1	11
592.094	1	6
593.283	1	4
594.471	1	7
595.660	1	5
596.848	1	6
598.037	1	8
599.225	1	5
600.413	1	17
601.602	1	4
602.790	1	1
603.978	1	3
605.166	1	18
606.355	1	12
607.543	1	0
608.731	1	5
609.919	1	18
611.107	1	5
612.295	1	9
613.483	1	-1
614.671	1	4
615.858	1	-10
617.046	1	8
618.234	1	4
619.422	1	10
620.609	1	-4
621.797	1	4
622.985	1	6
624.172	1	2
625.360	1	11
626.547	1	5
627.735	1	10
628.922	1	7
630.109	1	10
631.297	1	-8
632.484	1	2
633.671	1	-4
634.858	1	6
636.045	1	22
637.232	1	-2
638.419	1	1
639.606	1	10
640.793	1	-11
641.980	1	3
643.167	1	11
644.354	1	-3
645.541	1	0
646.728	1	5
647.914	1	-6
649.101	1	0
650.288	1	11
651.474	1	-6
652.661	1	1
653.847	1	16
655.034	1	2
656.220	1	2
657.406	1	4
658.593	1	3
659.779	1	2
660.965	1	-1
662.152	1	2
663.338	1	4
664.524	1	2
665.710	1	2
666.896	1	1
668.082	1	4
669.268	1	8
670.454	1	-4
671.640	1	-10
672.826	1	9
674.011	1	11
675.197	1	-2
676.383	1	11
677.569	1	-6
678.754	1	5
679.940	1	4
681.125	1	11
682.311	1	-4
683.496	1	0
684.682	1	3
685.867	1	2
687.053	1	5
688.238	1	10
688.746	1	18