File: Data/GaN_130K_350ms/GaN_sample F_spot6_UVVIS_130 K_200um_350 ms 2x2mm1_132.txt
340.368	1	-1
341.565	1	1
342.763	1	7
343.960	1	-3
345.157	1	-9
346.354	1	9
347.552	1	5
348.749	1	3
349.946	1	11
351.143	1	-6
352.340	1	13
353.537	1	0
354.734	1	-1
355.931	1	5
357.127	1	11
358.324	1	5
359.521	1	5
360.718	1	20
361.914	1	13
363.111	1	21
364.308	1	39
365.504	1	49
366.701	1	57
367.897	1	52
369.093	1	51
370.290	1	44
371.486	1	48
372.682	1	42
373.879	1	37
375.075	1	34
376.271	1	24
377.467	1	26
378.663	1	18
379.859	1	20
381.055	1	14
382.251	1	8
383.447	1	21
384.643	1	25
385.839	1	12
387.035	1	21
388.230	1	12
389.426	1	10
390.622	1	17
391.817	1	31
393.013	1	16
394.208	1	2
395.404	1	-2
396.599	1	16
397.795	1	-3
398.990	1	-3
400.186	1	2
401.381	1	7
402.576	1	13
403.771	1	17
404.967	1	8
406.162	1	-3
407.357	1	14
408.552	1	5
409.747	1	7
410.942	1	5
412.137	1	7
413.332	1	-5
414.526	1	9
415.721	1	8
416.916	1	8
418.111	1	13
419.305	1	0
420.500	1	10
421.695	1	5
422.889	1	15
424.084	1	12
425.278	1	5
426.472	1	7
427.667	1	6
428.861	1	1
430.055	1	1
431.250	1	16
432.444	1	9
433.638	1	2
434.832	1	-2
436.026	1	8
437.220	1	6
438.414	1	-3
439.608	1	17
440.802	1	-5
441.996	1	15
443.190	1	-2
444.384	1	3
445.578	1	-1
446.771	1	4
447.965	1	6
449.159	1	7
450.352	1	5
451.546	1	8
452.739	1	11
453.933	1	13
455.126	1	1
456.320	1	5
457.513	1	-5
458.706	1	11
459.899	1	2
461.093	1	5
462.286	1	10
463.479	1	12
464.672	1	5
465.865	1	0
467.058	1	7
468.251	1	-3
469.444	1	3
470.637	1	10
471.830	1	3
473.023	1	6
474.215	1	8
475.408	1	2
476.601	1	-2
477.793	1	9
478.986	1	2
480.179	1	-1
481.371	1	13
482.564	1	8
483.756	1	3
484.948	1	8
486.141	1	6
487.333	1	-1
488.525	1	9
489.718	1	5
490.910	1	2
492.102	1	20
493.294	1	17
494.486	1	18
495.678	1	14
496.870	1	5
498.062	1	-2
499.254	1	9
500.446	1	9
501.638	1	6
502.829	1	0
504.021	1	4
505.213	1	17
506.404	1	20
507.596	1	15
508.788	1	11
509.979	1	8
511.171	1	16
512.362	1	10
513.553	1	16
514.745	1	12
515.936	1	23
517.127	1	22
518.319	1	8
519.510	1	17
520.701	1	19
521.892	1	20
523.083	1	21
524.274	1	13
525.465	1	21
526.656	1	26
527.847	1	19
529.038	1	24
530.229	1	20
531.419	1	27
532.610	1	20
533.801	1	32
534.991	1	14
536.182	1	15
537.373	1	18
538.563	1	31
539.754	1	17
540.944	1	20
542.134	1	12
543.325	1	18
544.515	1	18
545.705	1	17
546.896	1	20
548.086	1	12
549.276	1	9
550.466	1	20
551.656	1	21
552.846	1	10
554.036	1	19
555.226	1	12
556.416	1	28
557.606	1	18
558.796	1	28
559.986	1	17
561.175	1	19
562.365	1	18
563.555	1	22
564.744	1	12
565.934	1	9
567.123	1	1
568.313	1	11
569.502	1	17
570.692	1	8
571.881	1	12
573.070	1	11
574.260	1	8
575.449	1	5
576.638	1	4
577.827	1	2
579.016	1	7
580.205	1	-2
581.394	1	5
582.583	1	15
583.772	1	8
584.961	1	2
586.150	1	16
587.339	1	0
588.528	1	10
589.717	1	10
590.905	1	6
592.094	1	3
593.283	1	-2
594.471	1	7
595.660	1	11
596.848	1	13
598.037	1	4
599.225	1	5
600.413	1	9
601.602	1	5
602.790	1	4
603.978	1	0
605.166	1	12
606.355	1	10
607.543	1	6
608.731	1	3
609.919	1	6
611.107	1	3
612.295	1	16
613.483	1	0
614.671	1	4
615.858	1	1
617.046	1	3
618.234	1	9
619.422	1	9
620.609	1	1
621.797	1	2
622.985	1	2
624.172	1	4
625.360	1	4
626.547	1	9
627.735	1	13
628.922	1	-8
630.109	1	6
631.297	1	-1
632.484	1	2
633.671	1	-8
634.858	1	14
636.045	1	13
637.232	1	-3
638.419	1	-3
639.606	1	3
640.793	1	-6
641.980	1	0
643.167	1	0
644.354	1	0
645.541	1	-6
646.728	1	8
647.914	1	-3
649.101	1	1
650.288	1	-1
651.474	1	-5
652.661	1	-3
653.847	1	-6
655.034	1	4
656.220	1	1
657.406	1	8
658.593	1	1
659.779	1	6
660.965	1	-3
662.152	1	4
663.338	1	6
664.524	1	-3
665.710	1	7
666.896	1	7
668.082	1	3
669.268	1	5
670.454	1	6
671.640	1	-5
672.826	1	12
674.011	1	5
675.197	1	-3
676.383	1	8
677.569	1	-1
678.754	1	4
679.940	1	-4
681.125	1	16
682.311	1	1
683.496	1	0
684.682	1	-2
685.867	1	9
687.053	1	-2
688.238	1	14
688.746	1	10