File: Data/GaN_130K_350ms/GaN_sample F_spot6_UVVIS_130 K_200um_350 ms 2x2mm1_137.txt
340.368	1	3
341.565	1	0
342.763	1	4
343.960	1	-9
345.157	1	-3
346.354	1	-1
347.552	1	-5
348.749	1	10
349.946	1	9
351.143	1	6
352.340	1	15
353.537	1	5
354.734	1	9
355.931	1	3
357.127	1	4
358.324	1	-3
359.521	1	9
360.718	1	13
361.914	1	18
363.111	1	27
364.308	1	21
365.504	1	38
366.701	1	37
367.897	1	42
369.093	1	37
370.290	1	44
371.486	1	38
372.682	1	27
373.879	1	32
375.075	1	27
376.271	1	24
377.467	1	25
378.663	1	19
379.859	1	11
381.055	1	4
382.251	1	15
383.447	1	10
384.643	1	15
385.839	1	8
387.035	1	25
388.230	1	7
389.426	1	20
390.622	1	12
391.817	1	14
393.013	1	15
394.208	1	1
395.404	1	0
396.599	1	12
397.795	1	4
398.990	1	10
400.186	1	-2
401.381	1	14
402.576	1	4
403.771	1	12
404.967	1	1
406.162	1	2
407.357	1	8
408.552	1	-1
409.747	1	8
410.942	1	9
412.137	1	8
413.332	1	0
414.526	1	11
415.721	1	3
416.916	1	4
418.111	1	10
419.305	1	13
420.500	1	15
421.695	1	8
422.889	1	7
424.084	1	7
425.278	1	2
426.472	1	8
427.667	1	6
428.861	1	5
430.055	1	3
431.250	1	18
432.444	1	16
433.638	1	3
434.832	1	1
436.026	1	7
437.220	1	-10
438.414	1	8
439.608	1	9
440.802	1	-4
441.996	1	11
443.190	1	3
444.384	1	5
445.578	1	0
446.771	1	-2
447.965	1	10
449.159	1	5
450.352	1	13
451.546	1	8
452.739	1	6
453.933	1	-2
455.126	1	-7
456.320	1	0
457.513	1	1
458.706	1	6
459.899	1	2
461.093	1	9
462.286	1	15
463.479	1	5
464.672	1	16
465.865	1	-2
467.058	1	8
468.251	1	5
469.444	1	4
470.637	1	7
471.830	1	1
473.023	1	7
474.215	1	0
475.408	1	12
476.601	1	-1
477.793	1	-2
478.986	1	-6
480.179	1	9
481.371	1	9
482.564	1	4
483.756	1	10
484.948	1	0
486.141	1	4
487.333	1	0
488.525	1	6
489.718	1	13
490.910	1	0
492.102	1	5
493.294	1	7
494.486	1	20
495.678	1	-1
496.870	1	11
498.062	1	10
499.254	1	18
500.446	1	0
501.638	1	1
502.829	1	11
504.021	1	9
505.213	1	15
506.404	1	10
507.596	1	7
508.788	1	18
509.979	1	8
511.171	1	16
512.362	1	11
513.553	1	19
514.745	1	1
515.936	1	20
517.127	1	14
518.319	1	11
519.510	1	15
520.701	1	16
521.892	1	30
523.083	1	13
524.274	1	17
525.465	1	18
526.656	1	16
527.847	1	16
529.038	1	2
530.229	1	24
531.419	1	22
532.610	1	11
533.801	1	31
534.991	1	17
536.182	1	26
537.373	1	14
538.563	1	12
539.754	1	5
540.944	1	16
542.134	1	9
543.325	1	14
544.515	1	18
545.705	1	9
546.896	1	14
548.086	1	10
549.276	1	-1
550.466	1	11
551.656	1	16
552.846	1	12
554.036	1	18
555.226	1	17
556.416	1	20
557.606	1	20
558.796	1	22
559.986	1	7
561.175	1	20
562.365	1	12
563.555	1	25
564.744	1	13
565.934	1	1
567.123	1	16
568.313	1	9
569.502	1	6
570.692	1	11
571.881	1	1
573.070	1	8
574.260	1	17
575.449	1	-1
576.638	1	4
577.827	1	-8
579.016	1	13
580.205	1	1
581.394	1	4
582.583	1	12
583.772	1	12
584.961	1	9
586.150	1	9
587.339	1	-1
588.528	1	1
589.717	1	1
590.905	1	22
592.094	1	6
593.283	1	-3
594.471	1	4
595.660	1	13
596.848	1	13
598.037	1	8
599.225	1	6
600.413	1	6
601.602	1	6
602.790	1	1
603.978	1	15
605.166	1	21
606.355	1	10
607.543	1	7
608.731	1	6
609.919	1	13
611.107	1	6
612.295	1	14
613.483	1	5
614.671	1	11
615.858	1	-3
617.046	1	5
618.234	1	1
619.422	1	2
620.609	1	5
621.797	1	3
622.985	1	9
624.172	1	5
625.360	1	8
626.547	1	4
627.735	1	12
628.922	1	0
630.109	1	12
631.297	1	5
632.484	1	-5
633.671	1	-2
634.858	1	16
636.045	1	21
637.232	1	-1
638.419	1	7
639.606	1	6
640.793	1	-3
641.980	1	2
643.167	1	8
644.354	1	-5
645.541	1	6
646.728	1	4
647.914	1	-5
649.101	1	7
650.288	1	8
651.474	1	-7
652.661	1	-9
653.847	1	-6
655.034	1	6
656.220	1	-3
657.406	1	-3
658.593	1	4
659.779	1	1
660.965	1	-2
662.152	1	6
663.338	1	-6
664.524	1	0
665.710	1	13
666.896	1	6
668.082	1	8
669.268	1	-4
670.454	1	-3
671.640	1	-4
672.826	1	7
674.011	1	-4
675.197	1	-4
676.383	1	5
677.569	1	-2
678.754	1	4
679.940	1	1
681.125	1	16
682.311	1	-3
683.496	1	1
684.682	1	2
685.867	1	3
687.053	1	6
688.238	1	15
688.746	1	15