File: Data/GaN_130K_350ms/GaN_sample F_spot6_UVVIS_130 K_200um_350 ms 2x2mm1_255.txt
340.368	1	6
341.565	1	-1
342.763	1	-1
343.960	1	-13
345.157	1	-11
346.354	1	0
347.552	1	0
348.749	1	6
349.946	1	1
351.143	1	2
352.340	1	13
353.537	1	2
354.734	1	-3
355.931	1	1
357.127	1	9
358.324	1	-6
359.521	1	-3
360.718	1	5
361.914	1	6
363.111	1	6
364.308	1	13
365.504	1	13
366.701	1	8
367.897	1	15
369.093	1	11
370.290	1	8
371.486	1	12
372.682	1	5
373.879	1	12
375.075	1	14
376.271	1	11
377.467	1	13
378.663	1	9
379.859	1	6
381.055	1	5
382.251	1	3
383.447	1	13
384.643	1	7
385.839	1	-4
387.035	1	16
388.230	1	0
389.426	1	9
390.622	1	-3
391.817	1	3
393.013	1	4
394.208	1	-6
395.404	1	-1
396.599	1	6
397.795	1	-6
398.990	1	2
400.186	1	-3
401.381	1	8
402.576	1	3
403.771	1	5
404.967	1	-4
406.162	1	1
407.357	1	0
408.552	1	5
409.747	1	-4
410.942	1	0
412.137	1	-1
413.332	1	-5
414.526	1	2
415.721	1	8
416.916	1	-2
418.111	1	3
419.305	1	8
420.500	1	0
421.695	1	3
422.889	1	1
424.084	1	13
425.278	1	0
426.472	1	-1
427.667	1	13
428.861	1	-1
430.055	1	5
431.250	1	20
432.444	1	11
433.638	1	9
434.832	1	6
436.026	1	8
437.220	1	1
438.414	1	-1
439.608	1	14
440.802	1	-5
441.996	1	6
443.190	1	0
444.384	1	-10
445.578	1	-4
446.771	1	3
447.965	1	-1
449.159	1	-5
450.352	1	1
451.546	1	11
452.739	1	-1
453.933	1	1
455.126	1	-4
456.320	1	5
457.513	1	2
458.706	1	3
459.899	1	-1
461.093	1	9
462.286	1	4
463.479	1	13
464.672	1	5
465.865	1	-9
467.058	1	2
468.251	1	2
469.444	1	-1
470.637	1	7
471.830	1	0
473.023	1	3
474.215	1	3
475.408	1	4
476.601	1	5
477.793	1	7
478.986	1	-7
480.179	1	-1
481.371	1	1
482.564	1	-2
483.756	1	3
484.948	1	-3
486.141	1	8
487.333	1	-4
488.525	1	5
489.718	1	1
490.910	1	-2
492.102	1	8
493.294	1	4
494.486	1	13
495.678	1	-5
496.870	1	3
498.062	1	-6
499.254	1	2
500.446	1	8
501.638	1	1
502.829	1	3
504.021	1	0
505.213	1	4
506.404	1	-3
507.596	1	1
508.788	1	0
509.979	1	0
511.171	1	5
512.362	1	3
513.553	1	7
514.745	1	6
515.936	1	16
517.127	1	3
518.319	1	3
519.510	1	-6
520.701	1	-2
521.892	1	5
523.083	1	-2
524.274	1	-4
525.465	1	8
526.656	1	13
527.847	1	5
529.038	1	-3
530.229	1	5
531.419	1	2
532.610	1	-1
533.801	1	17
534.991	1	1
536.182	1	7
537.373	1	1
538.563	1	12
539.754	1	-7
540.944	1	9
542.134	1	4
543.325	1	3
544.515	1	0
545.705	1	5
546.896	1	-1
548.086	1	1
549.276	1	2
550.466	1	14
551.656	1	11
552.846	1	-9
554.036	1	9
555.226	1	2
556.416	1	5
557.606	1	0
558.796	1	5
559.986	1	5
561.175	1	5
562.365	1	11
563.555	1	4
564.744	1	-1
565.934	1	10
567.123	1	5
568.313	1	-6
569.502	1	7
570.692	1	7
571.881	1	9
573.070	1	-2
574.260	1	7
575.449	1	6
576.638	1	-4
577.827	1	-5
579.016	1	8
580.205	1	-7
581.394	1	-2
582.583	1	5
583.772	1	4
584.961	1	-7
586.150	1	5
587.339	1	1
588.528	1	10
589.717	1	-1
590.905	1	8
592.094	1	-4
593.283	1	-7
594.471	1	4
595.660	1	2
596.848	1	-2
598.037	1	5
599.225	1	-1
600.413	1	11
601.602	1	-1
602.790	1	11
603.978	1	1
605.166	1	10
606.355	1	9
607.543	1	-4
608.731	1	9
609.919	1	9
611.107	1	4
612.295	1	13
613.483	1	7
614.671	1	3
615.858	1	-4
617.046	1	9
618.234	1	0
619.422	1	-1
620.609	1	-5
621.797	1	5
622.985	1	-3
624.172	1	3
625.360	1	6
626.547	1	1
627.735	1	7
628.922	1	3
630.109	1	9
631.297	1	0
632.484	1	-10
633.671	1	-10
634.858	1	0
636.045	1	14
637.232	1	-5
638.419	1	2
639.606	1	7
640.793	1	-9
641.980	1	2
643.167	1	2
644.354	1	-4
645.541	1	1
646.728	1	3
647.914	1	-5
649.101	1	-2
650.288	1	10
651.474	1	-2
652.661	1	6
653.847	1	4
655.034	1	-10
656.220	1	-7
657.406	1	8
658.593	1	-1
659.779	1	0
660.965	1	2
662.152	1	-3
663.338	1	-9
664.524	1	2
665.710	1	1
666.896	1	6
668.082	1	2
669.268	1	-3
670.454	1	3
671.640	1	-14
672.826	1	12
674.011	1	2
675.197	1	4
676.383	1	13
677.569	1	1
678.754	1	11
679.940	1	-9
681.125	1	7
682.311	1	-5
683.496	1	-1
684.682	1	5
685.867	1	-5
687.053	1	4
688.238	1	11
688.746	1	3