File: Data/GaN_130K_350ms/GaN_sample F_spot6_UVVIS_130 K_200um_350 ms 2x2mm1_222.txt
340.368	1	3
341.565	1	-1
342.763	1	7
343.960	1	0
345.157	1	-12
346.354	1	1
347.552	1	3
348.749	1	-1
349.946	1	10
351.143	1	5
352.340	1	12
353.537	1	-3
354.734	1	-4
355.931	1	6
357.127	1	7
358.324	1	0
359.521	1	4
360.718	1	12
361.914	1	8
363.111	1	20
364.308	1	21
365.504	1	12
366.701	1	13
367.897	1	7
369.093	1	17
370.290	1	26
371.486	1	11
372.682	1	10
373.879	1	28
375.075	1	16
376.271	1	16
377.467	1	14
378.663	1	8
379.859	1	-1
381.055	1	8
382.251	1	3
383.447	1	9
384.643	1	11
385.839	1	6
387.035	1	4
388.230	1	5
389.426	1	10
390.622	1	4
391.817	1	12
393.013	1	5
394.208	1	5
395.404	1	-4
396.599	1	6
397.795	1	5
398.990	1	5
400.186	1	-4
401.381	1	7
402.576	1	7
403.771	1	2
404.967	1	4
406.162	1	-1
407.357	1	-1
408.552	1	-3
409.747	1	12
410.942	1	1
412.137	1	-10
413.332	1	1
414.526	1	-2
415.721	1	1
416.916	1	-2
418.111	1	12
419.305	1	-3
420.500	1	4
421.695	1	6
422.889	1	6
424.084	1	5
425.278	1	2
426.472	1	-3
427.667	1	12
428.861	1	7
430.055	1	4
431.250	1	19
432.444	1	11
433.638	1	5
434.832	1	5
436.026	1	9
437.220	1	1
438.414	1	2
439.608	1	9
440.802	1	-9
441.996	1	2
443.190	1	3
444.384	1	-3
445.578	1	2
446.771	1	10
447.965	1	-4
449.159	1	6
450.352	1	17
451.546	1	9
452.739	1	0
453.933	1	3
455.126	1	-2
456.320	1	-7
457.513	1	-8
458.706	1	9
459.899	1	-1
461.093	1	5
462.286	1	7
463.479	1	0
464.672	1	-1
465.865	1	-10
467.058	1	9
468.251	1	7
469.444	1	6
470.637	1	0
471.830	1	7
473.023	1	3
474.215	1	7
475.408	1	7
476.601	1	-8
477.793	1	7
478.986	1	1
480.179	1	-3
481.371	1	7
482.564	1	2
483.756	1	1
484.948	1	0
486.141	1	0
487.333	1	-4
488.525	1	6
489.718	1	6
490.910	1	5
492.102	1	4
493.294	1	7
494.486	1	19
495.678	1	2
496.870	1	-4
498.062	1	-3
499.254	1	17
500.446	1	8
501.638	1	2
502.829	1	-5
504.021	1	-2
505.213	1	12
506.404	1	-8
507.596	1	5
508.788	1	2
509.979	1	4
511.171	1	7
512.362	1	2
513.553	1	14
514.745	1	-2
515.936	1	16
517.127	1	6
518.319	1	0
519.510	1	12
520.701	1	8
521.892	1	8
523.083	1	5
524.274	1	-10
525.465	1	5
526.656	1	4
527.847	1	5
529.038	1	-4
530.229	1	11
531.419	1	3
532.610	1	1
533.801	1	19
534.991	1	6
536.182	1	13
537.373	1	13
538.563	1	11
539.754	1	0
540.944	1	8
542.134	1	0
543.325	1	4
544.515	1	2
545.705	1	4
546.896	1	12
548.086	1	8
549.276	1	-2
550.466	1	16
551.656	1	1
552.846	1	2
554.036	1	-2
555.226	1	15
556.416	1	3
557.606	1	5
558.796	1	10
559.986	1	10
561.175	1	5
562.365	1	5
563.555	1	5
564.744	1	1
565.934	1	11
567.123	1	5
568.313	1	4
569.502	1	4
570.692	1	12
571.881	1	-1
573.070	1	4
574.260	1	8
575.449	1	3
576.638	1	-2
577.827	1	-2
579.016	1	4
580.205	1	-4
581.394	1	2
582.583	1	6
583.772	1	5
584.961	1	-1
586.150	1	7
587.339	1	1
588.528	1	9
589.717	1	-5
590.905	1	8
592.094	1	5
593.283	1	-13
594.471	1	9
595.660	1	6
596.848	1	6
598.037	1	8
599.225	1	0
600.413	1	4
601.602	1	-5
602.790	1	-5
603.978	1	0
605.166	1	7
606.355	1	7
607.543	1	2
608.731	1	5
609.919	1	9
611.107	1	13
612.295	1	13
613.483	1	-4
614.671	1	8
615.858	1	-9
617.046	1	1
618.234	1	9
619.422	1	2
620.609	1	-6
621.797	1	-9
622.985	1	-6
624.172	1	-1
625.360	1	-1
626.547	1	2
627.735	1	15
628.922	1	-8
630.109	1	7
631.297	1	-3
632.484	1	-3
633.671	1	-7
634.858	1	6
636.045	1	11
637.232	1	-1
638.419	1	8
639.606	1	10
640.793	1	-10
641.980	1	-7
643.167	1	3
644.354	1	-7
645.541	1	0
646.728	1	-1
647.914	1	-10
649.101	1	-7
650.288	1	9
651.474	1	-3
652.661	1	8
653.847	1	5
655.034	1	-2
656.220	1	2
657.406	1	8
658.593	1	2
659.779	1	2
660.965	1	10
662.152	1	3
663.338	1	5
664.524	1	-8
665.710	1	1
666.896	1	9
668.082	1	5
669.268	1	1
670.454	1	-5
671.640	1	-6
672.826	1	1
674.011	1	1
675.197	1	-2
676.383	1	10
677.569	1	5
678.754	1	5
679.940	1	-6
681.125	1	3
682.311	1	-7
683.496	1	-3
684.682	1	2
685.867	1	-1
687.053	1	7
688.238	1	4
688.746	1	2