File: Data/GaN_130K_350ms/GaN_sample F_spot6_UVVIS_130 K_200um_350 ms 2x2mm1_149.txt
340.368	1	6
341.565	1	-10
342.763	1	6
343.960	1	-10
345.157	1	-10
346.354	1	5
347.552	1	8
348.749	1	-1
349.946	1	15
351.143	1	0
352.340	1	19
353.537	1	5
354.734	1	1
355.931	1	15
357.127	1	2
358.324	1	13
359.521	1	8
360.718	1	10
361.914	1	14
363.111	1	25
364.308	1	34
365.504	1	22
366.701	1	37
367.897	1	39
369.093	1	47
370.290	1	47
371.486	1	30
372.682	1	35
373.879	1	26
375.075	1	26
376.271	1	20
377.467	1	24
378.663	1	22
379.859	1	18
381.055	1	14
382.251	1	18
383.447	1	17
384.643	1	19
385.839	1	14
387.035	1	19
388.230	1	5
389.426	1	12
390.622	1	11
391.817	1	22
393.013	1	12
394.208	1	7
395.404	1	-2
396.599	1	23
397.795	1	6
398.990	1	-2
400.186	1	11
401.381	1	15
402.576	1	12
403.771	1	12
404.967	1	12
406.162	1	-4
407.357	1	9
408.552	1	-5
409.747	1	3
410.942	1	8
412.137	1	-2
413.332	1	7
414.526	1	9
415.721	1	7
416.916	1	8
418.111	1	5
419.305	1	8
420.500	1	14
421.695	1	10
422.889	1	7
424.084	1	12
425.278	1	3
426.472	1	11
427.667	1	15
428.861	1	4
430.055	1	-2
431.250	1	12
432.444	1	12
433.638	1	10
434.832	1	2
436.026	1	9
437.220	1	8
438.414	1	-7
439.608	1	15
440.802	1	0
441.996	1	12
443.190	1	10
444.384	1	3
445.578	1	-10
446.771	1	8
447.965	1	7
449.159	1	5
450.352	1	10
451.546	1	10
452.739	1	5
453.933	1	7
455.126	1	-4
456.320	1	-2
457.513	1	-5
458.706	1	9
459.899	1	-6
461.093	1	1
462.286	1	9
463.479	1	18
464.672	1	10
465.865	1	-8
467.058	1	6
468.251	1	11
469.444	1	-2
470.637	1	3
471.830	1	1
473.023	1	0
474.215	1	6
475.408	1	2
476.601	1	0
477.793	1	5
478.986	1	-7
480.179	1	2
481.371	1	9
482.564	1	-3
483.756	1	1
484.948	1	7
486.141	1	6
487.333	1	-6
488.525	1	7
489.718	1	11
490.910	1	-9
492.102	1	3
493.294	1	5
494.486	1	18
495.678	1	-2
496.870	1	11
498.062	1	1
499.254	1	10
500.446	1	17
501.638	1	7
502.829	1	7
504.021	1	7
505.213	1	12
506.404	1	18
507.596	1	3
508.788	1	5
509.979	1	2
511.171	1	18
512.362	1	14
513.553	1	17
514.745	1	11
515.936	1	19
517.127	1	10
518.319	1	12
519.510	1	8
520.701	1	6
521.892	1	24
523.083	1	19
524.274	1	6
525.465	1	16
526.656	1	12
527.847	1	14
529.038	1	-2
530.229	1	15
531.419	1	20
532.610	1	16
533.801	1	21
534.991	1	13
536.182	1	20
537.373	1	11
538.563	1	13
539.754	1	10
540.944	1	17
542.134	1	9
543.325	1	9
544.515	1	8
545.705	1	8
546.896	1	3
548.086	1	7
549.276	1	0
550.466	1	20
551.656	1	10
552.846	1	2
554.036	1	11
555.226	1	15
556.416	1	14
557.606	1	14
558.796	1	14
559.986	1	9
561.175	1	19
562.365	1	9
563.555	1	15
564.744	1	13
565.934	1	4
567.123	1	3
568.313	1	7
569.502	1	12
570.692	1	15
571.881	1	11
573.070	1	13
574.260	1	14
575.449	1	9
576.638	1	2
577.827	1	7
579.016	1	7
580.205	1	2
581.394	1	9
582.583	1	14
583.772	1	3
584.961	1	6
586.150	1	11
587.339	1	7
588.528	1	12
589.717	1	3
590.905	1	13
592.094	1	5
593.283	1	-8
594.471	1	6
595.660	1	7
596.848	1	7
598.037	1	12
599.225	1	1
600.413	1	14
601.602	1	3
602.790	1	6
603.978	1	4
605.166	1	10
606.355	1	13
607.543	1	1
608.731	1	3
609.919	1	8
611.107	1	3
612.295	1	15
613.483	1	-4
614.671	1	9
615.858	1	-5
617.046	1	11
618.234	1	1
619.422	1	8
620.609	1	3
621.797	1	8
622.985	1	4
624.172	1	0
625.360	1	1
626.547	1	3
627.735	1	12
628.922	1	1
630.109	1	1
631.297	1	-6
632.484	1	5
633.671	1	-1
634.858	1	6
636.045	1	11
637.232	1	2
638.419	1	-2
639.606	1	10
640.793	1	-5
641.980	1	-3
643.167	1	10
644.354	1	0
645.541	1	2
646.728	1	12
647.914	1	2
649.101	1	-7
650.288	1	11
651.474	1	3
652.661	1	-3
653.847	1	1
655.034	1	-1
656.220	1	-3
657.406	1	1
658.593	1	5
659.779	1	1
660.965	1	3
662.152	1	-4
663.338	1	7
664.524	1	-2
665.710	1	-1
666.896	1	2
668.082	1	7
669.268	1	2
670.454	1	-3
671.640	1	-5
672.826	1	1
674.011	1	5
675.197	1	-4
676.383	1	-1
677.569	1	4
678.754	1	6
679.940	1	0
681.125	1	15
682.311	1	-5
683.496	1	-6
684.682	1	-1
685.867	1	2
687.053	1	-4
688.238	1	14
688.746	1	8