File: Data/GaN_130K_350ms/GaN_sample F_spot6_UVVIS_130 K_200um_350 ms 2x2mm1_177.txt
340.368	1	8
341.565	1	3
342.763	1	-3
343.960	1	-7
345.157	1	-7
346.354	1	-3
347.552	1	0
348.749	1	5
349.946	1	3
351.143	1	9
352.340	1	11
353.537	1	5
354.734	1	-5
355.931	1	6
357.127	1	7
358.324	1	14
359.521	1	4
360.718	1	6
361.914	1	12
363.111	1	17
364.308	1	23
365.504	1	23
366.701	1	20
367.897	1	13
369.093	1	17
370.290	1	15
371.486	1	17
372.682	1	18
373.879	1	24
375.075	1	19
376.271	1	18
377.467	1	10
378.663	1	12
379.859	1	8
381.055	1	14
382.251	1	4
383.447	1	3
384.643	1	15
385.839	1	9
387.035	1	13
388.230	1	2
389.426	1	10
390.622	1	8
391.817	1	20
393.013	1	10
394.208	1	3
395.404	1	2
396.599	1	16
397.795	1	5
398.990	1	6
400.186	1	1
401.381	1	7
402.576	1	5
403.771	1	9
404.967	1	5
406.162	1	-1
407.357	1	-6
408.552	1	6
409.747	1	5
410.942	1	-2
412.137	1	1
413.332	1	4
414.526	1	5
415.721	1	3
416.916	1	4
418.111	1	-2
419.305	1	-2
420.500	1	1
421.695	1	4
422.889	1	3
424.084	1	2
425.278	1	-5
426.472	1	-3
427.667	1	5
428.861	1	3
430.055	1	0
431.250	1	5
432.444	1	9
433.638	1	3
434.832	1	9
436.026	1	11
437.220	1	1
438.414	1	5
439.608	1	9
440.802	1	-9
441.996	1	0
443.190	1	2
444.384	1	-6
445.578	1	5
446.771	1	3
447.965	1	-1
449.159	1	1
450.352	1	13
451.546	1	11
452.739	1	10
453.933	1	3
455.126	1	-16
456.320	1	-2
457.513	1	0
458.706	1	-2
459.899	1	5
461.093	1	13
462.286	1	4
463.479	1	5
464.672	1	6
465.865	1	1
467.058	1	12
468.251	1	6
469.444	1	-1
470.637	1	8
471.830	1	9
473.023	1	4
474.215	1	8
475.408	1	9
476.601	1	0
477.793	1	1
478.986	1	1
480.179	1	-1
481.371	1	8
482.564	1	1
483.756	1	3
484.948	1	2
486.141	1	1
487.333	1	-2
488.525	1	3
489.718	1	10
490.910	1	5
492.102	1	17
493.294	1	13
494.486	1	10
495.678	1	2
496.870	1	7
498.062	1	1
499.254	1	10
500.446	1	8
501.638	1	5
502.829	1	9
504.021	1	0
505.213	1	0
506.404	1	9
507.596	1	0
508.788	1	5
509.979	1	4
511.171	1	12
512.362	1	6
513.553	1	11
514.745	1	6
515.936	1	15
517.127	1	10
518.319	1	-2
519.510	1	-5
520.701	1	3
521.892	1	21
523.083	1	10
524.274	1	2
525.465	1	19
526.656	1	17
527.847	1	6
529.038	1	3
530.229	1	18
531.419	1	6
532.610	1	10
533.801	1	23
534.991	1	6
536.182	1	16
537.373	1	6
538.563	1	13
539.754	1	1
540.944	1	7
542.134	1	10
543.325	1	15
544.515	1	11
545.705	1	9
546.896	1	8
548.086	1	1
549.276	1	2
550.466	1	12
551.656	1	5
552.846	1	3
554.036	1	5
555.226	1	12
556.416	1	19
557.606	1	2
558.796	1	15
559.986	1	10
561.175	1	13
562.365	1	8
563.555	1	17
564.744	1	3
565.934	1	-2
567.123	1	1
568.313	1	4
569.502	1	7
570.692	1	12
571.881	1	7
573.070	1	4
574.260	1	7
575.449	1	13
576.638	1	4
577.827	1	3
579.016	1	5
580.205	1	3
581.394	1	1
582.583	1	4
583.772	1	11
584.961	1	-1
586.150	1	14
587.339	1	-1
588.528	1	10
589.717	1	2
590.905	1	12
592.094	1	7
593.283	1	-3
594.471	1	4
595.660	1	5
596.848	1	-7
598.037	1	0
599.225	1	6
600.413	1	6
601.602	1	3
602.790	1	1
603.978	1	6
605.166	1	9
606.355	1	7
607.543	1	11
608.731	1	5
609.919	1	13
611.107	1	9
612.295	1	7
613.483	1	-6
614.671	1	7
615.858	1	1
617.046	1	10
618.234	1	1
619.422	1	-1
620.609	1	2
621.797	1	-8
622.985	1	12
624.172	1	2
625.360	1	5
626.547	1	6
627.735	1	17
628.922	1	-10
630.109	1	7
631.297	1	1
632.484	1	-2
633.671	1	-6
634.858	1	8
636.045	1	2
637.232	1	1
638.419	1	16
639.606	1	7
640.793	1	-6
641.980	1	6
643.167	1	4
644.354	1	1
645.541	1	1
646.728	1	6
647.914	1	-12
649.101	1	-4
650.288	1	5
651.474	1	0
652.661	1	-4
653.847	1	-4
655.034	1	2
656.220	1	-6
657.406	1	1
658.593	1	-2
659.779	1	3
660.965	1	8
662.152	1	-3
663.338	1	3
664.524	1	-5
665.710	1	4
666.896	1	3
668.082	1	2
669.268	1	0
670.454	1	-5
671.640	1	-4
672.826	1	2
674.011	1	-4
675.197	1	4
676.383	1	1
677.569	1	-2
678.754	1	7
679.940	1	3
681.125	1	11
682.311	1	-8
683.496	1	-3
684.682	1	1
685.867	1	7
687.053	1	-1
688.238	1	3
688.746	1	13