File: Data/GaN_130K_350ms/GaN_sample F_spot6_UVVIS_130 K_200um_350 ms 2x2mm1_214.txt
340.368	1	3
341.565	1	3
342.763	1	-4
343.960	1	-9
345.157	1	-3
346.354	1	8
347.552	1	6
348.749	1	7
349.946	1	7
351.143	1	-1
352.340	1	12
353.537	1	3
354.734	1	4
355.931	1	5
357.127	1	9
358.324	1	4
359.521	1	3
360.718	1	6
361.914	1	4
363.111	1	17
364.308	1	19
365.504	1	19
366.701	1	11
367.897	1	18
369.093	1	8
370.290	1	22
371.486	1	3
372.682	1	18
373.879	1	12
375.075	1	17
376.271	1	19
377.467	1	13
378.663	1	1
379.859	1	5
381.055	1	12
382.251	1	9
383.447	1	10
384.643	1	4
385.839	1	5
387.035	1	7
388.230	1	2
389.426	1	11
390.622	1	4
391.817	1	9
393.013	1	12
394.208	1	-8
395.404	1	-13
396.599	1	14
397.795	1	-3
398.990	1	-3
400.186	1	0
401.381	1	7
402.576	1	-3
403.771	1	14
404.967	1	-2
406.162	1	-1
407.357	1	5
408.552	1	3
409.747	1	-1
410.942	1	9
412.137	1	1
413.332	1	-4
414.526	1	10
415.721	1	5
416.916	1	7
418.111	1	4
419.305	1	-4
420.500	1	3
421.695	1	5
422.889	1	2
424.084	1	11
425.278	1	-2
426.472	1	3
427.667	1	9
428.861	1	-4
430.055	1	7
431.250	1	5
432.444	1	11
433.638	1	13
434.832	1	2
436.026	1	0
437.220	1	6
438.414	1	0
439.608	1	8
440.802	1	-3
441.996	1	6
443.190	1	5
444.384	1	2
445.578	1	0
446.771	1	11
447.965	1	-1
449.159	1	3
450.352	1	14
451.546	1	17
452.739	1	1
453.933	1	-2
455.126	1	-3
456.320	1	2
457.513	1	-12
458.706	1	10
459.899	1	3
461.093	1	9
462.286	1	10
463.479	1	10
464.672	1	7
465.865	1	-4
467.058	1	2
468.251	1	-3
469.444	1	5
470.637	1	6
471.830	1	9
473.023	1	6
474.215	1	4
475.408	1	9
476.601	1	5
477.793	1	-7
478.986	1	-4
480.179	1	1
481.371	1	19
482.564	1	9
483.756	1	-3
484.948	1	2
486.141	1	3
487.333	1	0
488.525	1	8
489.718	1	5
490.910	1	-11
492.102	1	6
493.294	1	8
494.486	1	19
495.678	1	-1
496.870	1	-2
498.062	1	-4
499.254	1	16
500.446	1	4
501.638	1	4
502.829	1	10
504.021	1	7
505.213	1	-1
506.404	1	2
507.596	1	-7
508.788	1	-3
509.979	1	3
511.171	1	14
512.362	1	4
513.553	1	12
514.745	1	6
515.936	1	13
517.127	1	9
518.319	1	2
519.510	1	0
520.701	1	7
521.892	1	-1
523.083	1	8
524.274	1	0
525.465	1	10
526.656	1	11
527.847	1	-2
529.038	1	8
530.229	1	14
531.419	1	6
532.610	1	11
533.801	1	25
534.991	1	14
536.182	1	11
537.373	1	5
538.563	1	10
539.754	1	0
540.944	1	17
542.134	1	1
543.325	1	10
544.515	1	14
545.705	1	6
546.896	1	2
548.086	1	-4
549.276	1	-7
550.466	1	14
551.656	1	3
552.846	1	-2
554.036	1	9
555.226	1	8
556.416	1	5
557.606	1	1
558.796	1	13
559.986	1	-5
561.175	1	4
562.365	1	17
563.555	1	12
564.744	1	9
565.934	1	8
567.123	1	5
568.313	1	0
569.502	1	10
570.692	1	4
571.881	1	0
573.070	1	3
574.260	1	10
575.449	1	10
576.638	1	-11
577.827	1	9
579.016	1	5
580.205	1	7
581.394	1	2
582.583	1	9
583.772	1	8
584.961	1	0
586.150	1	2
587.339	1	2
588.528	1	8
589.717	1	7
590.905	1	4
592.094	1	4
593.283	1	-8
594.471	1	9
595.660	1	5
596.848	1	12
598.037	1	-6
599.225	1	10
600.413	1	8
601.602	1	-1
602.790	1	4
603.978	1	5
605.166	1	11
606.355	1	10
607.543	1	-1
608.731	1	7
609.919	1	3
611.107	1	9
612.295	1	8
613.483	1	-5
614.671	1	12
615.858	1	-6
617.046	1	16
618.234	1	5
619.422	1	-4
620.609	1	-6
621.797	1	5
622.985	1	8
624.172	1	0
625.360	1	10
626.547	1	-4
627.735	1	14
628.922	1	-1
630.109	1	14
631.297	1	-2
632.484	1	-5
633.671	1	-4
634.858	1	6
636.045	1	21
637.232	1	-5
638.419	1	7
639.606	1	6
640.793	1	-4
641.980	1	1
643.167	1	7
644.354	1	-4
645.541	1	0
646.728	1	7
647.914	1	-1
649.101	1	3
650.288	1	2
651.474	1	2
652.661	1	-5
653.847	1	2
655.034	1	-4
656.220	1	-1
657.406	1	3
658.593	1	-2
659.779	1	0
660.965	1	-4
662.152	1	1
663.338	1	-1
664.524	1	-4
665.710	1	11
666.896	1	3
668.082	1	6
669.268	1	4
670.454	1	-5
671.640	1	-2
672.826	1	7
674.011	1	-2
675.197	1	-4
676.383	1	0
677.569	1	-1
678.754	1	4
679.940	1	1
681.125	1	9
682.311	1	-8
683.496	1	3
684.682	1	8
685.867	1	2
687.053	1	6
688.238	1	10
688.746	1	2