File: Data/GaN_130K_350ms/GaN_sample F_spot6_UVVIS_130 K_200um_350 ms 2x2mm1_129.txt
340.368	1	5
341.565	1	0
342.763	1	11
343.960	1	1
345.157	1	-9
346.354	1	1
347.552	1	-4
348.749	1	10
349.946	1	8
351.143	1	13
352.340	1	9
353.537	1	3
354.734	1	6
355.931	1	15
357.127	1	11
358.324	1	11
359.521	1	13
360.718	1	12
361.914	1	19
363.111	1	32
364.308	1	45
365.504	1	38
366.701	1	48
367.897	1	55
369.093	1	43
370.290	1	53
371.486	1	54
372.682	1	43
373.879	1	39
375.075	1	39
376.271	1	21
377.467	1	29
378.663	1	24
379.859	1	12
381.055	1	17
382.251	1	14
383.447	1	21
384.643	1	17
385.839	1	14
387.035	1	24
388.230	1	15
389.426	1	25
390.622	1	22
391.817	1	11
393.013	1	11
394.208	1	6
395.404	1	-2
396.599	1	11
397.795	1	2
398.990	1	5
400.186	1	3
401.381	1	9
402.576	1	3
403.771	1	14
404.967	1	6
406.162	1	3
407.357	1	15
408.552	1	6
409.747	1	5
410.942	1	6
412.137	1	2
413.332	1	11
414.526	1	10
415.721	1	6
416.916	1	1
418.111	1	4
419.305	1	0
420.500	1	5
421.695	1	11
422.889	1	11
424.084	1	13
425.278	1	1
426.472	1	13
427.667	1	12
428.861	1	6
430.055	1	4
431.250	1	21
432.444	1	15
433.638	1	1
434.832	1	1
436.026	1	5
437.220	1	-7
438.414	1	7
439.608	1	18
440.802	1	-1
441.996	1	11
443.190	1	4
444.384	1	-5
445.578	1	5
446.771	1	11
447.965	1	-5
449.159	1	12
450.352	1	3
451.546	1	13
452.739	1	10
453.933	1	1
455.126	1	-1
456.320	1	1
457.513	1	-4
458.706	1	16
459.899	1	7
461.093	1	10
462.286	1	9
463.479	1	17
464.672	1	6
465.865	1	-11
467.058	1	5
468.251	1	1
469.444	1	6
470.637	1	9
471.830	1	3
473.023	1	7
474.215	1	-3
475.408	1	6
476.601	1	5
477.793	1	7
478.986	1	-2
480.179	1	3
481.371	1	8
482.564	1	3
483.756	1	6
484.948	1	11
486.141	1	15
487.333	1	-3
488.525	1	14
489.718	1	8
490.910	1	-6
492.102	1	14
493.294	1	7
494.486	1	24
495.678	1	9
496.870	1	17
498.062	1	2
499.254	1	20
500.446	1	9
501.638	1	17
502.829	1	13
504.021	1	14
505.213	1	15
506.404	1	9
507.596	1	-1
508.788	1	3
509.979	1	5
511.171	1	31
512.362	1	28
513.553	1	15
514.745	1	7
515.936	1	24
517.127	1	19
518.319	1	11
519.510	1	11
520.701	1	21
521.892	1	22
523.083	1	22
524.274	1	15
525.465	1	25
526.656	1	26
527.847	1	12
529.038	1	14
530.229	1	24
531.419	1	19
532.610	1	16
533.801	1	26
534.991	1	15
536.182	1	25
537.373	1	13
538.563	1	32
539.754	1	14
540.944	1	30
542.134	1	15
543.325	1	19
544.515	1	10
545.705	1	16
546.896	1	18
548.086	1	18
549.276	1	12
550.466	1	14
551.656	1	13
552.846	1	7
554.036	1	13
555.226	1	19
556.416	1	16
557.606	1	16
558.796	1	13
559.986	1	8
561.175	1	14
562.365	1	11
563.555	1	21
564.744	1	9
565.934	1	9
567.123	1	12
568.313	1	6
569.502	1	6
570.692	1	11
571.881	1	13
573.070	1	3
574.260	1	9
575.449	1	7
576.638	1	6
577.827	1	6
579.016	1	7
580.205	1	9
581.394	1	4
582.583	1	12
583.772	1	8
584.961	1	8
586.150	1	11
587.339	1	13
588.528	1	13
589.717	1	3
590.905	1	7
592.094	1	10
593.283	1	-1
594.471	1	7
595.660	1	5
596.848	1	7
598.037	1	5
599.225	1	9
600.413	1	6
601.602	1	-4
602.790	1	13
603.978	1	8
605.166	1	20
606.355	1	21
607.543	1	6
608.731	1	9
609.919	1	13
611.107	1	15
612.295	1	15
613.483	1	5
614.671	1	7
615.858	1	5
617.046	1	17
618.234	1	11
619.422	1	5
620.609	1	-1
621.797	1	6
622.985	1	9
624.172	1	-1
625.360	1	4
626.547	1	7
627.735	1	14
628.922	1	8
630.109	1	10
631.297	1	0
632.484	1	-1
633.671	1	-8
634.858	1	8
636.045	1	13
637.232	1	1
638.419	1	7
639.606	1	5
640.793	1	-1
641.980	1	1
643.167	1	8
644.354	1	2
645.541	1	-1
646.728	1	10
647.914	1	-1
649.101	1	-16
650.288	1	9
651.474	1	2
652.661	1	-3
653.847	1	4
655.034	1	6
656.220	1	-4
657.406	1	3
658.593	1	2
659.779	1	8
660.965	1	6
662.152	1	2
663.338	1	6
664.524	1	-1
665.710	1	9
666.896	1	14
668.082	1	4
669.268	1	-2
670.454	1	8
671.640	1	-2
672.826	1	11
674.011	1	7
675.197	1	-2
676.383	1	0
677.569	1	-4
678.754	1	0
679.940	1	1
681.125	1	3
682.311	1	-7
683.496	1	4
684.682	1	-7
685.867	1	-2
687.053	1	6
688.238	1	7
688.746	1	6