File: Data/GaN_130K_350ms/GaN_sample F_spot6_UVVIS_130 K_200um_350 ms 2x2mm1_117.txt
340.368	1	0
341.565	1	-4
342.763	1	-3
343.960	1	-9
345.157	1	-6
346.354	1	4
347.552	1	-2
348.749	1	4
349.946	1	13
351.143	1	-2
352.340	1	17
353.537	1	-1
354.734	1	-3
355.931	1	14
357.127	1	14
358.324	1	21
359.521	1	9
360.718	1	24
361.914	1	29
363.111	1	49
364.308	1	45
365.504	1	64
366.701	1	74
367.897	1	75
369.093	1	72
370.290	1	67
371.486	1	53
372.682	1	45
373.879	1	49
375.075	1	56
376.271	1	36
377.467	1	36
378.663	1	36
379.859	1	20
381.055	1	25
382.251	1	22
383.447	1	19
384.643	1	24
385.839	1	26
387.035	1	32
388.230	1	8
389.426	1	18
390.622	1	21
391.817	1	18
393.013	1	19
394.208	1	8
395.404	1	8
396.599	1	15
397.795	1	12
398.990	1	15
400.186	1	7
401.381	1	12
402.576	1	11
403.771	1	13
404.967	1	6
406.162	1	10
407.357	1	5
408.552	1	1
409.747	1	4
410.942	1	13
412.137	1	8
413.332	1	6
414.526	1	12
415.721	1	10
416.916	1	-6
418.111	1	8
419.305	1	7
420.500	1	10
421.695	1	10
422.889	1	5
424.084	1	11
425.278	1	0
426.472	1	5
427.667	1	7
428.861	1	4
430.055	1	10
431.250	1	19
432.444	1	8
433.638	1	8
434.832	1	12
436.026	1	10
437.220	1	9
438.414	1	-1
439.608	1	10
440.802	1	-2
441.996	1	12
443.190	1	7
444.384	1	6
445.578	1	-7
446.771	1	13
447.965	1	6
449.159	1	-5
450.352	1	14
451.546	1	10
452.739	1	8
453.933	1	1
455.126	1	-6
456.320	1	7
457.513	1	-3
458.706	1	0
459.899	1	12
461.093	1	5
462.286	1	13
463.479	1	18
464.672	1	8
465.865	1	-1
467.058	1	14
468.251	1	14
469.444	1	11
470.637	1	3
471.830	1	6
473.023	1	-2
474.215	1	8
475.408	1	14
476.601	1	7
477.793	1	-3
478.986	1	6
480.179	1	9
481.371	1	16
482.564	1	2
483.756	1	0
484.948	1	13
486.141	1	10
487.333	1	9
488.525	1	7
489.718	1	13
490.910	1	-1
492.102	1	18
493.294	1	13
494.486	1	22
495.678	1	8
496.870	1	9
498.062	1	0
499.254	1	14
500.446	1	8
501.638	1	12
502.829	1	19
504.021	1	9
505.213	1	16
506.404	1	21
507.596	1	17
508.788	1	16
509.979	1	16
511.171	1	30
512.362	1	18
513.553	1	28
514.745	1	28
515.936	1	30
517.127	1	34
518.319	1	20
519.510	1	32
520.701	1	25
521.892	1	40
523.083	1	36
524.274	1	24
525.465	1	41
526.656	1	28
527.847	1	29
529.038	1	26
530.229	1	31
531.419	1	44
532.610	1	28
533.801	1	45
534.991	1	28
536.182	1	33
537.373	1	32
538.563	1	35
539.754	1	29
540.944	1	32
542.134	1	20
543.325	1	24
544.515	1	17
545.705	1	16
546.896	1	22
548.086	1	17
549.276	1	30
550.466	1	26
551.656	1	25
552.846	1	13
554.036	1	28
555.226	1	26
556.416	1	34
557.606	1	16
558.796	1	31
559.986	1	11
561.175	1	24
562.365	1	11
563.555	1	26
564.744	1	11
565.934	1	10
567.123	1	7
568.313	1	14
569.502	1	17
570.692	1	20
571.881	1	7
573.070	1	20
574.260	1	14
575.449	1	20
576.638	1	4
577.827	1	7
579.016	1	15
580.205	1	1
581.394	1	14
582.583	1	8
583.772	1	14
584.961	1	4
586.150	1	15
587.339	1	5
588.528	1	10
589.717	1	5
590.905	1	14
592.094	1	10
593.283	1	3
594.471	1	7
595.660	1	6
596.848	1	11
598.037	1	7
599.225	1	14
600.413	1	5
601.602	1	3
602.790	1	5
603.978	1	4
605.166	1	20
606.355	1	18
607.543	1	7
608.731	1	7
609.919	1	8
611.107	1	11
612.295	1	13
613.483	1	-1
614.671	1	9
615.858	1	2
617.046	1	16
618.234	1	11
619.422	1	7
620.609	1	1
621.797	1	8
622.985	1	10
624.172	1	4
625.360	1	6
626.547	1	6
627.735	1	10
628.922	1	-11
630.109	1	14
631.297	1	-1
632.484	1	-7
633.671	1	2
634.858	1	6
636.045	1	19
637.232	1	6
638.419	1	8
639.606	1	4
640.793	1	-7
641.980	1	5
643.167	1	-1
644.354	1	-7
645.541	1	4
646.728	1	5
647.914	1	-3
649.101	1	-6
650.288	1	13
651.474	1	-3
652.661	1	6
653.847	1	-4
655.034	1	8
656.220	1	2
657.406	1	8
658.593	1	-1
659.779	1	-3
660.965	1	3
662.152	1	5
663.338	1	-1
664.524	1	8
665.710	1	2
666.896	1	9
668.082	1	6
669.268	1	6
670.454	1	7
671.640	1	0
672.826	1	4
674.011	1	10
675.197	1	-1
676.383	1	2
677.569	1	6
678.754	1	12
679.940	1	2
681.125	1	11
682.311	1	-1
683.496	1	-6
684.682	1	4
685.867	1	10
687.053	1	6
688.238	1	13
688.746	1	9