File: Data/GaN_130K_350ms/GaN_sample F_spot6_UVVIS_130 K_200um_350 ms 2x2mm1_118.txt
340.368	1	4
341.565	1	-2
342.763	1	7
343.960	1	-12
345.157	1	-8
346.354	1	4
347.552	1	1
348.749	1	6
349.946	1	12
351.143	1	9
352.340	1	16
353.537	1	2
354.734	1	-3
355.931	1	9
357.127	1	17
358.324	1	13
359.521	1	14
360.718	1	18
361.914	1	32
363.111	1	37
364.308	1	45
365.504	1	51
366.701	1	64
367.897	1	68
369.093	1	70
370.290	1	67
371.486	1	57
372.682	1	41
373.879	1	54
375.075	1	46
376.271	1	29
377.467	1	33
378.663	1	29
379.859	1	23
381.055	1	14
382.251	1	21
383.447	1	21
384.643	1	18
385.839	1	27
387.035	1	28
388.230	1	16
389.426	1	21
390.622	1	9
391.817	1	26
393.013	1	15
394.208	1	12
395.404	1	0
396.599	1	4
397.795	1	6
398.990	1	4
400.186	1	7
401.381	1	13
402.576	1	6
403.771	1	15
404.967	1	15
406.162	1	6
407.357	1	15
408.552	1	5
409.747	1	6
410.942	1	13
412.137	1	-1
413.332	1	5
414.526	1	5
415.721	1	9
416.916	1	5
418.111	1	11
419.305	1	15
420.500	1	9
421.695	1	9
422.889	1	7
424.084	1	5
425.278	1	6
426.472	1	8
427.667	1	16
428.861	1	9
430.055	1	13
431.250	1	13
432.444	1	12
433.638	1	20
434.832	1	5
436.026	1	13
437.220	1	-1
438.414	1	-4
439.608	1	10
440.802	1	-3
441.996	1	16
443.190	1	13
444.384	1	-1
445.578	1	-3
446.771	1	4
447.965	1	5
449.159	1	16
450.352	1	14
451.546	1	10
452.739	1	2
453.933	1	5
455.126	1	1
456.320	1	2
457.513	1	-3
458.706	1	7
459.899	1	-1
461.093	1	13
462.286	1	7
463.479	1	1
464.672	1	12
465.865	1	4
467.058	1	7
468.251	1	8
469.444	1	-4
470.637	1	15
471.830	1	13
473.023	1	0
474.215	1	0
475.408	1	5
476.601	1	14
477.793	1	5
478.986	1	3
480.179	1	6
481.371	1	15
482.564	1	-1
483.756	1	5
484.948	1	8
486.141	1	2
487.333	1	-2
488.525	1	14
489.718	1	11
490.910	1	4
492.102	1	23
493.294	1	17
494.486	1	26
495.678	1	11
496.870	1	21
498.062	1	4
499.254	1	20
500.446	1	8
501.638	1	14
502.829	1	22
504.021	1	13
505.213	1	17
506.404	1	20
507.596	1	14
508.788	1	12
509.979	1	10
511.171	1	21
512.362	1	14
513.553	1	20
514.745	1	15
515.936	1	31
517.127	1	23
518.319	1	15
519.510	1	29
520.701	1	24
521.892	1	27
523.083	1	24
524.274	1	19
525.465	1	24
526.656	1	18
527.847	1	22
529.038	1	11
530.229	1	20
531.419	1	35
532.610	1	22
533.801	1	32
534.991	1	29
536.182	1	27
537.373	1	27
538.563	1	42
539.754	1	18
540.944	1	31
542.134	1	22
543.325	1	22
544.515	1	25
545.705	1	24
546.896	1	36
548.086	1	12
549.276	1	8
550.466	1	27
551.656	1	26
552.846	1	21
554.036	1	16
555.226	1	26
556.416	1	31
557.606	1	16
558.796	1	23
559.986	1	17
561.175	1	21
562.365	1	20
563.555	1	20
564.744	1	12
565.934	1	14
567.123	1	8
568.313	1	6
569.502	1	4
570.692	1	18
571.881	1	9
573.070	1	16
574.260	1	15
575.449	1	11
576.638	1	11
577.827	1	8
579.016	1	12
580.205	1	-2
581.394	1	3
582.583	1	15
583.772	1	14
584.961	1	14
586.150	1	19
587.339	1	8
588.528	1	24
589.717	1	6
590.905	1	8
592.094	1	4
593.283	1	-6
594.471	1	14
595.660	1	5
596.848	1	16
598.037	1	6
599.225	1	2
600.413	1	10
601.602	1	5
602.790	1	3
603.978	1	10
605.166	1	10
606.355	1	10
607.543	1	11
608.731	1	1
609.919	1	16
611.107	1	13
612.295	1	9
613.483	1	-1
614.671	1	15
615.858	1	2
617.046	1	15
618.234	1	8
619.422	1	3
620.609	1	4
621.797	1	-2
622.985	1	14
624.172	1	3
625.360	1	4
626.547	1	11
627.735	1	10
628.922	1	-3
630.109	1	8
631.297	1	7
632.484	1	2
633.671	1	-1
634.858	1	11
636.045	1	10
637.232	1	-3
638.419	1	9
639.606	1	9
640.793	1	-6
641.980	1	-1
643.167	1	6
644.354	1	1
645.541	1	-3
646.728	1	14
647.914	1	3
649.101	1	0
650.288	1	4
651.474	1	-2
652.661	1	7
653.847	1	5
655.034	1	3
656.220	1	-1
657.406	1	11
658.593	1	10
659.779	1	11
660.965	1	8
662.152	1	9
663.338	1	8
664.524	1	-3
665.710	1	0
666.896	1	5
668.082	1	9
669.268	1	5
670.454	1	1
671.640	1	-1
672.826	1	7
674.011	1	0
675.197	1	-2
676.383	1	11
677.569	1	-5
678.754	1	11
679.940	1	1
681.125	1	2
682.311	1	-8
683.496	1	5
684.682	1	-3
685.867	1	5
687.053	1	-1
688.238	1	13
688.746	1	6