File: Data/GaN_130K_350ms/GaN_sample F_spot6_UVVIS_130 K_200um_350 ms 2x2mm1_268.txt
340.368	1	4
341.565	1	-9
342.763	1	-3
343.960	1	-10
345.157	1	-14
346.354	1	1
347.552	1	-3
348.749	1	3
349.946	1	7
351.143	1	0
352.340	1	8
353.537	1	1
354.734	1	-1
355.931	1	-1
357.127	1	3
358.324	1	-2
359.521	1	5
360.718	1	3
361.914	1	0
363.111	1	9
364.308	1	12
365.504	1	17
366.701	1	9
367.897	1	7
369.093	1	16
370.290	1	17
371.486	1	4
372.682	1	-4
373.879	1	9
375.075	1	9
376.271	1	2
377.467	1	16
378.663	1	9
379.859	1	5
381.055	1	9
382.251	1	8
383.447	1	2
384.643	1	10
385.839	1	12
387.035	1	8
388.230	1	-2
389.426	1	5
390.622	1	4
391.817	1	9
393.013	1	6
394.208	1	-14
395.404	1	-5
396.599	1	12
397.795	1	-4
398.990	1	4
400.186	1	-3
401.381	1	10
402.576	1	0
403.771	1	9
404.967	1	1
406.162	1	-11
407.357	1	7
408.552	1	-4
409.747	1	0
410.942	1	-6
412.137	1	-7
413.332	1	-8
414.526	1	5
415.721	1	1
416.916	1	-7
418.111	1	1
419.305	1	-1
420.500	1	1
421.695	1	5
422.889	1	-5
424.084	1	6
425.278	1	-1
426.472	1	6
427.667	1	11
428.861	1	-3
430.055	1	3
431.250	1	8
432.444	1	3
433.638	1	5
434.832	1	-3
436.026	1	9
437.220	1	-9
438.414	1	7
439.608	1	11
440.802	1	-6
441.996	1	9
443.190	1	7
444.384	1	-1
445.578	1	-4
446.771	1	4
447.965	1	6
449.159	1	4
450.352	1	13
451.546	1	0
452.739	1	5
453.933	1	3
455.126	1	2
456.320	1	-4
457.513	1	-5
458.706	1	10
459.899	1	-7
461.093	1	9
462.286	1	13
463.479	1	10
464.672	1	1
465.865	1	-5
467.058	1	-1
468.251	1	9
469.444	1	0
470.637	1	6
471.830	1	2
473.023	1	7
474.215	1	12
475.408	1	10
476.601	1	0
477.793	1	1
478.986	1	3
480.179	1	5
481.371	1	11
482.564	1	1
483.756	1	0
484.948	1	4
486.141	1	-7
487.333	1	-8
488.525	1	3
489.718	1	6
490.910	1	-5
492.102	1	5
493.294	1	11
494.486	1	10
495.678	1	-8
496.870	1	5
498.062	1	-3
499.254	1	6
500.446	1	11
501.638	1	6
502.829	1	-1
504.021	1	2
505.213	1	6
506.404	1	0
507.596	1	7
508.788	1	-3
509.979	1	1
511.171	1	16
512.362	1	12
513.553	1	8
514.745	1	-4
515.936	1	8
517.127	1	-2
518.319	1	4
519.510	1	4
520.701	1	4
521.892	1	11
523.083	1	7
524.274	1	-2
525.465	1	3
526.656	1	2
527.847	1	1
529.038	1	-1
530.229	1	5
531.419	1	7
532.610	1	4
533.801	1	14
534.991	1	-1
536.182	1	-2
537.373	1	-1
538.563	1	4
539.754	1	5
540.944	1	8
542.134	1	12
543.325	1	1
544.515	1	17
545.705	1	2
546.896	1	6
548.086	1	-8
549.276	1	-1
550.466	1	10
551.656	1	7
552.846	1	6
554.036	1	1
555.226	1	6
556.416	1	11
557.606	1	1
558.796	1	9
559.986	1	7
561.175	1	14
562.365	1	6
563.555	1	7
564.744	1	8
565.934	1	-3
567.123	1	2
568.313	1	-6
569.502	1	-3
570.692	1	9
571.881	1	-5
573.070	1	1
574.260	1	-1
575.449	1	13
576.638	1	1
577.827	1	-4
579.016	1	-5
580.205	1	-3
581.394	1	-1
582.583	1	5
583.772	1	-1
584.961	1	1
586.150	1	10
587.339	1	0
588.528	1	7
589.717	1	2
590.905	1	9
592.094	1	-6
593.283	1	-7
594.471	1	0
595.660	1	7
596.848	1	1
598.037	1	2
599.225	1	5
600.413	1	1
601.602	1	-8
602.790	1	-1
603.978	1	3
605.166	1	16
606.355	1	9
607.543	1	2
608.731	1	8
609.919	1	6
611.107	1	9
612.295	1	4
613.483	1	6
614.671	1	-4
615.858	1	-9
617.046	1	7
618.234	1	6
619.422	1	-3
620.609	1	-5
621.797	1	-2
622.985	1	6
624.172	1	3
625.360	1	1
626.547	1	5
627.735	1	2
628.922	1	-7
630.109	1	5
631.297	1	4
632.484	1	-5
633.671	1	6
634.858	1	5
636.045	1	1
637.232	1	-2
638.419	1	1
639.606	1	2
640.793	1	-4
641.980	1	5
643.167	1	9
644.354	1	-9
645.541	1	0
646.728	1	1
647.914	1	-4
649.101	1	-5
650.288	1	11
651.474	1	-4
652.661	1	-2
653.847	1	-6
655.034	1	-5
656.220	1	2
657.406	1	-3
658.593	1	11
659.779	1	-4
660.965	1	6
662.152	1	1
663.338	1	-8
664.524	1	0
665.710	1	2
666.896	1	-1
668.082	1	-1
669.268	1	6
670.454	1	2
671.640	1	-11
672.826	1	2
674.011	1	6
675.197	1	1
676.383	1	4
677.569	1	-1
678.754	1	2
679.940	1	2
681.125	1	9
682.311	1	-15
683.496	1	0
684.682	1	0
685.867	1	7
687.053	1	3
688.238	1	6
688.746	1	1