File: Data/GaN_130K_350ms/GaN_sample F_spot6_UVVIS_130 K_200um_350 ms 2x2mm1_262.txt
340.368	1	5
341.565	1	8
342.763	1	7
343.960	1	-5
345.157	1	-5
346.354	1	1
347.552	1	0
348.749	1	12
349.946	1	7
351.143	1	-5
352.340	1	18
353.537	1	-7
354.734	1	1
355.931	1	5
357.127	1	4
358.324	1	2
359.521	1	2
360.718	1	2
361.914	1	7
363.111	1	13
364.308	1	9
365.504	1	17
366.701	1	6
367.897	1	3
369.093	1	13
370.290	1	3
371.486	1	12
372.682	1	-2
373.879	1	14
375.075	1	16
376.271	1	10
377.467	1	13
378.663	1	6
379.859	1	-4
381.055	1	1
382.251	1	4
383.447	1	0
384.643	1	14
385.839	1	6
387.035	1	17
388.230	1	-2
389.426	1	2
390.622	1	-2
391.817	1	5
393.013	1	3
394.208	1	-2
395.404	1	-6
396.599	1	17
397.795	1	0
398.990	1	6
400.186	1	-3
401.381	1	3
402.576	1	4
403.771	1	9
404.967	1	-5
406.162	1	-2
407.357	1	6
408.552	1	2
409.747	1	2
410.942	1	1
412.137	1	-1
413.332	1	5
414.526	1	8
415.721	1	-1
416.916	1	6
418.111	1	9
419.305	1	-2
420.500	1	2
421.695	1	2
422.889	1	6
424.084	1	6
425.278	1	-4
426.472	1	3
427.667	1	5
428.861	1	4
430.055	1	2
431.250	1	7
432.444	1	6
433.638	1	6
434.832	1	4
436.026	1	3
437.220	1	-7
438.414	1	-1
439.608	1	10
440.802	1	-3
441.996	1	9
443.190	1	-1
444.384	1	-9
445.578	1	-1
446.771	1	5
447.965	1	-6
449.159	1	10
450.352	1	3
451.546	1	5
452.739	1	7
453.933	1	13
455.126	1	0
456.320	1	2
457.513	1	-3
458.706	1	2
459.899	1	-3
461.093	1	8
462.286	1	5
463.479	1	6
464.672	1	4
465.865	1	-9
467.058	1	3
468.251	1	10
469.444	1	8
470.637	1	1
471.830	1	8
473.023	1	8
474.215	1	1
475.408	1	2
476.601	1	-2
477.793	1	-1
478.986	1	0
480.179	1	2
481.371	1	4
482.564	1	-1
483.756	1	8
484.948	1	1
486.141	1	0
487.333	1	2
488.525	1	4
489.718	1	7
490.910	1	3
492.102	1	7
493.294	1	5
494.486	1	11
495.678	1	-11
496.870	1	2
498.062	1	-3
499.254	1	8
500.446	1	2
501.638	1	2
502.829	1	-2
504.021	1	-1
505.213	1	-5
506.404	1	5
507.596	1	-5
508.788	1	-4
509.979	1	-7
511.171	1	3
512.362	1	2
513.553	1	5
514.745	1	4
515.936	1	17
517.127	1	0
518.319	1	-7
519.510	1	7
520.701	1	-1
521.892	1	6
523.083	1	3
524.274	1	8
525.465	1	15
526.656	1	3
527.847	1	-6
529.038	1	-8
530.229	1	4
531.419	1	4
532.610	1	7
533.801	1	12
534.991	1	6
536.182	1	12
537.373	1	5
538.563	1	8
539.754	1	-4
540.944	1	6
542.134	1	-1
543.325	1	0
544.515	1	8
545.705	1	7
546.896	1	-1
548.086	1	2
549.276	1	3
550.466	1	11
551.656	1	7
552.846	1	-3
554.036	1	-2
555.226	1	6
556.416	1	3
557.606	1	-2
558.796	1	8
559.986	1	8
561.175	1	3
562.365	1	5
563.555	1	0
564.744	1	4
565.934	1	2
567.123	1	3
568.313	1	2
569.502	1	5
570.692	1	8
571.881	1	2
573.070	1	-4
574.260	1	6
575.449	1	7
576.638	1	-3
577.827	1	-1
579.016	1	0
580.205	1	2
581.394	1	4
582.583	1	10
583.772	1	2
584.961	1	-11
586.150	1	7
587.339	1	7
588.528	1	0
589.717	1	2
590.905	1	6
592.094	1	1
593.283	1	-2
594.471	1	5
595.660	1	0
596.848	1	-5
598.037	1	8
599.225	1	-2
600.413	1	11
601.602	1	4
602.790	1	9
603.978	1	0
605.166	1	10
606.355	1	10
607.543	1	3
608.731	1	6
609.919	1	19
611.107	1	-3
612.295	1	14
613.483	1	1
614.671	1	3
615.858	1	-7
617.046	1	11
618.234	1	0
619.422	1	3
620.609	1	-5
621.797	1	1
622.985	1	7
624.172	1	0
625.360	1	1
626.547	1	1
627.735	1	6
628.922	1	-3
630.109	1	6
631.297	1	0
632.484	1	-11
633.671	1	-3
634.858	1	16
636.045	1	17
637.232	1	0
638.419	1	6
639.606	1	2
640.793	1	-9
641.980	1	0
643.167	1	6
644.354	1	-6
645.541	1	5
646.728	1	3
647.914	1	-3
649.101	1	-4
650.288	1	2
651.474	1	-4
652.661	1	8
653.847	1	-3
655.034	1	6
656.220	1	6
657.406	1	0
658.593	1	0
659.779	1	4
660.965	1	-2
662.152	1	4
663.338	1	5
664.524	1	5
665.710	1	2
666.896	1	2
668.082	1	5
669.268	1	-1
670.454	1	-5
671.640	1	-3
672.826	1	4
674.011	1	3
675.197	1	-2
676.383	1	5
677.569	1	0
678.754	1	3
679.940	1	-7
681.125	1	11
682.311	1	-14
683.496	1	0
684.682	1	-3
685.867	1	-9
687.053	1	4
688.238	1	8
688.746	1	5