File: Data/GaN_130K_350ms/GaN_sample F_spot6_UVVIS_130 K_200um_350 ms 2x2mm1_134.txt
340.368	1	7
341.565	1	8
342.763	1	13
343.960	1	-4
345.157	1	-12
346.354	1	8
347.552	1	-4
348.749	1	7
349.946	1	6
351.143	1	5
352.340	1	17
353.537	1	1
354.734	1	-4
355.931	1	10
357.127	1	13
358.324	1	12
359.521	1	7
360.718	1	20
361.914	1	21
363.111	1	35
364.308	1	42
365.504	1	42
366.701	1	55
367.897	1	38
369.093	1	49
370.290	1	38
371.486	1	41
372.682	1	34
373.879	1	26
375.075	1	29
376.271	1	32
377.467	1	21
378.663	1	18
379.859	1	18
381.055	1	22
382.251	1	11
383.447	1	21
384.643	1	17
385.839	1	17
387.035	1	27
388.230	1	8
389.426	1	12
390.622	1	2
391.817	1	18
393.013	1	10
394.208	1	2
395.404	1	-1
396.599	1	9
397.795	1	11
398.990	1	6
400.186	1	12
401.381	1	9
402.576	1	5
403.771	1	7
404.967	1	8
406.162	1	14
407.357	1	13
408.552	1	9
409.747	1	3
410.942	1	5
412.137	1	-2
413.332	1	2
414.526	1	9
415.721	1	0
416.916	1	0
418.111	1	14
419.305	1	5
420.500	1	11
421.695	1	4
422.889	1	5
424.084	1	10
425.278	1	-3
426.472	1	3
427.667	1	9
428.861	1	8
430.055	1	4
431.250	1	12
432.444	1	10
433.638	1	-4
434.832	1	7
436.026	1	7
437.220	1	3
438.414	1	-1
439.608	1	14
440.802	1	0
441.996	1	14
443.190	1	4
444.384	1	-1
445.578	1	0
446.771	1	7
447.965	1	7
449.159	1	-5
450.352	1	-1
451.546	1	12
452.739	1	10
453.933	1	2
455.126	1	-2
456.320	1	5
457.513	1	1
458.706	1	3
459.899	1	8
461.093	1	11
462.286	1	4
463.479	1	12
464.672	1	9
465.865	1	0
467.058	1	17
468.251	1	5
469.444	1	3
470.637	1	6
471.830	1	5
473.023	1	11
474.215	1	10
475.408	1	11
476.601	1	2
477.793	1	7
478.986	1	2
480.179	1	-1
481.371	1	4
482.564	1	-2
483.756	1	-2
484.948	1	9
486.141	1	-1
487.333	1	-1
488.525	1	18
489.718	1	14
490.910	1	-3
492.102	1	13
493.294	1	13
494.486	1	16
495.678	1	8
496.870	1	17
498.062	1	-5
499.254	1	10
500.446	1	15
501.638	1	16
502.829	1	9
504.021	1	10
505.213	1	9
506.404	1	8
507.596	1	14
508.788	1	11
509.979	1	14
511.171	1	15
512.362	1	21
513.553	1	23
514.745	1	5
515.936	1	27
517.127	1	15
518.319	1	7
519.510	1	19
520.701	1	17
521.892	1	22
523.083	1	19
524.274	1	8
525.465	1	20
526.656	1	17
527.847	1	17
529.038	1	23
530.229	1	18
531.419	1	23
532.610	1	16
533.801	1	22
534.991	1	21
536.182	1	27
537.373	1	21
538.563	1	29
539.754	1	13
540.944	1	25
542.134	1	18
543.325	1	17
544.515	1	12
545.705	1	6
546.896	1	12
548.086	1	3
549.276	1	6
550.466	1	11
551.656	1	19
552.846	1	9
554.036	1	5
555.226	1	18
556.416	1	15
557.606	1	4
558.796	1	16
559.986	1	20
561.175	1	13
562.365	1	25
563.555	1	11
564.744	1	19
565.934	1	0
567.123	1	11
568.313	1	12
569.502	1	5
570.692	1	18
571.881	1	13
573.070	1	7
574.260	1	1
575.449	1	11
576.638	1	6
577.827	1	-2
579.016	1	6
580.205	1	0
581.394	1	1
582.583	1	6
583.772	1	12
584.961	1	-5
586.150	1	15
587.339	1	10
588.528	1	15
589.717	1	-2
590.905	1	13
592.094	1	3
593.283	1	0
594.471	1	11
595.660	1	4
596.848	1	12
598.037	1	5
599.225	1	5
600.413	1	11
601.602	1	-8
602.790	1	7
603.978	1	5
605.166	1	14
606.355	1	10
607.543	1	8
608.731	1	11
609.919	1	17
611.107	1	12
612.295	1	13
613.483	1	-2
614.671	1	9
615.858	1	-1
617.046	1	5
618.234	1	5
619.422	1	5
620.609	1	2
621.797	1	3
622.985	1	5
624.172	1	4
625.360	1	-1
626.547	1	7
627.735	1	15
628.922	1	-3
630.109	1	5
631.297	1	-3
632.484	1	-3
633.671	1	0
634.858	1	-1
636.045	1	19
637.232	1	3
638.419	1	11
639.606	1	11
640.793	1	-4
641.980	1	6
643.167	1	4
644.354	1	1
645.541	1	0
646.728	1	3
647.914	1	-5
649.101	1	-5
650.288	1	11
651.474	1	-7
652.661	1	2
653.847	1	0
655.034	1	8
656.220	1	3
657.406	1	5
658.593	1	5
659.779	1	1
660.965	1	2
662.152	1	0
663.338	1	2
664.524	1	1
665.710	1	12
666.896	1	9
668.082	1	12
669.268	1	-4
670.454	1	0
671.640	1	2
672.826	1	-7
674.011	1	1
675.197	1	-4
676.383	1	3
677.569	1	5
678.754	1	9
679.940	1	-5
681.125	1	9
682.311	1	-6
683.496	1	3
684.682	1	-2
685.867	1	8
687.053	1	-1
688.238	1	6
688.746	1	9