File: Data/GaN_130K_350ms/GaN_sample F_spot6_UVVIS_130 K_200um_350 ms 2x2mm1_182.txt
340.368	1	0
341.565	1	1
342.763	1	10
343.960	1	-13
345.157	1	-10
346.354	1	2
347.552	1	6
348.749	1	14
349.946	1	5
351.143	1	11
352.340	1	6
353.537	1	6
354.734	1	5
355.931	1	-1
357.127	1	13
358.324	1	-5
359.521	1	-5
360.718	1	13
361.914	1	15
363.111	1	18
364.308	1	19
365.504	1	17
366.701	1	24
367.897	1	6
369.093	1	28
370.290	1	24
371.486	1	23
372.682	1	16
373.879	1	15
375.075	1	15
376.271	1	10
377.467	1	15
378.663	1	5
379.859	1	6
381.055	1	5
382.251	1	15
383.447	1	4
384.643	1	16
385.839	1	9
387.035	1	17
388.230	1	8
389.426	1	11
390.622	1	3
391.817	1	10
393.013	1	7
394.208	1	0
395.404	1	-11
396.599	1	14
397.795	1	2
398.990	1	-1
400.186	1	9
401.381	1	4
402.576	1	18
403.771	1	12
404.967	1	4
406.162	1	5
407.357	1	2
408.552	1	5
409.747	1	0
410.942	1	-5
412.137	1	2
413.332	1	1
414.526	1	8
415.721	1	6
416.916	1	7
418.111	1	12
419.305	1	7
420.500	1	10
421.695	1	-4
422.889	1	4
424.084	1	9
425.278	1	4
426.472	1	5
427.667	1	11
428.861	1	6
430.055	1	2
431.250	1	7
432.444	1	7
433.638	1	13
434.832	1	1
436.026	1	13
437.220	1	-2
438.414	1	-2
439.608	1	4
440.802	1	0
441.996	1	16
443.190	1	2
444.384	1	-1
445.578	1	1
446.771	1	6
447.965	1	6
449.159	1	9
450.352	1	16
451.546	1	10
452.739	1	8
453.933	1	2
455.126	1	-1
456.320	1	7
457.513	1	-4
458.706	1	10
459.899	1	9
461.093	1	5
462.286	1	7
463.479	1	16
464.672	1	7
465.865	1	-1
467.058	1	9
468.251	1	5
469.444	1	7
470.637	1	9
471.830	1	12
473.023	1	4
474.215	1	6
475.408	1	6
476.601	1	-2
477.793	1	0
478.986	1	1
480.179	1	4
481.371	1	1
482.564	1	2
483.756	1	6
484.948	1	7
486.141	1	3
487.333	1	0
488.525	1	-1
489.718	1	11
490.910	1	-6
492.102	1	8
493.294	1	3
494.486	1	10
495.678	1	-5
496.870	1	6
498.062	1	-7
499.254	1	14
500.446	1	1
501.638	1	9
502.829	1	9
504.021	1	12
505.213	1	10
506.404	1	7
507.596	1	2
508.788	1	7
509.979	1	-4
511.171	1	13
512.362	1	4
513.553	1	4
514.745	1	8
515.936	1	15
517.127	1	11
518.319	1	4
519.510	1	8
520.701	1	6
521.892	1	8
523.083	1	14
524.274	1	4
525.465	1	11
526.656	1	10
527.847	1	14
529.038	1	-4
530.229	1	11
531.419	1	10
532.610	1	6
533.801	1	19
534.991	1	9
536.182	1	4
537.373	1	14
538.563	1	16
539.754	1	10
540.944	1	8
542.134	1	3
543.325	1	2
544.515	1	4
545.705	1	8
546.896	1	11
548.086	1	-8
549.276	1	0
550.466	1	16
551.656	1	10
552.846	1	3
554.036	1	4
555.226	1	9
556.416	1	8
557.606	1	9
558.796	1	18
559.986	1	9
561.175	1	7
562.365	1	15
563.555	1	11
564.744	1	3
565.934	1	10
567.123	1	-2
568.313	1	3
569.502	1	9
570.692	1	9
571.881	1	9
573.070	1	13
574.260	1	6
575.449	1	3
576.638	1	-4
577.827	1	-2
579.016	1	4
580.205	1	2
581.394	1	8
582.583	1	12
583.772	1	10
584.961	1	1
586.150	1	5
587.339	1	10
588.528	1	6
589.717	1	0
590.905	1	0
592.094	1	1
593.283	1	0
594.471	1	0
595.660	1	1
596.848	1	10
598.037	1	0
599.225	1	-2
600.413	1	6
601.602	1	-5
602.790	1	0
603.978	1	4
605.166	1	8
606.355	1	8
607.543	1	6
608.731	1	6
609.919	1	18
611.107	1	1
612.295	1	9
613.483	1	-5
614.671	1	15
615.858	1	-7
617.046	1	6
618.234	1	3
619.422	1	-3
620.609	1	-3
621.797	1	2
622.985	1	4
624.172	1	1
625.360	1	10
626.547	1	-3
627.735	1	1
628.922	1	-8
630.109	1	9
631.297	1	2
632.484	1	1
633.671	1	-4
634.858	1	7
636.045	1	20
637.232	1	-4
638.419	1	8
639.606	1	10
640.793	1	-9
641.980	1	2
643.167	1	7
644.354	1	0
645.541	1	8
646.728	1	8
647.914	1	5
649.101	1	-1
650.288	1	0
651.474	1	2
652.661	1	-2
653.847	1	0
655.034	1	2
656.220	1	1
657.406	1	6
658.593	1	7
659.779	1	5
660.965	1	-4
662.152	1	4
663.338	1	-3
664.524	1	-5
665.710	1	3
666.896	1	11
668.082	1	4
669.268	1	0
670.454	1	5
671.640	1	-2
672.826	1	-4
674.011	1	10
675.197	1	3
676.383	1	4
677.569	1	8
678.754	1	8
679.940	1	4
681.125	1	9
682.311	1	-8
683.496	1	-3
684.682	1	1
685.867	1	12
687.053	1	2
688.238	1	11
688.746	1	7