File: Data/GaN_130K_350ms/GaN_sample F_spot6_UVVIS_130 K_200um_350 ms 2x2mm1_254.txt
340.368	1	-3
341.565	1	-1
342.763	1	3
343.960	1	-11
345.157	1	-13
346.354	1	-4
347.552	1	-2
348.749	1	1
349.946	1	12
351.143	1	-4
352.340	1	11
353.537	1	1
354.734	1	7
355.931	1	9
357.127	1	7
358.324	1	-2
359.521	1	-6
360.718	1	7
361.914	1	-1
363.111	1	19
364.308	1	16
365.504	1	14
366.701	1	12
367.897	1	10
369.093	1	5
370.290	1	16
371.486	1	10
372.682	1	7
373.879	1	12
375.075	1	13
376.271	1	6
377.467	1	5
378.663	1	2
379.859	1	8
381.055	1	2
382.251	1	-1
383.447	1	7
384.643	1	7
385.839	1	6
387.035	1	15
388.230	1	10
389.426	1	6
390.622	1	-2
391.817	1	10
393.013	1	9
394.208	1	-12
395.404	1	-1
396.599	1	13
397.795	1	0
398.990	1	-2
400.186	1	2
401.381	1	12
402.576	1	-2
403.771	1	4
404.967	1	1
406.162	1	-6
407.357	1	2
408.552	1	1
409.747	1	1
410.942	1	4
412.137	1	-3
413.332	1	0
414.526	1	7
415.721	1	11
416.916	1	-3
418.111	1	5
419.305	1	-2
420.500	1	7
421.695	1	6
422.889	1	4
424.084	1	14
425.278	1	-9
426.472	1	2
427.667	1	9
428.861	1	1
430.055	1	-1
431.250	1	12
432.444	1	4
433.638	1	5
434.832	1	11
436.026	1	12
437.220	1	-8
438.414	1	-6
439.608	1	9
440.802	1	0
441.996	1	11
443.190	1	9
444.384	1	-3
445.578	1	-2
446.771	1	7
447.965	1	3
449.159	1	8
450.352	1	16
451.546	1	0
452.739	1	7
453.933	1	5
455.126	1	1
456.320	1	5
457.513	1	-5
458.706	1	1
459.899	1	-3
461.093	1	3
462.286	1	6
463.479	1	5
464.672	1	5
465.865	1	5
467.058	1	8
468.251	1	4
469.444	1	1
470.637	1	10
471.830	1	12
473.023	1	8
474.215	1	1
475.408	1	4
476.601	1	2
477.793	1	3
478.986	1	1
480.179	1	1
481.371	1	9
482.564	1	-5
483.756	1	4
484.948	1	2
486.141	1	-5
487.333	1	-2
488.525	1	2
489.718	1	1
490.910	1	-5
492.102	1	3
493.294	1	2
494.486	1	19
495.678	1	-2
496.870	1	1
498.062	1	4
499.254	1	11
500.446	1	-3
501.638	1	7
502.829	1	9
504.021	1	-8
505.213	1	-9
506.404	1	4
507.596	1	2
508.788	1	0
509.979	1	2
511.171	1	0
512.362	1	-1
513.553	1	6
514.745	1	2
515.936	1	18
517.127	1	-2
518.319	1	-8
519.510	1	-2
520.701	1	-3
521.892	1	5
523.083	1	5
524.274	1	-10
525.465	1	6
526.656	1	9
527.847	1	6
529.038	1	-1
530.229	1	-2
531.419	1	12
532.610	1	5
533.801	1	10
534.991	1	3
536.182	1	10
537.373	1	0
538.563	1	8
539.754	1	4
540.944	1	16
542.134	1	-2
543.325	1	-1
544.515	1	12
545.705	1	-4
546.896	1	1
548.086	1	-4
549.276	1	-5
550.466	1	6
551.656	1	3
552.846	1	0
554.036	1	12
555.226	1	9
556.416	1	10
557.606	1	-5
558.796	1	5
559.986	1	4
561.175	1	2
562.365	1	-1
563.555	1	8
564.744	1	-2
565.934	1	-1
567.123	1	-1
568.313	1	-5
569.502	1	-5
570.692	1	7
571.881	1	4
573.070	1	-5
574.260	1	-1
575.449	1	8
576.638	1	1
577.827	1	-6
579.016	1	3
580.205	1	0
581.394	1	3
582.583	1	13
583.772	1	6
584.961	1	-3
586.150	1	9
587.339	1	-4
588.528	1	8
589.717	1	0
590.905	1	7
592.094	1	0
593.283	1	-5
594.471	1	2
595.660	1	9
596.848	1	2
598.037	1	9
599.225	1	1
600.413	1	5
601.602	1	2
602.790	1	-9
603.978	1	3
605.166	1	12
606.355	1	-4
607.543	1	0
608.731	1	0
609.919	1	8
611.107	1	7
612.295	1	5
613.483	1	-4
614.671	1	4
615.858	1	-5
617.046	1	9
618.234	1	-4
619.422	1	-6
620.609	1	5
621.797	1	0
622.985	1	1
624.172	1	-2
625.360	1	6
626.547	1	5
627.735	1	4
628.922	1	-4
630.109	1	2
631.297	1	4
632.484	1	-12
633.671	1	-2
634.858	1	4
636.045	1	10
637.232	1	-7
638.419	1	10
639.606	1	8
640.793	1	-8
641.980	1	0
643.167	1	7
644.354	1	0
645.541	1	3
646.728	1	6
647.914	1	-1
649.101	1	-3
650.288	1	-2
651.474	1	0
652.661	1	1
653.847	1	-1
655.034	1	0
656.220	1	1
657.406	1	-2
658.593	1	1
659.779	1	3
660.965	1	0
662.152	1	7
663.338	1	6
664.524	1	-10
665.710	1	4
666.896	1	4
668.082	1	-4
669.268	1	-4
670.454	1	2
671.640	1	-9
672.826	1	-6
674.011	1	1
675.197	1	0
676.383	1	-1
677.569	1	0
678.754	1	0
679.940	1	4
681.125	1	6
682.311	1	-10
683.496	1	1
684.682	1	-1
685.867	1	-7
687.053	1	4
688.238	1	15
688.746	1	4