File: Data/GaN_130K_350ms/GaN_sample F_spot6_UVVIS_130 K_200um_350 ms 2x2mm1_267.txt
340.368	1	0
341.565	1	0
342.763	1	8
343.960	1	1
345.157	1	-14
346.354	1	-5
347.552	1	5
348.749	1	1
349.946	1	2
351.143	1	8
352.340	1	14
353.537	1	2
354.734	1	1
355.931	1	-2
357.127	1	16
358.324	1	0
359.521	1	5
360.718	1	7
361.914	1	6
363.111	1	7
364.308	1	9
365.504	1	13
366.701	1	7
367.897	1	0
369.093	1	14
370.290	1	11
371.486	1	8
372.682	1	9
373.879	1	14
375.075	1	11
376.271	1	15
377.467	1	9
378.663	1	7
379.859	1	11
381.055	1	7
382.251	1	5
383.447	1	2
384.643	1	-2
385.839	1	9
387.035	1	9
388.230	1	7
389.426	1	9
390.622	1	4
391.817	1	13
393.013	1	6
394.208	1	0
395.404	1	-7
396.599	1	5
397.795	1	-2
398.990	1	-2
400.186	1	1
401.381	1	7
402.576	1	7
403.771	1	11
404.967	1	-6
406.162	1	9
407.357	1	0
408.552	1	-6
409.747	1	4
410.942	1	10
412.137	1	-1
413.332	1	0
414.526	1	1
415.721	1	5
416.916	1	10
418.111	1	9
419.305	1	3
420.500	1	6
421.695	1	4
422.889	1	6
424.084	1	0
425.278	1	2
426.472	1	5
427.667	1	11
428.861	1	10
430.055	1	9
431.250	1	6
432.444	1	8
433.638	1	4
434.832	1	3
436.026	1	8
437.220	1	-1
438.414	1	-2
439.608	1	11
440.802	1	-3
441.996	1	8
443.190	1	4
444.384	1	-1
445.578	1	6
446.771	1	7
447.965	1	6
449.159	1	-1
450.352	1	8
451.546	1	8
452.739	1	7
453.933	1	-3
455.126	1	-4
456.320	1	7
457.513	1	1
458.706	1	5
459.899	1	7
461.093	1	11
462.286	1	-3
463.479	1	4
464.672	1	9
465.865	1	-4
467.058	1	14
468.251	1	7
469.444	1	4
470.637	1	-2
471.830	1	8
473.023	1	5
474.215	1	2
475.408	1	6
476.601	1	0
477.793	1	-2
478.986	1	6
480.179	1	-4
481.371	1	2
482.564	1	1
483.756	1	-7
484.948	1	1
486.141	1	0
487.333	1	-12
488.525	1	6
489.718	1	6
490.910	1	1
492.102	1	12
493.294	1	4
494.486	1	9
495.678	1	2
496.870	1	1
498.062	1	-6
499.254	1	-1
500.446	1	9
501.638	1	-1
502.829	1	3
504.021	1	2
505.213	1	10
506.404	1	-1
507.596	1	5
508.788	1	6
509.979	1	-5
511.171	1	12
512.362	1	-3
513.553	1	9
514.745	1	2
515.936	1	7
517.127	1	3
518.319	1	-8
519.510	1	-1
520.701	1	3
521.892	1	13
523.083	1	4
524.274	1	-6
525.465	1	5
526.656	1	7
527.847	1	1
529.038	1	2
530.229	1	10
531.419	1	1
532.610	1	-4
533.801	1	24
534.991	1	1
536.182	1	-2
537.373	1	0
538.563	1	12
539.754	1	-2
540.944	1	6
542.134	1	9
543.325	1	13
544.515	1	9
545.705	1	3
546.896	1	4
548.086	1	-6
549.276	1	-1
550.466	1	9
551.656	1	1
552.846	1	-6
554.036	1	-7
555.226	1	0
556.416	1	5
557.606	1	2
558.796	1	14
559.986	1	4
561.175	1	6
562.365	1	10
563.555	1	8
564.744	1	-3
565.934	1	8
567.123	1	6
568.313	1	2
569.502	1	5
570.692	1	8
571.881	1	4
573.070	1	4
574.260	1	12
575.449	1	5
576.638	1	1
577.827	1	-8
579.016	1	-2
580.205	1	-4
581.394	1	4
582.583	1	19
583.772	1	3
584.961	1	3
586.150	1	11
587.339	1	2
588.528	1	3
589.717	1	-7
590.905	1	7
592.094	1	-5
593.283	1	-5
594.471	1	2
595.660	1	1
596.848	1	9
598.037	1	8
599.225	1	-2
600.413	1	5
601.602	1	2
602.790	1	-5
603.978	1	12
605.166	1	3
606.355	1	8
607.543	1	-1
608.731	1	17
609.919	1	12
611.107	1	5
612.295	1	10
613.483	1	-3
614.671	1	5
615.858	1	-3
617.046	1	10
618.234	1	11
619.422	1	-1
620.609	1	-6
621.797	1	8
622.985	1	10
624.172	1	-1
625.360	1	2
626.547	1	4
627.735	1	7
628.922	1	-6
630.109	1	9
631.297	1	-6
632.484	1	-3
633.671	1	0
634.858	1	3
636.045	1	20
637.232	1	3
638.419	1	5
639.606	1	7
640.793	1	-11
641.980	1	4
643.167	1	7
644.354	1	-5
645.541	1	-4
646.728	1	0
647.914	1	-2
649.101	1	3
650.288	1	3
651.474	1	-6
652.661	1	0
653.847	1	-2
655.034	1	3
656.220	1	2
657.406	1	1
658.593	1	-5
659.779	1	-3
660.965	1	5
662.152	1	-7
663.338	1	-1
664.524	1	-4
665.710	1	4
666.896	1	6
668.082	1	2
669.268	1	-3
670.454	1	4
671.640	1	-3
672.826	1	4
674.011	1	-2
675.197	1	-4
676.383	1	2
677.569	1	1
678.754	1	2
679.940	1	-4
681.125	1	16
682.311	1	-5
683.496	1	1
684.682	1	-9
685.867	1	3
687.053	1	-1
688.238	1	6
688.746	1	-2