File: Data/GaN_130K_350ms/GaN_sample F_spot6_UVVIS_130 K_200um_350 ms 2x2mm1_105.txt
340.368	1	7
341.565	1	3
342.763	1	11
343.960	1	-8
345.157	1	-4
346.354	1	0
347.552	1	-3
348.749	1	7
349.946	1	6
351.143	1	5
352.340	1	12
353.537	1	1
354.734	1	12
355.931	1	4
357.127	1	14
358.324	1	11
359.521	1	3
360.718	1	33
361.914	1	25
363.111	1	53
364.308	1	68
365.504	1	77
366.701	1	101
367.897	1	109
369.093	1	104
370.290	1	96
371.486	1	77
372.682	1	73
373.879	1	66
375.075	1	51
376.271	1	45
377.467	1	42
378.663	1	35
379.859	1	34
381.055	1	33
382.251	1	28
383.447	1	14
384.643	1	27
385.839	1	28
387.035	1	28
388.230	1	17
389.426	1	22
390.622	1	10
391.817	1	20
393.013	1	16
394.208	1	9
395.404	1	7
396.599	1	15
397.795	1	3
398.990	1	10
400.186	1	6
401.381	1	14
402.576	1	19
403.771	1	19
404.967	1	15
406.162	1	7
407.357	1	7
408.552	1	6
409.747	1	7
410.942	1	5
412.137	1	8
413.332	1	-1
414.526	1	11
415.721	1	5
416.916	1	8
418.111	1	21
419.305	1	6
420.500	1	16
421.695	1	12
422.889	1	11
424.084	1	11
425.278	1	-1
426.472	1	17
427.667	1	14
428.861	1	11
430.055	1	1
431.250	1	14
432.444	1	17
433.638	1	6
434.832	1	4
436.026	1	13
437.220	1	3
438.414	1	2
439.608	1	14
440.802	1	-5
441.996	1	20
443.190	1	9
444.384	1	5
445.578	1	0
446.771	1	8
447.965	1	6
449.159	1	11
450.352	1	16
451.546	1	12
452.739	1	6
453.933	1	5
455.126	1	2
456.320	1	6
457.513	1	-1
458.706	1	6
459.899	1	4
461.093	1	5
462.286	1	5
463.479	1	8
464.672	1	11
465.865	1	-1
467.058	1	11
468.251	1	13
469.444	1	19
470.637	1	3
471.830	1	6
473.023	1	9
474.215	1	-3
475.408	1	9
476.601	1	13
477.793	1	5
478.986	1	3
480.179	1	3
481.371	1	13
482.564	1	3
483.756	1	7
484.948	1	8
486.141	1	1
487.333	1	13
488.525	1	19
489.718	1	15
490.910	1	-4
492.102	1	11
493.294	1	17
494.486	1	23
495.678	1	10
496.870	1	10
498.062	1	9
499.254	1	17
500.446	1	32
501.638	1	8
502.829	1	18
504.021	1	17
505.213	1	26
506.404	1	27
507.596	1	25
508.788	1	31
509.979	1	25
511.171	1	40
512.362	1	30
513.553	1	30
514.745	1	27
515.936	1	39
517.127	1	33
518.319	1	38
519.510	1	31
520.701	1	45
521.892	1	52
523.083	1	45
524.274	1	29
525.465	1	38
526.656	1	45
527.847	1	40
529.038	1	36
530.229	1	55
531.419	1	50
532.610	1	47
533.801	1	50
534.991	1	47
536.182	1	47
537.373	1	37
538.563	1	48
539.754	1	34
540.944	1	42
542.134	1	36
543.325	1	34
544.515	1	27
545.705	1	33
546.896	1	35
548.086	1	30
549.276	1	32
550.466	1	37
551.656	1	26
552.846	1	21
554.036	1	32
555.226	1	24
556.416	1	38
557.606	1	22
558.796	1	31
559.986	1	27
561.175	1	34
562.365	1	29
563.555	1	25
564.744	1	32
565.934	1	22
567.123	1	12
568.313	1	18
569.502	1	12
570.692	1	29
571.881	1	19
573.070	1	18
574.260	1	16
575.449	1	16
576.638	1	13
577.827	1	3
579.016	1	13
580.205	1	6
581.394	1	4
582.583	1	25
583.772	1	13
584.961	1	8
586.150	1	17
587.339	1	11
588.528	1	25
589.717	1	14
590.905	1	24
592.094	1	5
593.283	1	0
594.471	1	6
595.660	1	12
596.848	1	7
598.037	1	7
599.225	1	9
600.413	1	18
601.602	1	2
602.790	1	4
603.978	1	9
605.166	1	6
606.355	1	17
607.543	1	8
608.731	1	5
609.919	1	12
611.107	1	17
612.295	1	13
613.483	1	4
614.671	1	14
615.858	1	-1
617.046	1	8
618.234	1	12
619.422	1	3
620.609	1	0
621.797	1	-1
622.985	1	7
624.172	1	-6
625.360	1	2
626.547	1	7
627.735	1	15
628.922	1	-1
630.109	1	14
631.297	1	2
632.484	1	2
633.671	1	0
634.858	1	15
636.045	1	15
637.232	1	-2
638.419	1	8
639.606	1	10
640.793	1	-12
641.980	1	5
643.167	1	11
644.354	1	-7
645.541	1	2
646.728	1	15
647.914	1	1
649.101	1	0
650.288	1	7
651.474	1	0
652.661	1	4
653.847	1	-8
655.034	1	3
656.220	1	0
657.406	1	13
658.593	1	1
659.779	1	7
660.965	1	2
662.152	1	5
663.338	1	6
664.524	1	-2
665.710	1	7
666.896	1	5
668.082	1	3
669.268	1	2
670.454	1	2
671.640	1	-5
672.826	1	-2
674.011	1	0
675.197	1	2
676.383	1	5
677.569	1	7
678.754	1	7
679.940	1	7
681.125	1	20
682.311	1	-1
683.496	1	11
684.682	1	1
685.867	1	5
687.053	1	9
688.238	1	14
688.746	1	12