File: Data/GaN_130K_350ms/GaN_sample F_spot6_UVVIS_130 K_200um_350 ms 2x2mm1_143.txt
340.368	1	4
341.565	1	-5
342.763	1	3
343.960	1	-3
345.157	1	-5
346.354	1	2
347.552	1	4
348.749	1	10
349.946	1	9
351.143	1	8
352.340	1	22
353.537	1	-6
354.734	1	1
355.931	1	10
357.127	1	17
358.324	1	5
359.521	1	8
360.718	1	23
361.914	1	15
363.111	1	23
364.308	1	32
365.504	1	37
366.701	1	34
367.897	1	34
369.093	1	39
370.290	1	40
371.486	1	26
372.682	1	27
373.879	1	28
375.075	1	29
376.271	1	27
377.467	1	23
378.663	1	21
379.859	1	10
381.055	1	15
382.251	1	11
383.447	1	5
384.643	1	14
385.839	1	16
387.035	1	8
388.230	1	9
389.426	1	13
390.622	1	8
391.817	1	9
393.013	1	1
394.208	1	7
395.404	1	-1
396.599	1	9
397.795	1	-6
398.990	1	6
400.186	1	3
401.381	1	12
402.576	1	3
403.771	1	13
404.967	1	2
406.162	1	11
407.357	1	5
408.552	1	5
409.747	1	10
410.942	1	9
412.137	1	10
413.332	1	6
414.526	1	-2
415.721	1	7
416.916	1	2
418.111	1	17
419.305	1	12
420.500	1	7
421.695	1	8
422.889	1	6
424.084	1	7
425.278	1	-1
426.472	1	6
427.667	1	6
428.861	1	6
430.055	1	2
431.250	1	16
432.444	1	7
433.638	1	-1
434.832	1	9
436.026	1	11
437.220	1	-2
438.414	1	3
439.608	1	9
440.802	1	-2
441.996	1	18
443.190	1	4
444.384	1	-2
445.578	1	7
446.771	1	15
447.965	1	5
449.159	1	3
450.352	1	9
451.546	1	12
452.739	1	14
453.933	1	5
455.126	1	-10
456.320	1	2
457.513	1	3
458.706	1	9
459.899	1	-2
461.093	1	7
462.286	1	5
463.479	1	17
464.672	1	8
465.865	1	-2
467.058	1	13
468.251	1	1
469.444	1	1
470.637	1	3
471.830	1	2
473.023	1	13
474.215	1	6
475.408	1	14
476.601	1	3
477.793	1	-3
478.986	1	6
480.179	1	4
481.371	1	12
482.564	1	-4
483.756	1	6
484.948	1	11
486.141	1	11
487.333	1	5
488.525	1	13
489.718	1	7
490.910	1	-5
492.102	1	7
493.294	1	18
494.486	1	24
495.678	1	5
496.870	1	8
498.062	1	12
499.254	1	15
500.446	1	8
501.638	1	6
502.829	1	4
504.021	1	-2
505.213	1	13
506.404	1	1
507.596	1	5
508.788	1	2
509.979	1	14
511.171	1	26
512.362	1	13
513.553	1	8
514.745	1	7
515.936	1	15
517.127	1	10
518.319	1	6
519.510	1	4
520.701	1	17
521.892	1	22
523.083	1	18
524.274	1	7
525.465	1	22
526.656	1	18
527.847	1	15
529.038	1	15
530.229	1	17
531.419	1	13
532.610	1	7
533.801	1	28
534.991	1	16
536.182	1	21
537.373	1	15
538.563	1	20
539.754	1	10
540.944	1	22
542.134	1	8
543.325	1	7
544.515	1	15
545.705	1	10
546.896	1	20
548.086	1	5
549.276	1	12
550.466	1	28
551.656	1	19
552.846	1	8
554.036	1	9
555.226	1	14
556.416	1	13
557.606	1	14
558.796	1	24
559.986	1	8
561.175	1	11
562.365	1	6
563.555	1	14
564.744	1	15
565.934	1	7
567.123	1	3
568.313	1	11
569.502	1	5
570.692	1	17
571.881	1	7
573.070	1	16
574.260	1	12
575.449	1	13
576.638	1	1
577.827	1	-4
579.016	1	5
580.205	1	2
581.394	1	7
582.583	1	11
583.772	1	15
584.961	1	5
586.150	1	13
587.339	1	4
588.528	1	25
589.717	1	5
590.905	1	13
592.094	1	15
593.283	1	-7
594.471	1	5
595.660	1	9
596.848	1	13
598.037	1	7
599.225	1	7
600.413	1	5
601.602	1	9
602.790	1	2
603.978	1	7
605.166	1	14
606.355	1	8
607.543	1	-1
608.731	1	7
609.919	1	6
611.107	1	19
612.295	1	6
613.483	1	-1
614.671	1	7
615.858	1	1
617.046	1	10
618.234	1	2
619.422	1	-1
620.609	1	-3
621.797	1	-3
622.985	1	7
624.172	1	-6
625.360	1	7
626.547	1	-1
627.735	1	5
628.922	1	0
630.109	1	1
631.297	1	6
632.484	1	1
633.671	1	-9
634.858	1	8
636.045	1	17
637.232	1	0
638.419	1	4
639.606	1	5
640.793	1	-4
641.980	1	-5
643.167	1	5
644.354	1	3
645.541	1	-2
646.728	1	2
647.914	1	-7
649.101	1	0
650.288	1	3
651.474	1	-4
652.661	1	-1
653.847	1	8
655.034	1	4
656.220	1	8
657.406	1	5
658.593	1	5
659.779	1	7
660.965	1	0
662.152	1	5
663.338	1	-4
664.524	1	-9
665.710	1	4
666.896	1	6
668.082	1	6
669.268	1	-6
670.454	1	2
671.640	1	-15
672.826	1	6
674.011	1	11
675.197	1	-3
676.383	1	6
677.569	1	-1
678.754	1	5
679.940	1	6
681.125	1	3
682.311	1	2
683.496	1	9
684.682	1	0
685.867	1	4
687.053	1	5
688.238	1	9
688.746	1	-2