File: Data/GaN_130K_350ms/GaN_sample F_spot6_UVVIS_130 K_200um_350 ms 2x2mm1_150.txt
340.368	1	6
341.565	1	0
342.763	1	0
343.960	1	-11
345.157	1	-8
346.354	1	11
347.552	1	0
348.749	1	5
349.946	1	-1
351.143	1	10
352.340	1	12
353.537	1	5
354.734	1	0
355.931	1	6
357.127	1	14
358.324	1	7
359.521	1	8
360.718	1	15
361.914	1	9
363.111	1	27
364.308	1	33
365.504	1	23
366.701	1	33
367.897	1	35
369.093	1	35
370.290	1	41
371.486	1	21
372.682	1	25
373.879	1	24
375.075	1	32
376.271	1	25
377.467	1	12
378.663	1	21
379.859	1	9
381.055	1	17
382.251	1	2
383.447	1	18
384.643	1	13
385.839	1	9
387.035	1	23
388.230	1	6
389.426	1	10
390.622	1	9
391.817	1	19
393.013	1	10
394.208	1	-3
395.404	1	-8
396.599	1	13
397.795	1	8
398.990	1	-2
400.186	1	5
401.381	1	3
402.576	1	9
403.771	1	15
404.967	1	3
406.162	1	1
407.357	1	2
408.552	1	2
409.747	1	6
410.942	1	9
412.137	1	9
413.332	1	2
414.526	1	7
415.721	1	7
416.916	1	-3
418.111	1	7
419.305	1	8
420.500	1	8
421.695	1	8
422.889	1	13
424.084	1	5
425.278	1	-1
426.472	1	5
427.667	1	4
428.861	1	2
430.055	1	6
431.250	1	8
432.444	1	11
433.638	1	7
434.832	1	5
436.026	1	10
437.220	1	0
438.414	1	15
439.608	1	8
440.802	1	-2
441.996	1	14
443.190	1	10
444.384	1	-5
445.578	1	-1
446.771	1	10
447.965	1	3
449.159	1	10
450.352	1	15
451.546	1	15
452.739	1	1
453.933	1	6
455.126	1	-6
456.320	1	5
457.513	1	2
458.706	1	6
459.899	1	0
461.093	1	8
462.286	1	3
463.479	1	11
464.672	1	3
465.865	1	-4
467.058	1	8
468.251	1	5
469.444	1	10
470.637	1	3
471.830	1	10
473.023	1	2
474.215	1	6
475.408	1	9
476.601	1	2
477.793	1	6
478.986	1	6
480.179	1	-7
481.371	1	9
482.564	1	1
483.756	1	-2
484.948	1	5
486.141	1	9
487.333	1	-1
488.525	1	15
489.718	1	0
490.910	1	-2
492.102	1	18
493.294	1	11
494.486	1	22
495.678	1	8
496.870	1	8
498.062	1	1
499.254	1	8
500.446	1	10
501.638	1	7
502.829	1	8
504.021	1	7
505.213	1	7
506.404	1	3
507.596	1	6
508.788	1	8
509.979	1	5
511.171	1	16
512.362	1	3
513.553	1	16
514.745	1	8
515.936	1	20
517.127	1	9
518.319	1	3
519.510	1	15
520.701	1	6
521.892	1	23
523.083	1	6
524.274	1	0
525.465	1	21
526.656	1	11
527.847	1	20
529.038	1	14
530.229	1	26
531.419	1	17
532.610	1	13
533.801	1	28
534.991	1	10
536.182	1	18
537.373	1	22
538.563	1	26
539.754	1	6
540.944	1	22
542.134	1	8
543.325	1	13
544.515	1	11
545.705	1	0
546.896	1	15
548.086	1	9
549.276	1	3
550.466	1	23
551.656	1	16
552.846	1	8
554.036	1	20
555.226	1	11
556.416	1	14
557.606	1	6
558.796	1	17
559.986	1	18
561.175	1	7
562.365	1	11
563.555	1	13
564.744	1	2
565.934	1	4
567.123	1	4
568.313	1	5
569.502	1	10
570.692	1	13
571.881	1	-2
573.070	1	3
574.260	1	4
575.449	1	12
576.638	1	3
577.827	1	-3
579.016	1	8
580.205	1	2
581.394	1	1
582.583	1	16
583.772	1	8
584.961	1	-2
586.150	1	9
587.339	1	4
588.528	1	9
589.717	1	2
590.905	1	7
592.094	1	2
593.283	1	-2
594.471	1	7
595.660	1	1
596.848	1	9
598.037	1	6
599.225	1	11
600.413	1	6
601.602	1	3
602.790	1	3
603.978	1	8
605.166	1	6
606.355	1	15
607.543	1	4
608.731	1	8
609.919	1	17
611.107	1	7
612.295	1	4
613.483	1	0
614.671	1	-1
615.858	1	2
617.046	1	5
618.234	1	-1
619.422	1	4
620.609	1	-6
621.797	1	4
622.985	1	6
624.172	1	1
625.360	1	9
626.547	1	-4
627.735	1	18
628.922	1	0
630.109	1	12
631.297	1	-5
632.484	1	2
633.671	1	-6
634.858	1	9
636.045	1	6
637.232	1	-4
638.419	1	2
639.606	1	6
640.793	1	-5
641.980	1	0
643.167	1	3
644.354	1	0
645.541	1	2
646.728	1	13
647.914	1	-1
649.101	1	-3
650.288	1	11
651.474	1	0
652.661	1	-4
653.847	1	3
655.034	1	2
656.220	1	0
657.406	1	9
658.593	1	6
659.779	1	-2
660.965	1	-1
662.152	1	-5
663.338	1	6
664.524	1	-4
665.710	1	2
666.896	1	4
668.082	1	10
669.268	1	1
670.454	1	1
671.640	1	-14
672.826	1	-2
674.011	1	9
675.197	1	1
676.383	1	6
677.569	1	9
678.754	1	12
679.940	1	1
681.125	1	8
682.311	1	-1
683.496	1	-3
684.682	1	-7
685.867	1	-1
687.053	1	3
688.238	1	8
688.746	1	8