File: Data/GaN_130K_350ms/GaN_sample F_spot6_UVVIS_130 K_200um_350 ms 2x2mm1_126.txt
340.368	1	11
341.565	1	-3
342.763	1	8
343.960	1	-9
345.157	1	-9
346.354	1	0
347.552	1	4
348.749	1	6
349.946	1	8
351.143	1	4
352.340	1	11
353.537	1	3
354.734	1	9
355.931	1	4
357.127	1	9
358.324	1	6
359.521	1	11
360.718	1	23
361.914	1	18
363.111	1	32
364.308	1	46
365.504	1	51
366.701	1	61
367.897	1	50
369.093	1	52
370.290	1	54
371.486	1	47
372.682	1	31
373.879	1	42
375.075	1	46
376.271	1	44
377.467	1	35
378.663	1	17
379.859	1	20
381.055	1	15
382.251	1	25
383.447	1	23
384.643	1	21
385.839	1	13
387.035	1	23
388.230	1	17
389.426	1	21
390.622	1	9
391.817	1	19
393.013	1	9
394.208	1	5
395.404	1	1
396.599	1	16
397.795	1	12
398.990	1	6
400.186	1	7
401.381	1	13
402.576	1	15
403.771	1	9
404.967	1	12
406.162	1	7
407.357	1	19
408.552	1	0
409.747	1	3
410.942	1	5
412.137	1	3
413.332	1	1
414.526	1	5
415.721	1	2
416.916	1	-5
418.111	1	8
419.305	1	11
420.500	1	5
421.695	1	2
422.889	1	7
424.084	1	8
425.278	1	7
426.472	1	4
427.667	1	14
428.861	1	-1
430.055	1	2
431.250	1	11
432.444	1	6
433.638	1	11
434.832	1	6
436.026	1	14
437.220	1	-3
438.414	1	0
439.608	1	19
440.802	1	-5
441.996	1	5
443.190	1	6
444.384	1	-4
445.578	1	5
446.771	1	9
447.965	1	7
449.159	1	6
450.352	1	13
451.546	1	12
452.739	1	11
453.933	1	13
455.126	1	-2
456.320	1	5
457.513	1	-1
458.706	1	5
459.899	1	13
461.093	1	6
462.286	1	7
463.479	1	10
464.672	1	6
465.865	1	-13
467.058	1	8
468.251	1	5
469.444	1	8
470.637	1	12
471.830	1	12
473.023	1	1
474.215	1	9
475.408	1	7
476.601	1	6
477.793	1	5
478.986	1	-3
480.179	1	5
481.371	1	9
482.564	1	-3
483.756	1	7
484.948	1	11
486.141	1	2
487.333	1	6
488.525	1	18
489.718	1	15
490.910	1	0
492.102	1	14
493.294	1	24
494.486	1	22
495.678	1	4
496.870	1	25
498.062	1	13
499.254	1	12
500.446	1	11
501.638	1	3
502.829	1	15
504.021	1	10
505.213	1	7
506.404	1	10
507.596	1	14
508.788	1	10
509.979	1	19
511.171	1	27
512.362	1	22
513.553	1	23
514.745	1	16
515.936	1	20
517.127	1	22
518.319	1	18
519.510	1	25
520.701	1	19
521.892	1	22
523.083	1	18
524.274	1	5
525.465	1	28
526.656	1	14
527.847	1	23
529.038	1	15
530.229	1	26
531.419	1	28
532.610	1	17
533.801	1	32
534.991	1	22
536.182	1	26
537.373	1	28
538.563	1	26
539.754	1	12
540.944	1	26
542.134	1	26
543.325	1	16
544.515	1	20
545.705	1	14
546.896	1	17
548.086	1	7
549.276	1	10
550.466	1	17
551.656	1	16
552.846	1	17
554.036	1	19
555.226	1	12
556.416	1	25
557.606	1	21
558.796	1	19
559.986	1	12
561.175	1	17
562.365	1	13
563.555	1	23
564.744	1	12
565.934	1	24
567.123	1	11
568.313	1	15
569.502	1	15
570.692	1	11
571.881	1	2
573.070	1	12
574.260	1	8
575.449	1	15
576.638	1	6
577.827	1	-5
579.016	1	14
580.205	1	7
581.394	1	14
582.583	1	18
583.772	1	16
584.961	1	-2
586.150	1	17
587.339	1	-2
588.528	1	9
589.717	1	-3
590.905	1	11
592.094	1	1
593.283	1	2
594.471	1	5
595.660	1	4
596.848	1	13
598.037	1	4
599.225	1	15
600.413	1	12
601.602	1	-1
602.790	1	7
603.978	1	17
605.166	1	15
606.355	1	11
607.543	1	9
608.731	1	6
609.919	1	7
611.107	1	11
612.295	1	19
613.483	1	-10
614.671	1	6
615.858	1	0
617.046	1	13
618.234	1	9
619.422	1	4
620.609	1	-4
621.797	1	-1
622.985	1	10
624.172	1	-1
625.360	1	-3
626.547	1	10
627.735	1	14
628.922	1	3
630.109	1	9
631.297	1	3
632.484	1	-4
633.671	1	1
634.858	1	15
636.045	1	19
637.232	1	-1
638.419	1	15
639.606	1	11
640.793	1	-11
641.980	1	3
643.167	1	8
644.354	1	0
645.541	1	0
646.728	1	0
647.914	1	-2
649.101	1	0
650.288	1	17
651.474	1	3
652.661	1	4
653.847	1	8
655.034	1	1
656.220	1	5
657.406	1	0
658.593	1	0
659.779	1	6
660.965	1	5
662.152	1	8
663.338	1	-8
664.524	1	2
665.710	1	0
666.896	1	9
668.082	1	7
669.268	1	4
670.454	1	2
671.640	1	-4
672.826	1	-1
674.011	1	5
675.197	1	7
676.383	1	1
677.569	1	6
678.754	1	0
679.940	1	-4
681.125	1	8
682.311	1	-2
683.496	1	1
684.682	1	7
685.867	1	8
687.053	1	11
688.238	1	10
688.746	1	15