File: Data/GaN_130K_350ms/GaN_sample F_spot6_UVVIS_130 K_200um_350 ms 2x2mm1_211.txt
340.368	1	10
341.565	1	-1
342.763	1	1
343.960	1	-15
345.157	1	-6
346.354	1	-2
347.552	1	0
348.749	1	7
349.946	1	8
351.143	1	2
352.340	1	8
353.537	1	-1
354.734	1	2
355.931	1	-1
357.127	1	3
358.324	1	-1
359.521	1	1
360.718	1	1
361.914	1	15
363.111	1	15
364.308	1	18
365.504	1	8
366.701	1	18
367.897	1	18
369.093	1	22
370.290	1	13
371.486	1	9
372.682	1	10
373.879	1	7
375.075	1	12
376.271	1	7
377.467	1	21
378.663	1	9
379.859	1	7
381.055	1	-2
382.251	1	1
383.447	1	6
384.643	1	4
385.839	1	4
387.035	1	8
388.230	1	5
389.426	1	5
390.622	1	6
391.817	1	9
393.013	1	16
394.208	1	2
395.404	1	-13
396.599	1	6
397.795	1	-2
398.990	1	3
400.186	1	10
401.381	1	5
402.576	1	5
403.771	1	16
404.967	1	9
406.162	1	3
407.357	1	8
408.552	1	-1
409.747	1	-2
410.942	1	4
412.137	1	3
413.332	1	5
414.526	1	3
415.721	1	4
416.916	1	3
418.111	1	2
419.305	1	3
420.500	1	9
421.695	1	2
422.889	1	7
424.084	1	10
425.278	1	-2
426.472	1	4
427.667	1	2
428.861	1	2
430.055	1	6
431.250	1	14
432.444	1	8
433.638	1	14
434.832	1	7
436.026	1	3
437.220	1	1
438.414	1	-13
439.608	1	21
440.802	1	-3
441.996	1	9
443.190	1	4
444.384	1	-9
445.578	1	4
446.771	1	2
447.965	1	3
449.159	1	8
450.352	1	5
451.546	1	15
452.739	1	12
453.933	1	4
455.126	1	-13
456.320	1	2
457.513	1	-1
458.706	1	9
459.899	1	5
461.093	1	9
462.286	1	4
463.479	1	14
464.672	1	9
465.865	1	0
467.058	1	1
468.251	1	8
469.444	1	4
470.637	1	9
471.830	1	3
473.023	1	3
474.215	1	2
475.408	1	5
476.601	1	3
477.793	1	-1
478.986	1	-1
480.179	1	-1
481.371	1	7
482.564	1	2
483.756	1	1
484.948	1	4
486.141	1	1
487.333	1	1
488.525	1	6
489.718	1	9
490.910	1	-10
492.102	1	7
493.294	1	0
494.486	1	11
495.678	1	5
496.870	1	1
498.062	1	-4
499.254	1	3
500.446	1	12
501.638	1	8
502.829	1	0
504.021	1	5
505.213	1	2
506.404	1	0
507.596	1	5
508.788	1	5
509.979	1	5
511.171	1	17
512.362	1	-1
513.553	1	5
514.745	1	0
515.936	1	17
517.127	1	4
518.319	1	1
519.510	1	13
520.701	1	0
521.892	1	6
523.083	1	6
524.274	1	-3
525.465	1	11
526.656	1	13
527.847	1	-5
529.038	1	-2
530.229	1	4
531.419	1	10
532.610	1	8
533.801	1	16
534.991	1	-1
536.182	1	9
537.373	1	14
538.563	1	12
539.754	1	5
540.944	1	6
542.134	1	4
543.325	1	5
544.515	1	8
545.705	1	6
546.896	1	8
548.086	1	-2
549.276	1	-1
550.466	1	10
551.656	1	-3
552.846	1	-3
554.036	1	-7
555.226	1	3
556.416	1	15
557.606	1	10
558.796	1	12
559.986	1	6
561.175	1	8
562.365	1	8
563.555	1	6
564.744	1	12
565.934	1	0
567.123	1	2
568.313	1	4
569.502	1	2
570.692	1	11
571.881	1	1
573.070	1	-2
574.260	1	8
575.449	1	11
576.638	1	4
577.827	1	-1
579.016	1	-3
580.205	1	8
581.394	1	1
582.583	1	13
583.772	1	12
584.961	1	-5
586.150	1	7
587.339	1	-3
588.528	1	5
589.717	1	8
590.905	1	14
592.094	1	6
593.283	1	-8
594.471	1	6
595.660	1	2
596.848	1	6
598.037	1	12
599.225	1	4
600.413	1	7
601.602	1	2
602.790	1	-3
603.978	1	5
605.166	1	7
606.355	1	9
607.543	1	2
608.731	1	3
609.919	1	12
611.107	1	10
612.295	1	8
613.483	1	1
614.671	1	10
615.858	1	-3
617.046	1	4
618.234	1	-3
619.422	1	7
620.609	1	-8
621.797	1	-3
622.985	1	13
624.172	1	5
625.360	1	2
626.547	1	17
627.735	1	-1
628.922	1	2
630.109	1	10
631.297	1	-3
632.484	1	-4
633.671	1	-3
634.858	1	9
636.045	1	12
637.232	1	0
638.419	1	6
639.606	1	4
640.793	1	-3
641.980	1	-2
643.167	1	2
644.354	1	-8
645.541	1	6
646.728	1	1
647.914	1	-5
649.101	1	-1
650.288	1	19
651.474	1	-2
652.661	1	0
653.847	1	-1
655.034	1	4
656.220	1	4
657.406	1	9
658.593	1	1
659.779	1	-5
660.965	1	2
662.152	1	-3
663.338	1	2
664.524	1	-8
665.710	1	2
666.896	1	-2
668.082	1	8
669.268	1	-5
670.454	1	2
671.640	1	-5
672.826	1	3
674.011	1	2
675.197	1	4
676.383	1	5
677.569	1	-3
678.754	1	1
679.940	1	-12
681.125	1	3
682.311	1	-10
683.496	1	-1
684.682	1	0
685.867	1	3
687.053	1	5
688.238	1	3
688.746	1	0