File: Data/GaN_130K_350ms/GaN_sample F_spot6_UVVIS_130 K_200um_350 ms 2x2mm1_26.txt
340.368	1	4
341.565	1	-9
342.763	1	5
343.960	1	-11
345.157	1	-4
346.354	1	3
347.552	1	3
348.749	1	4
349.946	1	10
351.143	1	7
352.340	1	-4
353.537	1	10
354.734	1	-1
355.931	1	4
357.127	1	0
358.324	1	2
359.521	1	-8
360.718	1	8
361.914	1	1
363.111	1	7
364.308	1	3
365.504	1	0
366.701	1	7
367.897	1	3
369.093	1	2
370.290	1	13
371.486	1	0
372.682	1	-8
373.879	1	7
375.075	1	7
376.271	1	10
377.467	1	8
378.663	1	-2
379.859	1	-3
381.055	1	4
382.251	1	0
383.447	1	7
384.643	1	5
385.839	1	11
387.035	1	2
388.230	1	1
389.426	1	5
390.622	1	-7
391.817	1	1
393.013	1	1
394.208	1	-7
395.404	1	-14
396.599	1	2
397.795	1	-7
398.990	1	-8
400.186	1	-2
401.381	1	-8
402.576	1	-1
403.771	1	4
404.967	1	2
406.162	1	-7
407.357	1	-9
408.552	1	-6
409.747	1	-1
410.942	1	4
412.137	1	-7
413.332	1	-5
414.526	1	3
415.721	1	5
416.916	1	-6
418.111	1	3
419.305	1	3
420.500	1	-4
421.695	1	-4
422.889	1	-1
424.084	1	7
425.278	1	-4
426.472	1	4
427.667	1	8
428.861	1	-7
430.055	1	-4
431.250	1	1
432.444	1	5
433.638	1	1
434.832	1	-2
436.026	1	8
437.220	1	-3
438.414	1	-10
439.608	1	11
440.802	1	-9
441.996	1	0
443.190	1	-4
444.384	1	-4
445.578	1	-7
446.771	1	5
447.965	1	9
449.159	1	4
450.352	1	7
451.546	1	11
452.739	1	8
453.933	1	-2
455.126	1	-8
456.320	1	-4
457.513	1	-9
458.706	1	2
459.899	1	7
461.093	1	4
462.286	1	9
463.479	1	7
464.672	1	11
465.865	1	-1
467.058	1	6
468.251	1	-1
469.444	1	5
470.637	1	-1
471.830	1	6
473.023	1	6
474.215	1	2
475.408	1	4
476.601	1	5
477.793	1	-1
478.986	1	1
480.179	1	-4
481.371	1	13
482.564	1	-11
483.756	1	-4
484.948	1	3
486.141	1	-5
487.333	1	-1
488.525	1	5
489.718	1	1
490.910	1	1
492.102	1	6
493.294	1	5
494.486	1	8
495.678	1	-2
496.870	1	1
498.062	1	-9
499.254	1	-5
500.446	1	-1
501.638	1	1
502.829	1	-6
504.021	1	4
505.213	1	5
506.404	1	4
507.596	1	-2
508.788	1	-2
509.979	1	-2
511.171	1	2
512.362	1	-7
513.553	1	14
514.745	1	-7
515.936	1	10
517.127	1	1
518.319	1	-10
519.510	1	-6
520.701	1	-7
521.892	1	5
523.083	1	-2
524.274	1	-11
525.465	1	0
526.656	1	5
527.847	1	2
529.038	1	-9
530.229	1	3
531.419	1	12
532.610	1	5
533.801	1	15
534.991	1	0
536.182	1	-1
537.373	1	-1
538.563	1	3
539.754	1	-8
540.944	1	7
542.134	1	-1
543.325	1	-3
544.515	1	-2
545.705	1	-4
546.896	1	1
548.086	1	-6
549.276	1	-4
550.466	1	3
551.656	1	4
552.846	1	-6
554.036	1	-4
555.226	1	7
556.416	1	3
557.606	1	-4
558.796	1	11
559.986	1	0
561.175	1	6
562.365	1	-4
563.555	1	9
564.744	1	6
565.934	1	2
567.123	1	-2
568.313	1	-8
569.502	1	-3
570.692	1	13
571.881	1	-3
573.070	1	2
574.260	1	-6
575.449	1	0
576.638	1	-2
577.827	1	-2
579.016	1	8
580.205	1	3
581.394	1	1
582.583	1	10
583.772	1	7
584.961	1	-7
586.150	1	5
587.339	1	1
588.528	1	5
589.717	1	1
590.905	1	11
592.094	1	-4
593.283	1	-3
594.471	1	-2
595.660	1	0
596.848	1	2
598.037	1	14
599.225	1	2
600.413	1	6
601.602	1	-4
602.790	1	-4
603.978	1	1
605.166	1	8
606.355	1	2
607.543	1	6
608.731	1	-2
609.919	1	8
611.107	1	10
612.295	1	9
613.483	1	-1
614.671	1	7
615.858	1	-7
617.046	1	2
618.234	1	-1
619.422	1	1
620.609	1	0
621.797	1	-6
622.985	1	0
624.172	1	8
625.360	1	0
626.547	1	-1
627.735	1	4
628.922	1	-1
630.109	1	2
631.297	1	5
632.484	1	2
633.671	1	-5
634.858	1	3
636.045	1	15
637.232	1	3
638.419	1	5
639.606	1	2
640.793	1	-4
641.980	1	-10
643.167	1	3
644.354	1	2
645.541	1	-6
646.728	1	0
647.914	1	-6
649.101	1	-5
650.288	1	12
651.474	1	-7
652.661	1	-10
653.847	1	-2
655.034	1	5
656.220	1	2
657.406	1	-2
658.593	1	-2
659.779	1	5
660.965	1	2
662.152	1	0
663.338	1	3
664.524	1	-3
665.710	1	7
666.896	1	-4
668.082	1	6
669.268	1	1
670.454	1	-5
671.640	1	-8
672.826	1	3
674.011	1	1
675.197	1	1
676.383	1	10
677.569	1	2
678.754	1	8
679.940	1	2
681.125	1	8
682.311	1	-8
683.496	1	-4
684.682	1	-8
685.867	1	-2
687.053	1	0
688.238	1	6
688.746	1	9