File: Data/GaN_130K_350ms/GaN_sample F_spot6_UVVIS_130 K_200um_350 ms 2x2mm1_103.txt
340.368	1	9
341.565	1	0
342.763	1	3
343.960	1	-9
345.157	1	-3
346.354	1	-1
347.552	1	7
348.749	1	5
349.946	1	4
351.143	1	6
352.340	1	9
353.537	1	4
354.734	1	9
355.931	1	21
357.127	1	9
358.324	1	14
359.521	1	18
360.718	1	39
361.914	1	33
363.111	1	57
364.308	1	74
365.504	1	86
366.701	1	101
367.897	1	108
369.093	1	106
370.290	1	101
371.486	1	81
372.682	1	76
373.879	1	52
375.075	1	55
376.271	1	54
377.467	1	48
378.663	1	35
379.859	1	27
381.055	1	27
382.251	1	25
383.447	1	26
384.643	1	29
385.839	1	25
387.035	1	33
388.230	1	16
389.426	1	31
390.622	1	21
391.817	1	29
393.013	1	20
394.208	1	17
395.404	1	1
396.599	1	20
397.795	1	8
398.990	1	12
400.186	1	13
401.381	1	17
402.576	1	17
403.771	1	18
404.967	1	11
406.162	1	16
407.357	1	21
408.552	1	7
409.747	1	11
410.942	1	8
412.137	1	-1
413.332	1	5
414.526	1	15
415.721	1	4
416.916	1	5
418.111	1	6
419.305	1	10
420.500	1	14
421.695	1	1
422.889	1	8
424.084	1	21
425.278	1	7
426.472	1	6
427.667	1	20
428.861	1	-5
430.055	1	-3
431.250	1	16
432.444	1	9
433.638	1	4
434.832	1	12
436.026	1	14
437.220	1	-3
438.414	1	9
439.608	1	13
440.802	1	0
441.996	1	10
443.190	1	11
444.384	1	2
445.578	1	4
446.771	1	11
447.965	1	-3
449.159	1	4
450.352	1	8
451.546	1	16
452.739	1	10
453.933	1	6
455.126	1	-5
456.320	1	1
457.513	1	8
458.706	1	12
459.899	1	6
461.093	1	9
462.286	1	9
463.479	1	15
464.672	1	1
465.865	1	-1
467.058	1	14
468.251	1	9
469.444	1	2
470.637	1	12
471.830	1	4
473.023	1	9
474.215	1	8
475.408	1	6
476.601	1	4
477.793	1	-2
478.986	1	5
480.179	1	5
481.371	1	24
482.564	1	1
483.756	1	9
484.948	1	4
486.141	1	5
487.333	1	9
488.525	1	17
489.718	1	11
490.910	1	9
492.102	1	18
493.294	1	18
494.486	1	17
495.678	1	17
496.870	1	20
498.062	1	13
499.254	1	22
500.446	1	23
501.638	1	26
502.829	1	18
504.021	1	19
505.213	1	26
506.404	1	19
507.596	1	22
508.788	1	29
509.979	1	27
511.171	1	37
512.362	1	32
513.553	1	43
514.745	1	40
515.936	1	51
517.127	1	37
518.319	1	32
519.510	1	34
520.701	1	37
521.892	1	38
523.083	1	46
524.274	1	37
525.465	1	38
526.656	1	43
527.847	1	43
529.038	1	30
530.229	1	37
531.419	1	39
532.610	1	41
533.801	1	50
534.991	1	41
536.182	1	46
537.373	1	33
538.563	1	46
539.754	1	37
540.944	1	42
542.134	1	40
543.325	1	33
544.515	1	45
545.705	1	33
546.896	1	41
548.086	1	28
549.276	1	33
550.466	1	32
551.656	1	35
552.846	1	25
554.036	1	35
555.226	1	42
556.416	1	37
557.606	1	27
558.796	1	33
559.986	1	24
561.175	1	31
562.365	1	27
563.555	1	30
564.744	1	23
565.934	1	27
567.123	1	25
568.313	1	5
569.502	1	27
570.692	1	28
571.881	1	20
573.070	1	15
574.260	1	9
575.449	1	18
576.638	1	9
577.827	1	8
579.016	1	16
580.205	1	12
581.394	1	11
582.583	1	21
583.772	1	16
584.961	1	10
586.150	1	21
587.339	1	17
588.528	1	16
589.717	1	8
590.905	1	22
592.094	1	8
593.283	1	8
594.471	1	6
595.660	1	5
596.848	1	12
598.037	1	11
599.225	1	12
600.413	1	8
601.602	1	10
602.790	1	14
603.978	1	11
605.166	1	9
606.355	1	6
607.543	1	13
608.731	1	8
609.919	1	8
611.107	1	9
612.295	1	12
613.483	1	6
614.671	1	4
615.858	1	3
617.046	1	13
618.234	1	10
619.422	1	8
620.609	1	-8
621.797	1	4
622.985	1	18
624.172	1	-3
625.360	1	1
626.547	1	7
627.735	1	14
628.922	1	1
630.109	1	11
631.297	1	4
632.484	1	-9
633.671	1	-2
634.858	1	10
636.045	1	16
637.232	1	1
638.419	1	13
639.606	1	15
640.793	1	-7
641.980	1	3
643.167	1	9
644.354	1	-1
645.541	1	16
646.728	1	3
647.914	1	-6
649.101	1	3
650.288	1	3
651.474	1	4
652.661	1	4
653.847	1	-4
655.034	1	11
656.220	1	7
657.406	1	9
658.593	1	6
659.779	1	0
660.965	1	3
662.152	1	2
663.338	1	4
664.524	1	3
665.710	1	2
666.896	1	6
668.082	1	10
669.268	1	7
670.454	1	-1
671.640	1	-6
672.826	1	5
674.011	1	5
675.197	1	4
676.383	1	8
677.569	1	7
678.754	1	9
679.940	1	-1
681.125	1	17
682.311	1	-3
683.496	1	-3
684.682	1	-6
685.867	1	2
687.053	1	8
688.238	1	18
688.746	1	13