File: Data/GaN_130K_350ms/GaN_sample F_spot6_UVVIS_130 K_200um_350 ms 2x2mm1_257.txt
340.368	1	2
341.565	1	2
342.763	1	0
343.960	1	-13
345.157	1	-10
346.354	1	0
347.552	1	-1
348.749	1	0
349.946	1	12
351.143	1	7
352.340	1	8
353.537	1	2
354.734	1	6
355.931	1	4
357.127	1	1
358.324	1	-1
359.521	1	-5
360.718	1	3
361.914	1	3
363.111	1	12
364.308	1	15
365.504	1	5
366.701	1	4
367.897	1	10
369.093	1	10
370.290	1	3
371.486	1	4
372.682	1	4
373.879	1	4
375.075	1	10
376.271	1	4
377.467	1	18
378.663	1	9
379.859	1	2
381.055	1	12
382.251	1	2
383.447	1	7
384.643	1	5
385.839	1	14
387.035	1	11
388.230	1	4
389.426	1	2
390.622	1	16
391.817	1	12
393.013	1	5
394.208	1	1
395.404	1	-6
396.599	1	8
397.795	1	-1
398.990	1	0
400.186	1	-2
401.381	1	-1
402.576	1	8
403.771	1	10
404.967	1	5
406.162	1	1
407.357	1	1
408.552	1	-1
409.747	1	2
410.942	1	4
412.137	1	-1
413.332	1	3
414.526	1	6
415.721	1	6
416.916	1	-2
418.111	1	4
419.305	1	7
420.500	1	7
421.695	1	4
422.889	1	-2
424.084	1	2
425.278	1	8
426.472	1	5
427.667	1	7
428.861	1	6
430.055	1	-1
431.250	1	10
432.444	1	9
433.638	1	10
434.832	1	-3
436.026	1	9
437.220	1	5
438.414	1	6
439.608	1	18
440.802	1	2
441.996	1	18
443.190	1	0
444.384	1	-5
445.578	1	3
446.771	1	-1
447.965	1	4
449.159	1	0
450.352	1	4
451.546	1	12
452.739	1	13
453.933	1	2
455.126	1	-5
456.320	1	0
457.513	1	-7
458.706	1	-3
459.899	1	0
461.093	1	8
462.286	1	6
463.479	1	20
464.672	1	8
465.865	1	2
467.058	1	4
468.251	1	-5
469.444	1	11
470.637	1	3
471.830	1	2
473.023	1	8
474.215	1	-2
475.408	1	3
476.601	1	-4
477.793	1	-11
478.986	1	0
480.179	1	-3
481.371	1	2
482.564	1	-4
483.756	1	1
484.948	1	3
486.141	1	0
487.333	1	-9
488.525	1	11
489.718	1	8
490.910	1	5
492.102	1	5
493.294	1	10
494.486	1	8
495.678	1	1
496.870	1	-6
498.062	1	-1
499.254	1	10
500.446	1	5
501.638	1	-3
502.829	1	0
504.021	1	-9
505.213	1	2
506.404	1	6
507.596	1	3
508.788	1	-5
509.979	1	-4
511.171	1	13
512.362	1	0
513.553	1	9
514.745	1	1
515.936	1	23
517.127	1	8
518.319	1	-3
519.510	1	1
520.701	1	2
521.892	1	14
523.083	1	5
524.274	1	-6
525.465	1	14
526.656	1	1
527.847	1	4
529.038	1	-3
530.229	1	8
531.419	1	8
532.610	1	3
533.801	1	14
534.991	1	7
536.182	1	0
537.373	1	2
538.563	1	14
539.754	1	6
540.944	1	-7
542.134	1	-3
543.325	1	0
544.515	1	13
545.705	1	1
546.896	1	5
548.086	1	-1
549.276	1	-4
550.466	1	8
551.656	1	2
552.846	1	-5
554.036	1	6
555.226	1	2
556.416	1	3
557.606	1	-3
558.796	1	15
559.986	1	9
561.175	1	4
562.365	1	7
563.555	1	10
564.744	1	4
565.934	1	-3
567.123	1	5
568.313	1	1
569.502	1	-9
570.692	1	7
571.881	1	2
573.070	1	8
574.260	1	0
575.449	1	4
576.638	1	-5
577.827	1	2
579.016	1	0
580.205	1	-3
581.394	1	3
582.583	1	7
583.772	1	2
584.961	1	-3
586.150	1	18
587.339	1	4
588.528	1	-4
589.717	1	-1
590.905	1	7
592.094	1	3
593.283	1	-4
594.471	1	3
595.660	1	-7
596.848	1	-1
598.037	1	3
599.225	1	0
600.413	1	-1
601.602	1	3
602.790	1	2
603.978	1	3
605.166	1	12
606.355	1	5
607.543	1	-5
608.731	1	-1
609.919	1	12
611.107	1	4
612.295	1	6
613.483	1	-1
614.671	1	-4
615.858	1	-5
617.046	1	3
618.234	1	7
619.422	1	-3
620.609	1	-1
621.797	1	0
622.985	1	7
624.172	1	0
625.360	1	1
626.547	1	6
627.735	1	4
628.922	1	-3
630.109	1	10
631.297	1	-1
632.484	1	-8
633.671	1	-5
634.858	1	10
636.045	1	11
637.232	1	-7
638.419	1	3
639.606	1	9
640.793	1	-8
641.980	1	2
643.167	1	3
644.354	1	7
645.541	1	-4
646.728	1	8
647.914	1	-1
649.101	1	-2
650.288	1	6
651.474	1	0
652.661	1	4
653.847	1	1
655.034	1	-3
656.220	1	-1
657.406	1	-5
658.593	1	-1
659.779	1	7
660.965	1	4
662.152	1	-3
663.338	1	-1
664.524	1	-5
665.710	1	0
666.896	1	9
668.082	1	-1
669.268	1	-3
670.454	1	-4
671.640	1	-12
672.826	1	4
674.011	1	4
675.197	1	2
676.383	1	0
677.569	1	-4
678.754	1	5
679.940	1	-6
681.125	1	10
682.311	1	-5
683.496	1	-11
684.682	1	-6
685.867	1	1
687.053	1	4
688.238	1	8
688.746	1	7