File: Data/GaN_130K_350ms/GaN_sample F_spot6_UVVIS_130 K_200um_350 ms 2x2mm1_1.txt
340.368	1	3
341.565	1	6
342.763	1	3
343.960	1	-17
345.157	1	-7
346.354	1	-6
347.552	1	5
348.749	1	-3
349.946	1	3
351.143	1	-5
352.340	1	10
353.537	1	-2
354.734	1	0
355.931	1	5
357.127	1	-2
358.324	1	4
359.521	1	-5
360.718	1	2
361.914	1	10
363.111	1	9
364.308	1	5
365.504	1	-2
366.701	1	7
367.897	1	-4
369.093	1	3
370.290	1	3
371.486	1	3
372.682	1	0
373.879	1	5
375.075	1	7
376.271	1	-4
377.467	1	12
378.663	1	5
379.859	1	7
381.055	1	-3
382.251	1	3
383.447	1	5
384.643	1	-4
385.839	1	7
387.035	1	5
388.230	1	-6
389.426	1	0
390.622	1	4
391.817	1	3
393.013	1	-1
394.208	1	-14
395.404	1	-16
396.599	1	-3
397.795	1	-13
398.990	1	-2
400.186	1	1
401.381	1	1
402.576	1	-1
403.771	1	4
404.967	1	-2
406.162	1	2
407.357	1	-8
408.552	1	1
409.747	1	-2
410.942	1	-6
412.137	1	-5
413.332	1	-5
414.526	1	-4
415.721	1	0
416.916	1	-5
418.111	1	9
419.305	1	-2
420.500	1	-5
421.695	1	0
422.889	1	1
424.084	1	0
425.278	1	-12
426.472	1	0
427.667	1	11
428.861	1	0
430.055	1	-2
431.250	1	0
432.444	1	-2
433.638	1	2
434.832	1	4
436.026	1	-5
437.220	1	4
438.414	1	-2
439.608	1	7
440.802	1	-7
441.996	1	11
443.190	1	9
444.384	1	-3
445.578	1	-4
446.771	1	7
447.965	1	2
449.159	1	-2
450.352	1	4
451.546	1	4
452.739	1	2
453.933	1	0
455.126	1	-12
456.320	1	-5
457.513	1	-9
458.706	1	-5
459.899	1	-7
461.093	1	6
462.286	1	1
463.479	1	11
464.672	1	-2
465.865	1	-6
467.058	1	10
468.251	1	4
469.444	1	-5
470.637	1	3
471.830	1	0
473.023	1	1
474.215	1	-2
475.408	1	-1
476.601	1	-1
477.793	1	2
478.986	1	-9
480.179	1	2
481.371	1	13
482.564	1	-4
483.756	1	4
484.948	1	-6
486.141	1	3
487.333	1	-6
488.525	1	4
489.718	1	2
490.910	1	-2
492.102	1	7
493.294	1	9
494.486	1	3
495.678	1	-5
496.870	1	5
498.062	1	-1
499.254	1	3
500.446	1	1
501.638	1	-6
502.829	1	-1
504.021	1	-21
505.213	1	5
506.404	1	-8
507.596	1	0
508.788	1	9
509.979	1	-4
511.171	1	8
512.362	1	-7
513.553	1	-1
514.745	1	-4
515.936	1	3
517.127	1	-3
518.319	1	-3
519.510	1	-4
520.701	1	-4
521.892	1	4
523.083	1	-6
524.274	1	-15
525.465	1	4
526.656	1	-6
527.847	1	-7
529.038	1	-7
530.229	1	2
531.419	1	4
532.610	1	-2
533.801	1	5
534.991	1	-6
536.182	1	1
537.373	1	3
538.563	1	0
539.754	1	-3
540.944	1	-5
542.134	1	-6
543.325	1	-3
544.515	1	0
545.705	1	-5
546.896	1	0
548.086	1	-5
549.276	1	-11
550.466	1	3
551.656	1	2
552.846	1	0
554.036	1	5
555.226	1	19
556.416	1	7
557.606	1	-18
558.796	1	9
559.986	1	-3
561.175	1	-3
562.365	1	-2
563.555	1	8
564.744	1	3
565.934	1	-1
567.123	1	-9
568.313	1	-1
569.502	1	3
570.692	1	16
571.881	1	2
573.070	1	1
574.260	1	3
575.449	1	7
576.638	1	-5
577.827	1	-12
579.016	1	3
580.205	1	-5
581.394	1	6
582.583	1	8
583.772	1	-4
584.961	1	-10
586.150	1	-3
587.339	1	-7
588.528	1	4
589.717	1	0
590.905	1	8
592.094	1	-1
593.283	1	-17
594.471	1	-7
595.660	1	-5
596.848	1	3
598.037	1	1
599.225	1	-2
600.413	1	13
601.602	1	-1
602.790	1	-2
603.978	1	-2
605.166	1	8
606.355	1	9
607.543	1	3
608.731	1	-1
609.919	1	4
611.107	1	5
612.295	1	13
613.483	1	-2
614.671	1	4
615.858	1	-8
617.046	1	2
618.234	1	6
619.422	1	-2
620.609	1	-5
621.797	1	8
622.985	1	1
624.172	1	-1
625.360	1	-6
626.547	1	-3
627.735	1	6
628.922	1	-11
630.109	1	-1
631.297	1	-7
632.484	1	-10
633.671	1	-14
634.858	1	8
636.045	1	13
637.232	1	-13
638.419	1	6
639.606	1	-4
640.793	1	-12
641.980	1	-1
643.167	1	2
644.354	1	-6
645.541	1	1
646.728	1	7
647.914	1	-1
649.101	1	-1
650.288	1	-2
651.474	1	-3
652.661	1	-7
653.847	1	-2
655.034	1	2
656.220	1	-1
657.406	1	0
658.593	1	-2
659.779	1	-6
660.965	1	-2
662.152	1	0
663.338	1	-6
664.524	1	0
665.710	1	2
666.896	1	14
668.082	1	-6
669.268	1	-9
670.454	1	1
671.640	1	-4
672.826	1	0
674.011	1	3
675.197	1	-11
676.383	1	-1
677.569	1	-1
678.754	1	-2
679.940	1	3
681.125	1	9
682.311	1	-6
683.496	1	0
684.682	1	2
685.867	1	-4
687.053	1	-5
688.238	1	9
688.746	1	-4