File: Data/GaN_130K_350ms/GaN_sample F_spot6_UVVIS_130 K_200um_350 ms 2x2mm1_25.txt
340.368	1	-1
341.565	1	5
342.763	1	2
343.960	1	-6
345.157	1	-10
346.354	1	0
347.552	1	4
348.749	1	6
349.946	1	0
351.143	1	2
352.340	1	6
353.537	1	0
354.734	1	-2
355.931	1	4
357.127	1	4
358.324	1	-3
359.521	1	-5
360.718	1	3
361.914	1	2
363.111	1	2
364.308	1	9
365.504	1	0
366.701	1	-5
367.897	1	-7
369.093	1	8
370.290	1	0
371.486	1	2
372.682	1	-4
373.879	1	5
375.075	1	1
376.271	1	11
377.467	1	8
378.663	1	4
379.859	1	-1
381.055	1	3
382.251	1	1
383.447	1	-8
384.643	1	3
385.839	1	6
387.035	1	3
388.230	1	1
389.426	1	4
390.622	1	5
391.817	1	4
393.013	1	6
394.208	1	-3
395.404	1	-11
396.599	1	6
397.795	1	-2
398.990	1	7
400.186	1	-12
401.381	1	5
402.576	1	0
403.771	1	7
404.967	1	2
406.162	1	-2
407.357	1	-4
408.552	1	1
409.747	1	-3
410.942	1	-2
412.137	1	-2
413.332	1	0
414.526	1	-6
415.721	1	-2
416.916	1	2
418.111	1	8
419.305	1	7
420.500	1	4
421.695	1	-2
422.889	1	-1
424.084	1	1
425.278	1	-12
426.472	1	5
427.667	1	2
428.861	1	2
430.055	1	-1
431.250	1	3
432.444	1	2
433.638	1	-5
434.832	1	-8
436.026	1	-2
437.220	1	-9
438.414	1	-5
439.608	1	3
440.802	1	-10
441.996	1	8
443.190	1	1
444.384	1	-3
445.578	1	4
446.771	1	-9
447.965	1	1
449.159	1	4
450.352	1	10
451.546	1	0
452.739	1	4
453.933	1	9
455.126	1	-7
456.320	1	1
457.513	1	-4
458.706	1	-8
459.899	1	-5
461.093	1	5
462.286	1	12
463.479	1	7
464.672	1	7
465.865	1	-8
467.058	1	0
468.251	1	16
469.444	1	-5
470.637	1	6
471.830	1	7
473.023	1	5
474.215	1	-1
475.408	1	5
476.601	1	-3
477.793	1	2
478.986	1	-4
480.179	1	-6
481.371	1	7
482.564	1	7
483.756	1	0
484.948	1	2
486.141	1	-3
487.333	1	-5
488.525	1	-3
489.718	1	0
490.910	1	-2
492.102	1	7
493.294	1	14
494.486	1	14
495.678	1	-5
496.870	1	-1
498.062	1	-4
499.254	1	0
500.446	1	5
501.638	1	-2
502.829	1	-1
504.021	1	-4
505.213	1	-1
506.404	1	3
507.596	1	-5
508.788	1	-2
509.979	1	0
511.171	1	4
512.362	1	-6
513.553	1	1
514.745	1	1
515.936	1	10
517.127	1	5
518.319	1	-11
519.510	1	0
520.701	1	5
521.892	1	1
523.083	1	-3
524.274	1	-10
525.465	1	9
526.656	1	4
527.847	1	8
529.038	1	-10
530.229	1	8
531.419	1	1
532.610	1	6
533.801	1	11
534.991	1	5
536.182	1	9
537.373	1	2
538.563	1	8
539.754	1	-6
540.944	1	5
542.134	1	-2
543.325	1	0
544.515	1	1
545.705	1	-3
546.896	1	-1
548.086	1	-6
549.276	1	-3
550.466	1	8
551.656	1	10
552.846	1	-9
554.036	1	-3
555.226	1	5
556.416	1	-3
557.606	1	-10
558.796	1	10
559.986	1	7
561.175	1	2
562.365	1	11
563.555	1	3
564.744	1	-11
565.934	1	-1
567.123	1	2
568.313	1	-3
569.502	1	-2
570.692	1	6
571.881	1	3
573.070	1	-4
574.260	1	13
575.449	1	1
576.638	1	-4
577.827	1	-3
579.016	1	-8
580.205	1	-2
581.394	1	-2
582.583	1	7
583.772	1	4
584.961	1	-4
586.150	1	3
587.339	1	3
588.528	1	10
589.717	1	-3
590.905	1	11
592.094	1	-7
593.283	1	-12
594.471	1	7
595.660	1	1
596.848	1	6
598.037	1	1
599.225	1	7
600.413	1	15
601.602	1	-4
602.790	1	5
603.978	1	3
605.166	1	3
606.355	1	5
607.543	1	3
608.731	1	4
609.919	1	4
611.107	1	11
612.295	1	5
613.483	1	-4
614.671	1	5
615.858	1	-8
617.046	1	7
618.234	1	3
619.422	1	-1
620.609	1	-12
621.797	1	4
622.985	1	11
624.172	1	2
625.360	1	-6
626.547	1	-7
627.735	1	1
628.922	1	-1
630.109	1	2
631.297	1	-2
632.484	1	-9
633.671	1	-5
634.858	1	14
636.045	1	7
637.232	1	-4
638.419	1	11
639.606	1	4
640.793	1	-14
641.980	1	-4
643.167	1	2
644.354	1	-2
645.541	1	-2
646.728	1	4
647.914	1	-6
649.101	1	-2
650.288	1	5
651.474	1	-4
652.661	1	-11
653.847	1	-1
655.034	1	-3
656.220	1	4
657.406	1	-3
658.593	1	3
659.779	1	1
660.965	1	0
662.152	1	3
663.338	1	3
664.524	1	-1
665.710	1	9
666.896	1	5
668.082	1	4
669.268	1	-6
670.454	1	7
671.640	1	-6
672.826	1	-3
674.011	1	1
675.197	1	2
676.383	1	5
677.569	1	1
678.754	1	9
679.940	1	1
681.125	1	11
682.311	1	-3
683.496	1	-1
684.682	1	-3
685.867	1	4
687.053	1	0
688.238	1	3
688.746	1	5