File: Data/GaN_130K_350ms/GaN_sample F_spot6_UVVIS_130 K_200um_350 ms 2x2mm1_205.txt
340.368	1	7
341.565	1	2
342.763	1	2
343.960	1	-11
345.157	1	-7
346.354	1	7
347.552	1	0
348.749	1	9
349.946	1	7
351.143	1	2
352.340	1	12
353.537	1	0
354.734	1	3
355.931	1	5
357.127	1	3
358.324	1	-3
359.521	1	-2
360.718	1	15
361.914	1	12
363.111	1	20
364.308	1	19
365.504	1	17
366.701	1	14
367.897	1	15
369.093	1	11
370.290	1	18
371.486	1	11
372.682	1	7
373.879	1	22
375.075	1	26
376.271	1	13
377.467	1	16
378.663	1	9
379.859	1	2
381.055	1	10
382.251	1	13
383.447	1	3
384.643	1	19
385.839	1	6
387.035	1	18
388.230	1	2
389.426	1	6
390.622	1	4
391.817	1	20
393.013	1	8
394.208	1	-2
395.404	1	1
396.599	1	11
397.795	1	-8
398.990	1	7
400.186	1	-1
401.381	1	11
402.576	1	3
403.771	1	9
404.967	1	2
406.162	1	3
407.357	1	3
408.552	1	1
409.747	1	-1
410.942	1	5
412.137	1	4
413.332	1	-2
414.526	1	11
415.721	1	5
416.916	1	4
418.111	1	11
419.305	1	1
420.500	1	10
421.695	1	7
422.889	1	6
424.084	1	0
425.278	1	3
426.472	1	2
427.667	1	11
428.861	1	6
430.055	1	3
431.250	1	10
432.444	1	6
433.638	1	9
434.832	1	7
436.026	1	12
437.220	1	6
438.414	1	7
439.608	1	13
440.802	1	-7
441.996	1	15
443.190	1	4
444.384	1	-5
445.578	1	-5
446.771	1	0
447.965	1	0
449.159	1	2
450.352	1	2
451.546	1	6
452.739	1	3
453.933	1	7
455.126	1	0
456.320	1	2
457.513	1	-4
458.706	1	-3
459.899	1	2
461.093	1	14
462.286	1	10
463.479	1	10
464.672	1	7
465.865	1	-13
467.058	1	10
468.251	1	8
469.444	1	-7
470.637	1	3
471.830	1	-3
473.023	1	9
474.215	1	1
475.408	1	2
476.601	1	6
477.793	1	-1
478.986	1	-1
480.179	1	3
481.371	1	13
482.564	1	-1
483.756	1	4
484.948	1	3
486.141	1	-4
487.333	1	0
488.525	1	7
489.718	1	4
490.910	1	-9
492.102	1	4
493.294	1	9
494.486	1	10
495.678	1	6
496.870	1	5
498.062	1	3
499.254	1	10
500.446	1	7
501.638	1	2
502.829	1	6
504.021	1	4
505.213	1	9
506.404	1	-2
507.596	1	5
508.788	1	4
509.979	1	-3
511.171	1	14
512.362	1	3
513.553	1	8
514.745	1	2
515.936	1	10
517.127	1	6
518.319	1	-10
519.510	1	5
520.701	1	-1
521.892	1	15
523.083	1	4
524.274	1	2
525.465	1	10
526.656	1	6
527.847	1	7
529.038	1	4
530.229	1	4
531.419	1	4
532.610	1	6
533.801	1	7
534.991	1	2
536.182	1	3
537.373	1	2
538.563	1	13
539.754	1	11
540.944	1	16
542.134	1	3
543.325	1	4
544.515	1	7
545.705	1	0
546.896	1	5
548.086	1	2
549.276	1	-4
550.466	1	16
551.656	1	0
552.846	1	10
554.036	1	3
555.226	1	0
556.416	1	13
557.606	1	8
558.796	1	9
559.986	1	1
561.175	1	2
562.365	1	5
563.555	1	2
564.744	1	6
565.934	1	-2
567.123	1	9
568.313	1	2
569.502	1	3
570.692	1	12
571.881	1	-3
573.070	1	0
574.260	1	1
575.449	1	6
576.638	1	0
577.827	1	-1
579.016	1	-1
580.205	1	-3
581.394	1	5
582.583	1	16
583.772	1	6
584.961	1	4
586.150	1	12
587.339	1	2
588.528	1	10
589.717	1	-5
590.905	1	10
592.094	1	-6
593.283	1	-7
594.471	1	2
595.660	1	4
596.848	1	13
598.037	1	6
599.225	1	8
600.413	1	13
601.602	1	2
602.790	1	5
603.978	1	9
605.166	1	8
606.355	1	5
607.543	1	14
608.731	1	2
609.919	1	8
611.107	1	16
612.295	1	16
613.483	1	2
614.671	1	5
615.858	1	-4
617.046	1	4
618.234	1	10
619.422	1	5
620.609	1	-6
621.797	1	-8
622.985	1	-1
624.172	1	-1
625.360	1	4
626.547	1	6
627.735	1	10
628.922	1	2
630.109	1	9
631.297	1	0
632.484	1	-7
633.671	1	-7
634.858	1	7
636.045	1	10
637.232	1	0
638.419	1	4
639.606	1	5
640.793	1	-9
641.980	1	-12
643.167	1	12
644.354	1	-1
645.541	1	3
646.728	1	11
647.914	1	-6
649.101	1	-12
650.288	1	3
651.474	1	-10
652.661	1	-1
653.847	1	7
655.034	1	4
656.220	1	5
657.406	1	5
658.593	1	-1
659.779	1	-4
660.965	1	-7
662.152	1	-6
663.338	1	0
664.524	1	-9
665.710	1	1
666.896	1	2
668.082	1	1
669.268	1	5
670.454	1	7
671.640	1	-7
672.826	1	3
674.011	1	-2
675.197	1	4
676.383	1	12
677.569	1	10
678.754	1	7
679.940	1	-3
681.125	1	7
682.311	1	-10
683.496	1	6
684.682	1	0
685.867	1	5
687.053	1	-5
688.238	1	8
688.746	1	2