File: Data/GaN_130K_350ms/GaN_sample F_spot6_UVVIS_130 K_200um_350 ms 2x2mm1_210.txt
340.368	1	8
341.565	1	5
342.763	1	-6
343.960	1	-7
345.157	1	-5
346.354	1	-6
347.552	1	-11
348.749	1	-3
349.946	1	5
351.143	1	-5
352.340	1	14
353.537	1	4
354.734	1	-4
355.931	1	7
357.127	1	11
358.324	1	5
359.521	1	1
360.718	1	3
361.914	1	8
363.111	1	12
364.308	1	14
365.504	1	24
366.701	1	20
367.897	1	10
369.093	1	9
370.290	1	21
371.486	1	19
372.682	1	10
373.879	1	14
375.075	1	13
376.271	1	17
377.467	1	18
378.663	1	12
379.859	1	3
381.055	1	3
382.251	1	10
383.447	1	7
384.643	1	10
385.839	1	19
387.035	1	19
388.230	1	-6
389.426	1	4
390.622	1	10
391.817	1	11
393.013	1	12
394.208	1	-2
395.404	1	-7
396.599	1	5
397.795	1	-7
398.990	1	7
400.186	1	0
401.381	1	4
402.576	1	3
403.771	1	12
404.967	1	3
406.162	1	-4
407.357	1	1
408.552	1	-1
409.747	1	4
410.942	1	6
412.137	1	-2
413.332	1	-4
414.526	1	9
415.721	1	-5
416.916	1	4
418.111	1	3
419.305	1	-3
420.500	1	11
421.695	1	3
422.889	1	12
424.084	1	13
425.278	1	3
426.472	1	2
427.667	1	14
428.861	1	-2
430.055	1	2
431.250	1	5
432.444	1	4
433.638	1	8
434.832	1	0
436.026	1	7
437.220	1	-1
438.414	1	-7
439.608	1	10
440.802	1	-1
441.996	1	12
443.190	1	7
444.384	1	0
445.578	1	1
446.771	1	15
447.965	1	3
449.159	1	7
450.352	1	9
451.546	1	12
452.739	1	-4
453.933	1	0
455.126	1	-10
456.320	1	8
457.513	1	6
458.706	1	9
459.899	1	1
461.093	1	5
462.286	1	5
463.479	1	3
464.672	1	7
465.865	1	-2
467.058	1	9
468.251	1	4
469.444	1	0
470.637	1	13
471.830	1	6
473.023	1	9
474.215	1	4
475.408	1	9
476.601	1	1
477.793	1	1
478.986	1	1
480.179	1	0
481.371	1	8
482.564	1	6
483.756	1	0
484.948	1	1
486.141	1	-4
487.333	1	-2
488.525	1	10
489.718	1	11
490.910	1	-7
492.102	1	9
493.294	1	5
494.486	1	11
495.678	1	1
496.870	1	6
498.062	1	2
499.254	1	8
500.446	1	9
501.638	1	-4
502.829	1	7
504.021	1	-4
505.213	1	16
506.404	1	1
507.596	1	2
508.788	1	2
509.979	1	4
511.171	1	5
512.362	1	1
513.553	1	5
514.745	1	7
515.936	1	11
517.127	1	8
518.319	1	6
519.510	1	0
520.701	1	2
521.892	1	6
523.083	1	12
524.274	1	-3
525.465	1	6
526.656	1	10
527.847	1	5
529.038	1	-14
530.229	1	4
531.419	1	14
532.610	1	4
533.801	1	16
534.991	1	6
536.182	1	8
537.373	1	12
538.563	1	17
539.754	1	0
540.944	1	3
542.134	1	5
543.325	1	12
544.515	1	2
545.705	1	8
546.896	1	15
548.086	1	-6
549.276	1	1
550.466	1	1
551.656	1	10
552.846	1	0
554.036	1	7
555.226	1	7
556.416	1	13
557.606	1	-3
558.796	1	12
559.986	1	5
561.175	1	11
562.365	1	-5
563.555	1	5
564.744	1	6
565.934	1	9
567.123	1	5
568.313	1	-3
569.502	1	-6
570.692	1	11
571.881	1	1
573.070	1	2
574.260	1	4
575.449	1	0
576.638	1	1
577.827	1	6
579.016	1	3
580.205	1	3
581.394	1	0
582.583	1	13
583.772	1	10
584.961	1	2
586.150	1	7
587.339	1	4
588.528	1	6
589.717	1	-1
590.905	1	5
592.094	1	5
593.283	1	-9
594.471	1	-1
595.660	1	3
596.848	1	12
598.037	1	4
599.225	1	7
600.413	1	12
601.602	1	-5
602.790	1	1
603.978	1	3
605.166	1	5
606.355	1	8
607.543	1	3
608.731	1	2
609.919	1	16
611.107	1	14
612.295	1	10
613.483	1	-4
614.671	1	9
615.858	1	-4
617.046	1	3
618.234	1	1
619.422	1	-1
620.609	1	-11
621.797	1	-1
622.985	1	4
624.172	1	-1
625.360	1	-2
626.547	1	5
627.735	1	10
628.922	1	-3
630.109	1	10
631.297	1	1
632.484	1	-10
633.671	1	0
634.858	1	8
636.045	1	13
637.232	1	-5
638.419	1	5
639.606	1	3
640.793	1	-7
641.980	1	-6
643.167	1	2
644.354	1	-2
645.541	1	5
646.728	1	8
647.914	1	-8
649.101	1	-3
650.288	1	8
651.474	1	-1
652.661	1	0
653.847	1	7
655.034	1	0
656.220	1	2
657.406	1	-1
658.593	1	-3
659.779	1	10
660.965	1	4
662.152	1	8
663.338	1	-5
664.524	1	-5
665.710	1	2
666.896	1	13
668.082	1	7
669.268	1	3
670.454	1	1
671.640	1	-1
672.826	1	-7
674.011	1	2
675.197	1	4
676.383	1	11
677.569	1	0
678.754	1	9
679.940	1	-1
681.125	1	7
682.311	1	-5
683.496	1	-6
684.682	1	-2
685.867	1	-3
687.053	1	0
688.238	1	7
688.746	1	0