File: Data/GaN_130K_350ms/GaN_sample F_spot6_UVVIS_130 K_200um_350 ms 2x2mm1_165.txt
340.368	1	3
341.565	1	5
342.763	1	10
343.960	1	-10
345.157	1	-8
346.354	1	6
347.552	1	-2
348.749	1	3
349.946	1	2
351.143	1	5
352.340	1	22
353.537	1	-1
354.734	1	9
355.931	1	10
357.127	1	6
358.324	1	2
359.521	1	3
360.718	1	13
361.914	1	14
363.111	1	26
364.308	1	30
365.504	1	28
366.701	1	28
367.897	1	37
369.093	1	33
370.290	1	21
371.486	1	20
372.682	1	8
373.879	1	19
375.075	1	22
376.271	1	16
377.467	1	16
378.663	1	15
379.859	1	10
381.055	1	4
382.251	1	12
383.447	1	7
384.643	1	6
385.839	1	7
387.035	1	18
388.230	1	0
389.426	1	13
390.622	1	4
391.817	1	12
393.013	1	17
394.208	1	2
395.404	1	0
396.599	1	14
397.795	1	-6
398.990	1	5
400.186	1	-5
401.381	1	11
402.576	1	10
403.771	1	12
404.967	1	1
406.162	1	0
407.357	1	12
408.552	1	8
409.747	1	3
410.942	1	10
412.137	1	8
413.332	1	0
414.526	1	6
415.721	1	5
416.916	1	15
418.111	1	11
419.305	1	1
420.500	1	1
421.695	1	3
422.889	1	11
424.084	1	9
425.278	1	3
426.472	1	4
427.667	1	9
428.861	1	3
430.055	1	4
431.250	1	13
432.444	1	10
433.638	1	4
434.832	1	7
436.026	1	7
437.220	1	-5
438.414	1	-1
439.608	1	16
440.802	1	-7
441.996	1	13
443.190	1	3
444.384	1	3
445.578	1	9
446.771	1	11
447.965	1	9
449.159	1	10
450.352	1	11
451.546	1	9
452.739	1	4
453.933	1	-3
455.126	1	-5
456.320	1	0
457.513	1	-11
458.706	1	-3
459.899	1	9
461.093	1	3
462.286	1	3
463.479	1	18
464.672	1	7
465.865	1	-3
467.058	1	10
468.251	1	9
469.444	1	7
470.637	1	6
471.830	1	8
473.023	1	8
474.215	1	3
475.408	1	5
476.601	1	6
477.793	1	-1
478.986	1	6
480.179	1	1
481.371	1	7
482.564	1	2
483.756	1	1
484.948	1	-6
486.141	1	-3
487.333	1	0
488.525	1	0
489.718	1	11
490.910	1	-9
492.102	1	2
493.294	1	8
494.486	1	14
495.678	1	1
496.870	1	-3
498.062	1	-5
499.254	1	13
500.446	1	5
501.638	1	3
502.829	1	1
504.021	1	1
505.213	1	12
506.404	1	9
507.596	1	-1
508.788	1	2
509.979	1	0
511.171	1	14
512.362	1	11
513.553	1	13
514.745	1	9
515.936	1	18
517.127	1	12
518.319	1	2
519.510	1	5
520.701	1	13
521.892	1	12
523.083	1	11
524.274	1	-3
525.465	1	14
526.656	1	14
527.847	1	9
529.038	1	1
530.229	1	18
531.419	1	9
532.610	1	3
533.801	1	19
534.991	1	4
536.182	1	14
537.373	1	18
538.563	1	22
539.754	1	6
540.944	1	10
542.134	1	9
543.325	1	2
544.515	1	10
545.705	1	5
546.896	1	9
548.086	1	5
549.276	1	2
550.466	1	8
551.656	1	1
552.846	1	3
554.036	1	5
555.226	1	14
556.416	1	19
557.606	1	8
558.796	1	8
559.986	1	13
561.175	1	12
562.365	1	8
563.555	1	11
564.744	1	5
565.934	1	8
567.123	1	3
568.313	1	7
569.502	1	3
570.692	1	12
571.881	1	6
573.070	1	2
574.260	1	16
575.449	1	12
576.638	1	-3
577.827	1	4
579.016	1	4
580.205	1	-1
581.394	1	-4
582.583	1	19
583.772	1	5
584.961	1	9
586.150	1	-1
587.339	1	8
588.528	1	10
589.717	1	2
590.905	1	21
592.094	1	-1
593.283	1	-10
594.471	1	14
595.660	1	4
596.848	1	6
598.037	1	1
599.225	1	7
600.413	1	11
601.602	1	-2
602.790	1	-2
603.978	1	2
605.166	1	5
606.355	1	8
607.543	1	3
608.731	1	7
609.919	1	4
611.107	1	16
612.295	1	9
613.483	1	5
614.671	1	5
615.858	1	0
617.046	1	11
618.234	1	3
619.422	1	1
620.609	1	-6
621.797	1	-1
622.985	1	6
624.172	1	1
625.360	1	1
626.547	1	3
627.735	1	9
628.922	1	-8
630.109	1	11
631.297	1	5
632.484	1	-7
633.671	1	2
634.858	1	10
636.045	1	19
637.232	1	3
638.419	1	9
639.606	1	7
640.793	1	-1
641.980	1	1
643.167	1	1
644.354	1	-2
645.541	1	5
646.728	1	-1
647.914	1	-10
649.101	1	5
650.288	1	6
651.474	1	0
652.661	1	3
653.847	1	-6
655.034	1	7
656.220	1	4
657.406	1	11
658.593	1	5
659.779	1	4
660.965	1	7
662.152	1	-5
663.338	1	4
664.524	1	-15
665.710	1	17
666.896	1	3
668.082	1	3
669.268	1	6
670.454	1	4
671.640	1	-2
672.826	1	7
674.011	1	3
675.197	1	-2
676.383	1	3
677.569	1	-5
678.754	1	2
679.940	1	3
681.125	1	4
682.311	1	-7
683.496	1	2
684.682	1	3
685.867	1	2
687.053	1	4
688.238	1	4
688.746	1	7