File: Data/GaN_130K_350ms/GaN_sample F_spot6_UVVIS_130 K_200um_350 ms 2x2mm1_273.txt
340.368	1	1
341.565	1	-7
342.763	1	-4
343.960	1	-9
345.157	1	-9
346.354	1	-2
347.552	1	1
348.749	1	9
349.946	1	-2
351.143	1	8
352.340	1	7
353.537	1	-2
354.734	1	8
355.931	1	6
357.127	1	4
358.324	1	-5
359.521	1	-2
360.718	1	10
361.914	1	3
363.111	1	12
364.308	1	8
365.504	1	12
366.701	1	14
367.897	1	9
369.093	1	5
370.290	1	7
371.486	1	15
372.682	1	10
373.879	1	-1
375.075	1	20
376.271	1	8
377.467	1	19
378.663	1	7
379.859	1	2
381.055	1	9
382.251	1	8
383.447	1	2
384.643	1	8
385.839	1	7
387.035	1	13
388.230	1	-3
389.426	1	5
390.622	1	7
391.817	1	3
393.013	1	13
394.208	1	6
395.404	1	-8
396.599	1	7
397.795	1	-4
398.990	1	-1
400.186	1	2
401.381	1	-2
402.576	1	-1
403.771	1	14
404.967	1	8
406.162	1	2
407.357	1	-4
408.552	1	-3
409.747	1	1
410.942	1	4
412.137	1	-4
413.332	1	-9
414.526	1	1
415.721	1	10
416.916	1	-4
418.111	1	3
419.305	1	-8
420.500	1	0
421.695	1	6
422.889	1	-3
424.084	1	10
425.278	1	-4
426.472	1	-3
427.667	1	0
428.861	1	1
430.055	1	1
431.250	1	7
432.444	1	8
433.638	1	0
434.832	1	2
436.026	1	6
437.220	1	-6
438.414	1	-6
439.608	1	8
440.802	1	0
441.996	1	3
443.190	1	4
444.384	1	-7
445.578	1	-13
446.771	1	8
447.965	1	5
449.159	1	0
450.352	1	1
451.546	1	15
452.739	1	3
453.933	1	2
455.126	1	-4
456.320	1	-2
457.513	1	0
458.706	1	12
459.899	1	0
461.093	1	4
462.286	1	3
463.479	1	8
464.672	1	5
465.865	1	-4
467.058	1	10
468.251	1	6
469.444	1	5
470.637	1	1
471.830	1	2
473.023	1	3
474.215	1	1
475.408	1	0
476.601	1	-4
477.793	1	-3
478.986	1	-15
480.179	1	-10
481.371	1	14
482.564	1	-1
483.756	1	0
484.948	1	3
486.141	1	-3
487.333	1	-2
488.525	1	4
489.718	1	2
490.910	1	-4
492.102	1	10
493.294	1	-3
494.486	1	4
495.678	1	-1
496.870	1	5
498.062	1	-2
499.254	1	6
500.446	1	3
501.638	1	4
502.829	1	3
504.021	1	3
505.213	1	-3
506.404	1	6
507.596	1	10
508.788	1	-5
509.979	1	0
511.171	1	12
512.362	1	-2
513.553	1	11
514.745	1	-4
515.936	1	15
517.127	1	5
518.319	1	-9
519.510	1	1
520.701	1	5
521.892	1	8
523.083	1	3
524.274	1	-3
525.465	1	3
526.656	1	3
527.847	1	9
529.038	1	-10
530.229	1	14
531.419	1	14
532.610	1	4
533.801	1	14
534.991	1	0
536.182	1	4
537.373	1	4
538.563	1	2
539.754	1	2
540.944	1	3
542.134	1	3
543.325	1	6
544.515	1	-3
545.705	1	-1
546.896	1	9
548.086	1	-4
549.276	1	-1
550.466	1	15
551.656	1	-1
552.846	1	0
554.036	1	5
555.226	1	4
556.416	1	8
557.606	1	-1
558.796	1	19
559.986	1	-2
561.175	1	10
562.365	1	-2
563.555	1	8
564.744	1	2
565.934	1	0
567.123	1	-1
568.313	1	-1
569.502	1	1
570.692	1	-3
571.881	1	-3
573.070	1	5
574.260	1	4
575.449	1	8
576.638	1	-9
577.827	1	-3
579.016	1	1
580.205	1	0
581.394	1	3
582.583	1	14
583.772	1	6
584.961	1	1
586.150	1	2
587.339	1	-2
588.528	1	5
589.717	1	7
590.905	1	4
592.094	1	6
593.283	1	-5
594.471	1	-1
595.660	1	5
596.848	1	1
598.037	1	5
599.225	1	0
600.413	1	13
601.602	1	-1
602.790	1	-9
603.978	1	4
605.166	1	10
606.355	1	12
607.543	1	1
608.731	1	5
609.919	1	7
611.107	1	3
612.295	1	7
613.483	1	-4
614.671	1	3
615.858	1	-12
617.046	1	3
618.234	1	-4
619.422	1	6
620.609	1	-4
621.797	1	-3
622.985	1	8
624.172	1	-1
625.360	1	3
626.547	1	-2
627.735	1	4
628.922	1	-3
630.109	1	6
631.297	1	2
632.484	1	-7
633.671	1	5
634.858	1	5
636.045	1	9
637.232	1	-2
638.419	1	2
639.606	1	5
640.793	1	-6
641.980	1	-5
643.167	1	5
644.354	1	0
645.541	1	-3
646.728	1	2
647.914	1	-7
649.101	1	-12
650.288	1	-2
651.474	1	-2
652.661	1	-5
653.847	1	1
655.034	1	10
656.220	1	7
657.406	1	7
658.593	1	-1
659.779	1	8
660.965	1	-6
662.152	1	-11
663.338	1	-3
664.524	1	-5
665.710	1	0
666.896	1	6
668.082	1	6
669.268	1	1
670.454	1	-2
671.640	1	-12
672.826	1	4
674.011	1	4
675.197	1	3
676.383	1	2
677.569	1	-1
678.754	1	4
679.940	1	-3
681.125	1	16
682.311	1	-17
683.496	1	-5
684.682	1	-4
685.867	1	1
687.053	1	-2
688.238	1	7
688.746	1	-1