File: Data/GaN_130K_350ms/GaN_sample F_spot6_UVVIS_130 K_200um_350 ms 2x2mm1_112.txt
340.368	1	6
341.565	1	8
342.763	1	14
343.960	1	4
345.157	1	-11
346.354	1	4
347.552	1	8
348.749	1	5
349.946	1	10
351.143	1	4
352.340	1	20
353.537	1	10
354.734	1	6
355.931	1	9
357.127	1	18
358.324	1	13
359.521	1	9
360.718	1	23
361.914	1	21
363.111	1	46
364.308	1	58
365.504	1	75
366.701	1	77
367.897	1	68
369.093	1	81
370.290	1	76
371.486	1	66
372.682	1	46
373.879	1	51
375.075	1	50
376.271	1	43
377.467	1	40
378.663	1	38
379.859	1	30
381.055	1	19
382.251	1	21
383.447	1	24
384.643	1	39
385.839	1	30
387.035	1	35
388.230	1	13
389.426	1	16
390.622	1	15
391.817	1	24
393.013	1	20
394.208	1	10
395.404	1	1
396.599	1	23
397.795	1	6
398.990	1	12
400.186	1	7
401.381	1	15
402.576	1	4
403.771	1	17
404.967	1	12
406.162	1	9
407.357	1	19
408.552	1	12
409.747	1	9
410.942	1	11
412.137	1	-3
413.332	1	11
414.526	1	7
415.721	1	3
416.916	1	1
418.111	1	4
419.305	1	4
420.500	1	12
421.695	1	4
422.889	1	7
424.084	1	8
425.278	1	4
426.472	1	2
427.667	1	12
428.861	1	12
430.055	1	6
431.250	1	8
432.444	1	7
433.638	1	6
434.832	1	0
436.026	1	5
437.220	1	2
438.414	1	7
439.608	1	17
440.802	1	4
441.996	1	11
443.190	1	2
444.384	1	11
445.578	1	4
446.771	1	5
447.965	1	10
449.159	1	8
450.352	1	9
451.546	1	9
452.739	1	-1
453.933	1	8
455.126	1	2
456.320	1	1
457.513	1	0
458.706	1	8
459.899	1	4
461.093	1	8
462.286	1	5
463.479	1	10
464.672	1	11
465.865	1	8
467.058	1	22
468.251	1	5
469.444	1	4
470.637	1	13
471.830	1	6
473.023	1	8
474.215	1	10
475.408	1	11
476.601	1	0
477.793	1	6
478.986	1	0
480.179	1	4
481.371	1	6
482.564	1	-1
483.756	1	7
484.948	1	2
486.141	1	2
487.333	1	5
488.525	1	14
489.718	1	10
490.910	1	-2
492.102	1	15
493.294	1	22
494.486	1	21
495.678	1	4
496.870	1	21
498.062	1	14
499.254	1	13
500.446	1	18
501.638	1	14
502.829	1	22
504.021	1	15
505.213	1	27
506.404	1	24
507.596	1	24
508.788	1	20
509.979	1	29
511.171	1	22
512.362	1	33
513.553	1	27
514.745	1	15
515.936	1	22
517.127	1	23
518.319	1	36
519.510	1	17
520.701	1	27
521.892	1	36
523.083	1	33
524.274	1	26
525.465	1	22
526.656	1	44
527.847	1	29
529.038	1	26
530.229	1	42
531.419	1	32
532.610	1	35
533.801	1	46
534.991	1	34
536.182	1	42
537.373	1	32
538.563	1	34
539.754	1	35
540.944	1	37
542.134	1	21
543.325	1	34
544.515	1	33
545.705	1	30
546.896	1	18
548.086	1	28
549.276	1	32
550.466	1	21
551.656	1	18
552.846	1	24
554.036	1	18
555.226	1	34
556.416	1	30
557.606	1	28
558.796	1	22
559.986	1	13
561.175	1	23
562.365	1	15
563.555	1	18
564.744	1	22
565.934	1	8
567.123	1	8
568.313	1	17
569.502	1	5
570.692	1	24
571.881	1	2
573.070	1	9
574.260	1	22
575.449	1	16
576.638	1	6
577.827	1	6
579.016	1	18
580.205	1	1
581.394	1	3
582.583	1	15
583.772	1	22
584.961	1	2
586.150	1	18
587.339	1	17
588.528	1	8
589.717	1	12
590.905	1	14
592.094	1	7
593.283	1	-2
594.471	1	13
595.660	1	7
596.848	1	11
598.037	1	19
599.225	1	12
600.413	1	9
601.602	1	11
602.790	1	1
603.978	1	3
605.166	1	10
606.355	1	10
607.543	1	11
608.731	1	2
609.919	1	19
611.107	1	8
612.295	1	19
613.483	1	5
614.671	1	10
615.858	1	-4
617.046	1	13
618.234	1	9
619.422	1	6
620.609	1	-2
621.797	1	0
622.985	1	7
624.172	1	1
625.360	1	9
626.547	1	8
627.735	1	4
628.922	1	-5
630.109	1	10
631.297	1	0
632.484	1	-5
633.671	1	-6
634.858	1	7
636.045	1	13
637.232	1	1
638.419	1	8
639.606	1	8
640.793	1	-1
641.980	1	6
643.167	1	9
644.354	1	-1
645.541	1	0
646.728	1	15
647.914	1	-1
649.101	1	-6
650.288	1	11
651.474	1	3
652.661	1	3
653.847	1	2
655.034	1	2
656.220	1	8
657.406	1	2
658.593	1	9
659.779	1	3
660.965	1	1
662.152	1	10
663.338	1	7
664.524	1	0
665.710	1	4
666.896	1	11
668.082	1	3
669.268	1	6
670.454	1	7
671.640	1	-5
672.826	1	3
674.011	1	3
675.197	1	-5
676.383	1	1
677.569	1	1
678.754	1	10
679.940	1	-3
681.125	1	16
682.311	1	-4
683.496	1	0
684.682	1	-2
685.867	1	8
687.053	1	13
688.238	1	15
688.746	1	8