File: Data/GaN_130K_350ms/GaN_sample F_spot6_UVVIS_130 K_200um_350 ms 2x2mm1_200.txt
340.368	1	14
341.565	1	1
342.763	1	1
343.960	1	-6
345.157	1	-20
346.354	1	1
347.552	1	-2
348.749	1	2
349.946	1	2
351.143	1	-2
352.340	1	14
353.537	1	9
354.734	1	4
355.931	1	12
357.127	1	11
358.324	1	1
359.521	1	-1
360.718	1	6
361.914	1	4
363.111	1	18
364.308	1	17
365.504	1	16
366.701	1	21
367.897	1	19
369.093	1	16
370.290	1	25
371.486	1	6
372.682	1	21
373.879	1	21
375.075	1	15
376.271	1	10
377.467	1	14
378.663	1	10
379.859	1	9
381.055	1	8
382.251	1	2
383.447	1	6
384.643	1	8
385.839	1	8
387.035	1	22
388.230	1	2
389.426	1	6
390.622	1	4
391.817	1	9
393.013	1	3
394.208	1	-9
395.404	1	-8
396.599	1	6
397.795	1	-4
398.990	1	0
400.186	1	-8
401.381	1	20
402.576	1	11
403.771	1	11
404.967	1	0
406.162	1	1
407.357	1	8
408.552	1	4
409.747	1	2
410.942	1	7
412.137	1	5
413.332	1	7
414.526	1	13
415.721	1	2
416.916	1	2
418.111	1	8
419.305	1	2
420.500	1	9
421.695	1	4
422.889	1	5
424.084	1	7
425.278	1	4
426.472	1	0
427.667	1	5
428.861	1	-3
430.055	1	1
431.250	1	8
432.444	1	9
433.638	1	12
434.832	1	1
436.026	1	8
437.220	1	4
438.414	1	-9
439.608	1	13
440.802	1	-3
441.996	1	13
443.190	1	6
444.384	1	-7
445.578	1	1
446.771	1	0
447.965	1	2
449.159	1	7
450.352	1	18
451.546	1	14
452.739	1	10
453.933	1	7
455.126	1	-7
456.320	1	4
457.513	1	-5
458.706	1	10
459.899	1	-6
461.093	1	14
462.286	1	11
463.479	1	9
464.672	1	4
465.865	1	1
467.058	1	20
468.251	1	8
469.444	1	2
470.637	1	8
471.830	1	3
473.023	1	12
474.215	1	8
475.408	1	5
476.601	1	9
477.793	1	2
478.986	1	-7
480.179	1	-2
481.371	1	7
482.564	1	5
483.756	1	2
484.948	1	8
486.141	1	5
487.333	1	6
488.525	1	5
489.718	1	11
490.910	1	-5
492.102	1	5
493.294	1	15
494.486	1	17
495.678	1	3
496.870	1	17
498.062	1	4
499.254	1	10
500.446	1	8
501.638	1	6
502.829	1	-2
504.021	1	-2
505.213	1	1
506.404	1	4
507.596	1	3
508.788	1	5
509.979	1	1
511.171	1	11
512.362	1	-2
513.553	1	4
514.745	1	8
515.936	1	13
517.127	1	4
518.319	1	6
519.510	1	4
520.701	1	0
521.892	1	9
523.083	1	10
524.274	1	-1
525.465	1	7
526.656	1	11
527.847	1	8
529.038	1	-1
530.229	1	1
531.419	1	7
532.610	1	9
533.801	1	8
534.991	1	7
536.182	1	18
537.373	1	8
538.563	1	14
539.754	1	1
540.944	1	15
542.134	1	8
543.325	1	-1
544.515	1	11
545.705	1	1
546.896	1	-1
548.086	1	-3
549.276	1	0
550.466	1	9
551.656	1	6
552.846	1	4
554.036	1	0
555.226	1	8
556.416	1	2
557.606	1	-4
558.796	1	17
559.986	1	10
561.175	1	8
562.365	1	3
563.555	1	11
564.744	1	-2
565.934	1	3
567.123	1	-3
568.313	1	9
569.502	1	1
570.692	1	10
571.881	1	5
573.070	1	2
574.260	1	2
575.449	1	7
576.638	1	-10
577.827	1	-5
579.016	1	-6
580.205	1	-7
581.394	1	-3
582.583	1	10
583.772	1	8
584.961	1	-2
586.150	1	2
587.339	1	5
588.528	1	11
589.717	1	4
590.905	1	9
592.094	1	6
593.283	1	1
594.471	1	-1
595.660	1	7
596.848	1	8
598.037	1	8
599.225	1	9
600.413	1	16
601.602	1	3
602.790	1	3
603.978	1	6
605.166	1	5
606.355	1	7
607.543	1	2
608.731	1	2
609.919	1	4
611.107	1	1
612.295	1	10
613.483	1	-11
614.671	1	3
615.858	1	-6
617.046	1	10
618.234	1	3
619.422	1	-2
620.609	1	-4
621.797	1	-1
622.985	1	9
624.172	1	13
625.360	1	1
626.547	1	7
627.735	1	7
628.922	1	-7
630.109	1	4
631.297	1	2
632.484	1	-3
633.671	1	-9
634.858	1	17
636.045	1	14
637.232	1	-2
638.419	1	6
639.606	1	0
640.793	1	-6
641.980	1	-3
643.167	1	5
644.354	1	-5
645.541	1	-2
646.728	1	5
647.914	1	-7
649.101	1	3
650.288	1	10
651.474	1	6
652.661	1	-6
653.847	1	7
655.034	1	-3
656.220	1	-2
657.406	1	0
658.593	1	2
659.779	1	3
660.965	1	-3
662.152	1	-1
663.338	1	1
664.524	1	-11
665.710	1	5
666.896	1	-3
668.082	1	-1
669.268	1	-8
670.454	1	-4
671.640	1	-2
672.826	1	13
674.011	1	1
675.197	1	0
676.383	1	12
677.569	1	-2
678.754	1	8
679.940	1	3
681.125	1	10
682.311	1	-6
683.496	1	-3
684.682	1	-9
685.867	1	-1
687.053	1	9
688.238	1	11
688.746	1	6