File: Data/GaN_130K_350ms/GaN_sample F_spot6_UVVIS_130 K_200um_350 ms 2x2mm1_120.txt
340.368	1	7
341.565	1	-6
342.763	1	10
343.960	1	-3
345.157	1	-6
346.354	1	-1
347.552	1	5
348.749	1	14
349.946	1	11
351.143	1	5
352.340	1	11
353.537	1	2
354.734	1	5
355.931	1	12
357.127	1	8
358.324	1	8
359.521	1	9
360.718	1	27
361.914	1	22
363.111	1	40
364.308	1	49
365.504	1	50
366.701	1	66
367.897	1	67
369.093	1	64
370.290	1	57
371.486	1	47
372.682	1	40
373.879	1	45
375.075	1	35
376.271	1	33
377.467	1	38
378.663	1	26
379.859	1	18
381.055	1	16
382.251	1	11
383.447	1	16
384.643	1	21
385.839	1	16
387.035	1	26
388.230	1	14
389.426	1	21
390.622	1	25
391.817	1	18
393.013	1	19
394.208	1	8
395.404	1	11
396.599	1	15
397.795	1	0
398.990	1	11
400.186	1	2
401.381	1	17
402.576	1	14
403.771	1	9
404.967	1	8
406.162	1	6
407.357	1	11
408.552	1	1
409.747	1	4
410.942	1	19
412.137	1	4
413.332	1	0
414.526	1	8
415.721	1	7
416.916	1	6
418.111	1	16
419.305	1	0
420.500	1	9
421.695	1	10
422.889	1	1
424.084	1	15
425.278	1	-7
426.472	1	6
427.667	1	17
428.861	1	-3
430.055	1	-1
431.250	1	13
432.444	1	15
433.638	1	10
434.832	1	7
436.026	1	6
437.220	1	6
438.414	1	8
439.608	1	9
440.802	1	-1
441.996	1	8
443.190	1	3
444.384	1	4
445.578	1	0
446.771	1	9
447.965	1	7
449.159	1	12
450.352	1	11
451.546	1	14
452.739	1	13
453.933	1	6
455.126	1	4
456.320	1	-1
457.513	1	-7
458.706	1	14
459.899	1	3
461.093	1	5
462.286	1	10
463.479	1	10
464.672	1	16
465.865	1	-5
467.058	1	8
468.251	1	8
469.444	1	3
470.637	1	10
471.830	1	4
473.023	1	10
474.215	1	0
475.408	1	12
476.601	1	-2
477.793	1	8
478.986	1	14
480.179	1	-4
481.371	1	7
482.564	1	-1
483.756	1	-3
484.948	1	16
486.141	1	12
487.333	1	2
488.525	1	17
489.718	1	13
490.910	1	-3
492.102	1	7
493.294	1	9
494.486	1	23
495.678	1	7
496.870	1	12
498.062	1	11
499.254	1	16
500.446	1	12
501.638	1	12
502.829	1	11
504.021	1	14
505.213	1	17
506.404	1	16
507.596	1	16
508.788	1	19
509.979	1	19
511.171	1	25
512.362	1	16
513.553	1	23
514.745	1	18
515.936	1	30
517.127	1	22
518.319	1	19
519.510	1	20
520.701	1	27
521.892	1	37
523.083	1	24
524.274	1	19
525.465	1	29
526.656	1	26
527.847	1	25
529.038	1	16
530.229	1	20
531.419	1	20
532.610	1	22
533.801	1	37
534.991	1	24
536.182	1	21
537.373	1	20
538.563	1	25
539.754	1	24
540.944	1	22
542.134	1	19
543.325	1	26
544.515	1	21
545.705	1	23
546.896	1	28
548.086	1	18
549.276	1	17
550.466	1	32
551.656	1	29
552.846	1	15
554.036	1	25
555.226	1	24
556.416	1	11
557.606	1	16
558.796	1	25
559.986	1	11
561.175	1	16
562.365	1	24
563.555	1	25
564.744	1	14
565.934	1	9
567.123	1	9
568.313	1	5
569.502	1	15
570.692	1	21
571.881	1	6
573.070	1	10
574.260	1	15
575.449	1	1
576.638	1	3
577.827	1	5
579.016	1	6
580.205	1	6
581.394	1	2
582.583	1	23
583.772	1	9
584.961	1	-4
586.150	1	16
587.339	1	7
588.528	1	17
589.717	1	-3
590.905	1	16
592.094	1	8
593.283	1	2
594.471	1	9
595.660	1	6
596.848	1	13
598.037	1	12
599.225	1	13
600.413	1	9
601.602	1	1
602.790	1	0
603.978	1	4
605.166	1	9
606.355	1	16
607.543	1	-5
608.731	1	5
609.919	1	7
611.107	1	9
612.295	1	11
613.483	1	3
614.671	1	4
615.858	1	2
617.046	1	5
618.234	1	2
619.422	1	3
620.609	1	-3
621.797	1	2
622.985	1	12
624.172	1	-3
625.360	1	3
626.547	1	1
627.735	1	10
628.922	1	-3
630.109	1	11
631.297	1	5
632.484	1	-8
633.671	1	-5
634.858	1	7
636.045	1	13
637.232	1	1
638.419	1	11
639.606	1	3
640.793	1	-6
641.980	1	1
643.167	1	3
644.354	1	0
645.541	1	2
646.728	1	7
647.914	1	3
649.101	1	1
650.288	1	2
651.474	1	-6
652.661	1	0
653.847	1	8
655.034	1	5
656.220	1	-2
657.406	1	11
658.593	1	3
659.779	1	4
660.965	1	-1
662.152	1	5
663.338	1	2
664.524	1	3
665.710	1	13
666.896	1	4
668.082	1	1
669.268	1	8
670.454	1	0
671.640	1	-1
672.826	1	3
674.011	1	7
675.197	1	0
676.383	1	15
677.569	1	4
678.754	1	10
679.940	1	2
681.125	1	7
682.311	1	4
683.496	1	4
684.682	1	6
685.867	1	2
687.053	1	6
688.238	1	4
688.746	1	6