File: Data/GaN_130K_350ms/GaN_sample F_spot6_UVVIS_130 K_200um_350 ms 2x2mm1_162.txt
340.368	1	6
341.565	1	9
342.763	1	1
343.960	1	-5
345.157	1	-14
346.354	1	9
347.552	1	1
348.749	1	7
349.946	1	4
351.143	1	6
352.340	1	10
353.537	1	11
354.734	1	0
355.931	1	8
357.127	1	10
358.324	1	8
359.521	1	8
360.718	1	14
361.914	1	11
363.111	1	22
364.308	1	27
365.504	1	20
366.701	1	23
367.897	1	29
369.093	1	29
370.290	1	44
371.486	1	24
372.682	1	24
373.879	1	23
375.075	1	26
376.271	1	15
377.467	1	13
378.663	1	13
379.859	1	10
381.055	1	3
382.251	1	12
383.447	1	17
384.643	1	9
385.839	1	9
387.035	1	17
388.230	1	6
389.426	1	5
390.622	1	10
391.817	1	12
393.013	1	9
394.208	1	1
395.404	1	-2
396.599	1	15
397.795	1	0
398.990	1	11
400.186	1	0
401.381	1	6
402.576	1	12
403.771	1	5
404.967	1	13
406.162	1	3
407.357	1	7
408.552	1	5
409.747	1	-1
410.942	1	11
412.137	1	4
413.332	1	-5
414.526	1	9
415.721	1	6
416.916	1	3
418.111	1	15
419.305	1	5
420.500	1	4
421.695	1	3
422.889	1	14
424.084	1	8
425.278	1	2
426.472	1	2
427.667	1	7
428.861	1	-3
430.055	1	-2
431.250	1	12
432.444	1	15
433.638	1	5
434.832	1	5
436.026	1	17
437.220	1	1
438.414	1	2
439.608	1	13
440.802	1	3
441.996	1	5
443.190	1	-6
444.384	1	0
445.578	1	2
446.771	1	2
447.965	1	5
449.159	1	11
450.352	1	10
451.546	1	18
452.739	1	2
453.933	1	6
455.126	1	-6
456.320	1	4
457.513	1	-7
458.706	1	8
459.899	1	-1
461.093	1	9
462.286	1	8
463.479	1	8
464.672	1	10
465.865	1	-3
467.058	1	9
468.251	1	2
469.444	1	3
470.637	1	17
471.830	1	-11
473.023	1	9
474.215	1	5
475.408	1	3
476.601	1	9
477.793	1	0
478.986	1	0
480.179	1	-1
481.371	1	7
482.564	1	2
483.756	1	0
484.948	1	3
486.141	1	13
487.333	1	4
488.525	1	9
489.718	1	10
490.910	1	-3
492.102	1	5
493.294	1	7
494.486	1	5
495.678	1	5
496.870	1	3
498.062	1	-2
499.254	1	3
500.446	1	17
501.638	1	1
502.829	1	6
504.021	1	0
505.213	1	11
506.404	1	11
507.596	1	4
508.788	1	12
509.979	1	2
511.171	1	16
512.362	1	5
513.553	1	4
514.745	1	10
515.936	1	21
517.127	1	7
518.319	1	3
519.510	1	12
520.701	1	11
521.892	1	16
523.083	1	10
524.274	1	5
525.465	1	20
526.656	1	4
527.847	1	14
529.038	1	-7
530.229	1	13
531.419	1	8
532.610	1	12
533.801	1	24
534.991	1	19
536.182	1	16
537.373	1	9
538.563	1	17
539.754	1	7
540.944	1	12
542.134	1	9
543.325	1	15
544.515	1	15
545.705	1	9
546.896	1	6
548.086	1	5
549.276	1	7
550.466	1	16
551.656	1	8
552.846	1	3
554.036	1	14
555.226	1	12
556.416	1	15
557.606	1	3
558.796	1	11
559.986	1	8
561.175	1	2
562.365	1	5
563.555	1	3
564.744	1	11
565.934	1	5
567.123	1	10
568.313	1	2
569.502	1	0
570.692	1	15
571.881	1	14
573.070	1	0
574.260	1	5
575.449	1	14
576.638	1	-2
577.827	1	0
579.016	1	-13
580.205	1	4
581.394	1	15
582.583	1	6
583.772	1	4
584.961	1	0
586.150	1	7
587.339	1	0
588.528	1	13
589.717	1	3
590.905	1	-2
592.094	1	3
593.283	1	-4
594.471	1	4
595.660	1	9
596.848	1	8
598.037	1	9
599.225	1	4
600.413	1	11
601.602	1	-5
602.790	1	1
603.978	1	7
605.166	1	21
606.355	1	12
607.543	1	0
608.731	1	11
609.919	1	13
611.107	1	5
612.295	1	12
613.483	1	2
614.671	1	1
615.858	1	-6
617.046	1	13
618.234	1	12
619.422	1	6
620.609	1	1
621.797	1	3
622.985	1	14
624.172	1	-10
625.360	1	-3
626.547	1	9
627.735	1	6
628.922	1	-11
630.109	1	3
631.297	1	7
632.484	1	-5
633.671	1	-2
634.858	1	3
636.045	1	16
637.232	1	-5
638.419	1	9
639.606	1	10
640.793	1	0
641.980	1	-3
643.167	1	9
644.354	1	-1
645.541	1	-5
646.728	1	-4
647.914	1	3
649.101	1	1
650.288	1	8
651.474	1	2
652.661	1	3
653.847	1	-4
655.034	1	0
656.220	1	-1
657.406	1	9
658.593	1	7
659.779	1	4
660.965	1	2
662.152	1	0
663.338	1	0
664.524	1	5
665.710	1	6
666.896	1	6
668.082	1	4
669.268	1	6
670.454	1	9
671.640	1	-4
672.826	1	-4
674.011	1	-1
675.197	1	-6
676.383	1	2
677.569	1	-4
678.754	1	-3
679.940	1	-8
681.125	1	13
682.311	1	-7
683.496	1	1
684.682	1	2
685.867	1	5
687.053	1	4
688.238	1	9
688.746	1	7