File: Data/GaN_130K_350ms/GaN_sample F_spot6_UVVIS_130 K_200um_350 ms 2x2mm1_186.txt
340.368	1	1
341.565	1	1
342.763	1	2
343.960	1	-8
345.157	1	-3
346.354	1	1
347.552	1	5
348.749	1	10
349.946	1	18
351.143	1	12
352.340	1	17
353.537	1	-1
354.734	1	2
355.931	1	0
357.127	1	11
358.324	1	2
359.521	1	0
360.718	1	2
361.914	1	0
363.111	1	19
364.308	1	21
365.504	1	14
366.701	1	29
367.897	1	17
369.093	1	21
370.290	1	22
371.486	1	16
372.682	1	14
373.879	1	14
375.075	1	10
376.271	1	12
377.467	1	13
378.663	1	16
379.859	1	9
381.055	1	15
382.251	1	0
383.447	1	12
384.643	1	14
385.839	1	9
387.035	1	11
388.230	1	9
389.426	1	9
390.622	1	10
391.817	1	14
393.013	1	4
394.208	1	2
395.404	1	-2
396.599	1	11
397.795	1	8
398.990	1	10
400.186	1	3
401.381	1	6
402.576	1	10
403.771	1	15
404.967	1	4
406.162	1	1
407.357	1	6
408.552	1	-4
409.747	1	11
410.942	1	9
412.137	1	5
413.332	1	-6
414.526	1	4
415.721	1	9
416.916	1	-4
418.111	1	9
419.305	1	-1
420.500	1	2
421.695	1	0
422.889	1	7
424.084	1	7
425.278	1	0
426.472	1	14
427.667	1	11
428.861	1	6
430.055	1	2
431.250	1	20
432.444	1	7
433.638	1	12
434.832	1	-2
436.026	1	10
437.220	1	-2
438.414	1	0
439.608	1	12
440.802	1	3
441.996	1	2
443.190	1	11
444.384	1	-13
445.578	1	4
446.771	1	4
447.965	1	2
449.159	1	9
450.352	1	10
451.546	1	6
452.739	1	12
453.933	1	1
455.126	1	-9
456.320	1	2
457.513	1	7
458.706	1	5
459.899	1	0
461.093	1	6
462.286	1	-1
463.479	1	11
464.672	1	2
465.865	1	-9
467.058	1	6
468.251	1	7
469.444	1	1
470.637	1	14
471.830	1	12
473.023	1	9
474.215	1	8
475.408	1	7
476.601	1	-1
477.793	1	-3
478.986	1	-5
480.179	1	-9
481.371	1	10
482.564	1	0
483.756	1	3
484.948	1	4
486.141	1	-6
487.333	1	-6
488.525	1	8
489.718	1	6
490.910	1	-12
492.102	1	7
493.294	1	7
494.486	1	7
495.678	1	1
496.870	1	6
498.062	1	-3
499.254	1	10
500.446	1	6
501.638	1	3
502.829	1	-2
504.021	1	-2
505.213	1	6
506.404	1	-8
507.596	1	2
508.788	1	5
509.979	1	5
511.171	1	6
512.362	1	-2
513.553	1	13
514.745	1	3
515.936	1	14
517.127	1	11
518.319	1	3
519.510	1	0
520.701	1	7
521.892	1	6
523.083	1	12
524.274	1	3
525.465	1	9
526.656	1	12
527.847	1	10
529.038	1	-8
530.229	1	13
531.419	1	9
532.610	1	8
533.801	1	11
534.991	1	9
536.182	1	11
537.373	1	11
538.563	1	6
539.754	1	6
540.944	1	6
542.134	1	0
543.325	1	14
544.515	1	13
545.705	1	10
546.896	1	7
548.086	1	2
549.276	1	-3
550.466	1	17
551.656	1	13
552.846	1	11
554.036	1	10
555.226	1	13
556.416	1	11
557.606	1	7
558.796	1	24
559.986	1	6
561.175	1	13
562.365	1	13
563.555	1	10
564.744	1	14
565.934	1	3
567.123	1	4
568.313	1	-2
569.502	1	3
570.692	1	6
571.881	1	2
573.070	1	2
574.260	1	7
575.449	1	0
576.638	1	4
577.827	1	-9
579.016	1	1
580.205	1	-3
581.394	1	5
582.583	1	5
583.772	1	5
584.961	1	1
586.150	1	4
587.339	1	0
588.528	1	10
589.717	1	1
590.905	1	10
592.094	1	10
593.283	1	-7
594.471	1	0
595.660	1	5
596.848	1	2
598.037	1	10
599.225	1	8
600.413	1	4
601.602	1	-6
602.790	1	2
603.978	1	-2
605.166	1	7
606.355	1	6
607.543	1	5
608.731	1	13
609.919	1	10
611.107	1	6
612.295	1	10
613.483	1	7
614.671	1	1
615.858	1	-5
617.046	1	7
618.234	1	2
619.422	1	0
620.609	1	-4
621.797	1	1
622.985	1	0
624.172	1	6
625.360	1	6
626.547	1	1
627.735	1	9
628.922	1	-2
630.109	1	5
631.297	1	7
632.484	1	0
633.671	1	-1
634.858	1	2
636.045	1	12
637.232	1	-4
638.419	1	10
639.606	1	8
640.793	1	-12
641.980	1	9
643.167	1	-2
644.354	1	-4
645.541	1	3
646.728	1	6
647.914	1	-7
649.101	1	6
650.288	1	7
651.474	1	2
652.661	1	-6
653.847	1	5
655.034	1	1
656.220	1	4
657.406	1	11
658.593	1	2
659.779	1	10
660.965	1	-1
662.152	1	-1
663.338	1	-8
664.524	1	-4
665.710	1	2
666.896	1	-1
668.082	1	6
669.268	1	0
670.454	1	8
671.640	1	-13
672.826	1	4
674.011	1	1
675.197	1	7
676.383	1	2
677.569	1	-2
678.754	1	5
679.940	1	4
681.125	1	11
682.311	1	-6
683.496	1	3
684.682	1	1
685.867	1	1
687.053	1	-2
688.238	1	8
688.746	1	0