File: Data/GaN_130K_350ms/GaN_sample F_spot6_UVVIS_130 K_200um_350 ms 2x2mm1_302.txt
340.368	1	-3
341.565	1	-1
342.763	1	-3
343.960	1	-9
345.157	1	-8
346.354	1	-5
347.552	1	-4
348.749	1	1
349.946	1	3
351.143	1	1
352.340	1	9
353.537	1	-2
354.734	1	3
355.931	1	6
357.127	1	5
358.324	1	-1
359.521	1	-8
360.718	1	-1
361.914	1	-1
363.111	1	17
364.308	1	9
365.504	1	14
366.701	1	11
367.897	1	2
369.093	1	8
370.290	1	11
371.486	1	12
372.682	1	5
373.879	1	10
375.075	1	11
376.271	1	3
377.467	1	17
378.663	1	7
379.859	1	-4
381.055	1	-4
382.251	1	3
383.447	1	9
384.643	1	0
385.839	1	-5
387.035	1	12
388.230	1	1
389.426	1	6
390.622	1	6
391.817	1	12
393.013	1	6
394.208	1	-5
395.404	1	-8
396.599	1	14
397.795	1	1
398.990	1	8
400.186	1	-1
401.381	1	0
402.576	1	11
403.771	1	10
404.967	1	1
406.162	1	-4
407.357	1	4
408.552	1	-2
409.747	1	1
410.942	1	-5
412.137	1	10
413.332	1	-1
414.526	1	5
415.721	1	0
416.916	1	-5
418.111	1	4
419.305	1	-5
420.500	1	8
421.695	1	2
422.889	1	-1
424.084	1	5
425.278	1	4
426.472	1	9
427.667	1	8
428.861	1	5
430.055	1	-6
431.250	1	9
432.444	1	14
433.638	1	1
434.832	1	8
436.026	1	10
437.220	1	-2
438.414	1	-1
439.608	1	16
440.802	1	-8
441.996	1	0
443.190	1	-3
444.384	1	-5
445.578	1	-7
446.771	1	0
447.965	1	-3
449.159	1	8
450.352	1	2
451.546	1	7
452.739	1	12
453.933	1	2
455.126	1	-13
456.320	1	-1
457.513	1	-8
458.706	1	14
459.899	1	7
461.093	1	1
462.286	1	10
463.479	1	-2
464.672	1	4
465.865	1	-6
467.058	1	5
468.251	1	0
469.444	1	0
470.637	1	2
471.830	1	3
473.023	1	6
474.215	1	8
475.408	1	15
476.601	1	8
477.793	1	1
478.986	1	4
480.179	1	-1
481.371	1	3
482.564	1	3
483.756	1	5
484.948	1	-4
486.141	1	-1
487.333	1	-13
488.525	1	6
489.718	1	3
490.910	1	-7
492.102	1	7
493.294	1	2
494.486	1	10
495.678	1	1
496.870	1	-8
498.062	1	-5
499.254	1	6
500.446	1	1
501.638	1	4
502.829	1	-4
504.021	1	-3
505.213	1	5
506.404	1	8
507.596	1	-1
508.788	1	1
509.979	1	1
511.171	1	11
512.362	1	1
513.553	1	6
514.745	1	9
515.936	1	9
517.127	1	6
518.319	1	-4
519.510	1	-4
520.701	1	-3
521.892	1	9
523.083	1	4
524.274	1	-5
525.465	1	11
526.656	1	10
527.847	1	3
529.038	1	-13
530.229	1	13
531.419	1	6
532.610	1	3
533.801	1	15
534.991	1	10
536.182	1	7
537.373	1	0
538.563	1	11
539.754	1	2
540.944	1	8
542.134	1	8
543.325	1	4
544.515	1	4
545.705	1	-8
546.896	1	-2
548.086	1	-8
549.276	1	-2
550.466	1	7
551.656	1	13
552.846	1	2
554.036	1	-3
555.226	1	6
556.416	1	-1
557.606	1	1
558.796	1	14
559.986	1	-2
561.175	1	5
562.365	1	11
563.555	1	8
564.744	1	7
565.934	1	2
567.123	1	0
568.313	1	-1
569.502	1	-2
570.692	1	10
571.881	1	7
573.070	1	-2
574.260	1	-3
575.449	1	3
576.638	1	6
577.827	1	-1
579.016	1	3
580.205	1	-7
581.394	1	4
582.583	1	11
583.772	1	9
584.961	1	-1
586.150	1	14
587.339	1	6
588.528	1	1
589.717	1	-4
590.905	1	8
592.094	1	0
593.283	1	-10
594.471	1	1
595.660	1	2
596.848	1	-1
598.037	1	4
599.225	1	2
600.413	1	5
601.602	1	-1
602.790	1	-5
603.978	1	-3
605.166	1	5
606.355	1	8
607.543	1	-7
608.731	1	1
609.919	1	6
611.107	1	10
612.295	1	8
613.483	1	2
614.671	1	3
615.858	1	2
617.046	1	2
618.234	1	-1
619.422	1	4
620.609	1	0
621.797	1	-2
622.985	1	11
624.172	1	3
625.360	1	1
626.547	1	-3
627.735	1	7
628.922	1	-13
630.109	1	5
631.297	1	-1
632.484	1	-9
633.671	1	-1
634.858	1	-2
636.045	1	-1
637.232	1	-7
638.419	1	12
639.606	1	2
640.793	1	-5
641.980	1	-1
643.167	1	2
644.354	1	-12
645.541	1	4
646.728	1	3
647.914	1	-6
649.101	1	-5
650.288	1	15
651.474	1	-2
652.661	1	-8
653.847	1	0
655.034	1	-4
656.220	1	-5
657.406	1	15
658.593	1	1
659.779	1	-2
660.965	1	6
662.152	1	1
663.338	1	-4
664.524	1	-2
665.710	1	1
666.896	1	2
668.082	1	-5
669.268	1	10
670.454	1	-1
671.640	1	-1
672.826	1	-5
674.011	1	-1
675.197	1	-2
676.383	1	3
677.569	1	-1
678.754	1	7
679.940	1	1
681.125	1	13
682.311	1	-4
683.496	1	-1
684.682	1	-2
685.867	1	3
687.053	1	-5
688.238	1	10
688.746	1	3