File: Data/GaN_130K_350ms/GaN_sample F_spot6_UVVIS_130 K_200um_350 ms 2x2mm1_139.txt
340.368	1	10
341.565	1	-5
342.763	1	8
343.960	1	-11
345.157	1	-9
346.354	1	4
347.552	1	12
348.749	1	4
349.946	1	17
351.143	1	5
352.340	1	22
353.537	1	5
354.734	1	5
355.931	1	9
357.127	1	24
358.324	1	9
359.521	1	2
360.718	1	23
361.914	1	20
363.111	1	40
364.308	1	36
365.504	1	39
366.701	1	45
367.897	1	43
369.093	1	48
370.290	1	42
371.486	1	31
372.682	1	31
373.879	1	16
375.075	1	41
376.271	1	26
377.467	1	24
378.663	1	15
379.859	1	17
381.055	1	14
382.251	1	13
383.447	1	18
384.643	1	12
385.839	1	16
387.035	1	14
388.230	1	15
389.426	1	7
390.622	1	6
391.817	1	13
393.013	1	8
394.208	1	5
395.404	1	10
396.599	1	16
397.795	1	2
398.990	1	9
400.186	1	4
401.381	1	10
402.576	1	14
403.771	1	9
404.967	1	3
406.162	1	11
407.357	1	17
408.552	1	-5
409.747	1	1
410.942	1	6
412.137	1	7
413.332	1	5
414.526	1	2
415.721	1	6
416.916	1	8
418.111	1	6
419.305	1	11
420.500	1	10
421.695	1	5
422.889	1	1
424.084	1	15
425.278	1	5
426.472	1	2
427.667	1	13
428.861	1	1
430.055	1	6
431.250	1	12
432.444	1	5
433.638	1	5
434.832	1	10
436.026	1	13
437.220	1	-6
438.414	1	6
439.608	1	20
440.802	1	8
441.996	1	10
443.190	1	12
444.384	1	1
445.578	1	-7
446.771	1	13
447.965	1	4
449.159	1	3
450.352	1	17
451.546	1	23
452.739	1	10
453.933	1	1
455.126	1	-2
456.320	1	6
457.513	1	-3
458.706	1	13
459.899	1	3
461.093	1	15
462.286	1	12
463.479	1	10
464.672	1	13
465.865	1	-5
467.058	1	13
468.251	1	2
469.444	1	-2
470.637	1	8
471.830	1	3
473.023	1	10
474.215	1	1
475.408	1	6
476.601	1	-5
477.793	1	4
478.986	1	-11
480.179	1	0
481.371	1	13
482.564	1	0
483.756	1	11
484.948	1	1
486.141	1	7
487.333	1	7
488.525	1	12
489.718	1	11
490.910	1	4
492.102	1	8
493.294	1	11
494.486	1	19
495.678	1	4
496.870	1	8
498.062	1	-2
499.254	1	15
500.446	1	16
501.638	1	8
502.829	1	6
504.021	1	6
505.213	1	14
506.404	1	12
507.596	1	-1
508.788	1	13
509.979	1	10
511.171	1	23
512.362	1	5
513.553	1	21
514.745	1	16
515.936	1	14
517.127	1	13
518.319	1	11
519.510	1	14
520.701	1	17
521.892	1	27
523.083	1	22
524.274	1	7
525.465	1	17
526.656	1	18
527.847	1	14
529.038	1	12
530.229	1	19
531.419	1	22
532.610	1	8
533.801	1	28
534.991	1	11
536.182	1	19
537.373	1	19
538.563	1	21
539.754	1	16
540.944	1	21
542.134	1	11
543.325	1	9
544.515	1	17
545.705	1	8
546.896	1	15
548.086	1	6
549.276	1	8
550.466	1	16
551.656	1	16
552.846	1	14
554.036	1	12
555.226	1	22
556.416	1	20
557.606	1	7
558.796	1	12
559.986	1	17
561.175	1	13
562.365	1	17
563.555	1	20
564.744	1	14
565.934	1	-2
567.123	1	3
568.313	1	12
569.502	1	3
570.692	1	12
571.881	1	4
573.070	1	7
574.260	1	10
575.449	1	1
576.638	1	2
577.827	1	-1
579.016	1	-4
580.205	1	-8
581.394	1	3
582.583	1	16
583.772	1	12
584.961	1	13
586.150	1	16
587.339	1	9
588.528	1	15
589.717	1	2
590.905	1	14
592.094	1	-2
593.283	1	-1
594.471	1	6
595.660	1	9
596.848	1	5
598.037	1	5
599.225	1	9
600.413	1	20
601.602	1	-4
602.790	1	1
603.978	1	4
605.166	1	14
606.355	1	6
607.543	1	-2
608.731	1	11
609.919	1	5
611.107	1	7
612.295	1	13
613.483	1	4
614.671	1	5
615.858	1	2
617.046	1	9
618.234	1	4
619.422	1	1
620.609	1	-9
621.797	1	4
622.985	1	6
624.172	1	-2
625.360	1	-1
626.547	1	2
627.735	1	12
628.922	1	-3
630.109	1	-2
631.297	1	0
632.484	1	-6
633.671	1	-7
634.858	1	15
636.045	1	15
637.232	1	4
638.419	1	-5
639.606	1	3
640.793	1	-7
641.980	1	-4
643.167	1	7
644.354	1	3
645.541	1	3
646.728	1	8
647.914	1	3
649.101	1	5
650.288	1	8
651.474	1	7
652.661	1	-5
653.847	1	1
655.034	1	3
656.220	1	2
657.406	1	6
658.593	1	-5
659.779	1	7
660.965	1	8
662.152	1	3
663.338	1	0
664.524	1	-3
665.710	1	10
666.896	1	6
668.082	1	11
669.268	1	-3
670.454	1	5
671.640	1	-10
672.826	1	6
674.011	1	1
675.197	1	-3
676.383	1	3
677.569	1	6
678.754	1	10
679.940	1	-5
681.125	1	18
682.311	1	-2
683.496	1	-2
684.682	1	1
685.867	1	8
687.053	1	2
688.238	1	16
688.746	1	6