File: Data/GaN_130K_350ms/GaN_sample F_spot6_UVVIS_130 K_200um_350 ms 2x2mm1_250.txt
340.368	1	3
341.565	1	0
342.763	1	5
343.960	1	-12
345.157	1	-8
346.354	1	-8
347.552	1	2
348.749	1	3
349.946	1	6
351.143	1	-6
352.340	1	7
353.537	1	-3
354.734	1	1
355.931	1	-1
357.127	1	6
358.324	1	8
359.521	1	1
360.718	1	1
361.914	1	10
363.111	1	15
364.308	1	12
365.504	1	7
366.701	1	11
367.897	1	9
369.093	1	15
370.290	1	15
371.486	1	4
372.682	1	6
373.879	1	13
375.075	1	20
376.271	1	3
377.467	1	18
378.663	1	15
379.859	1	1
381.055	1	8
382.251	1	4
383.447	1	2
384.643	1	14
385.839	1	10
387.035	1	14
388.230	1	-7
389.426	1	8
390.622	1	-3
391.817	1	10
393.013	1	4
394.208	1	-3
395.404	1	-8
396.599	1	14
397.795	1	-12
398.990	1	11
400.186	1	1
401.381	1	8
402.576	1	-1
403.771	1	2
404.967	1	1
406.162	1	7
407.357	1	3
408.552	1	0
409.747	1	-1
410.942	1	0
412.137	1	-3
413.332	1	1
414.526	1	4
415.721	1	5
416.916	1	6
418.111	1	12
419.305	1	7
420.500	1	3
421.695	1	8
422.889	1	2
424.084	1	7
425.278	1	3
426.472	1	1
427.667	1	9
428.861	1	0
430.055	1	-3
431.250	1	10
432.444	1	7
433.638	1	10
434.832	1	-6
436.026	1	1
437.220	1	-4
438.414	1	-5
439.608	1	6
440.802	1	-1
441.996	1	-1
443.190	1	0
444.384	1	-10
445.578	1	-2
446.771	1	8
447.965	1	1
449.159	1	6
450.352	1	12
451.546	1	19
452.739	1	4
453.933	1	2
455.126	1	-9
456.320	1	-2
457.513	1	2
458.706	1	2
459.899	1	4
461.093	1	7
462.286	1	3
463.479	1	7
464.672	1	6
465.865	1	-6
467.058	1	0
468.251	1	-2
469.444	1	2
470.637	1	4
471.830	1	0
473.023	1	-2
474.215	1	-1
475.408	1	-2
476.601	1	5
477.793	1	7
478.986	1	-1
480.179	1	5
481.371	1	6
482.564	1	-2
483.756	1	1
484.948	1	-1
486.141	1	0
487.333	1	-10
488.525	1	9
489.718	1	8
490.910	1	2
492.102	1	11
493.294	1	10
494.486	1	8
495.678	1	-2
496.870	1	-4
498.062	1	1
499.254	1	9
500.446	1	1
501.638	1	-2
502.829	1	7
504.021	1	4
505.213	1	2
506.404	1	-3
507.596	1	3
508.788	1	2
509.979	1	4
511.171	1	6
512.362	1	-3
513.553	1	4
514.745	1	-3
515.936	1	15
517.127	1	7
518.319	1	-3
519.510	1	5
520.701	1	-4
521.892	1	7
523.083	1	5
524.274	1	-7
525.465	1	7
526.656	1	-4
527.847	1	6
529.038	1	-2
530.229	1	9
531.419	1	3
532.610	1	5
533.801	1	16
534.991	1	-1
536.182	1	6
537.373	1	1
538.563	1	11
539.754	1	9
540.944	1	0
542.134	1	1
543.325	1	10
544.515	1	8
545.705	1	2
546.896	1	4
548.086	1	5
549.276	1	3
550.466	1	15
551.656	1	2
552.846	1	-7
554.036	1	4
555.226	1	6
556.416	1	10
557.606	1	1
558.796	1	10
559.986	1	2
561.175	1	12
562.365	1	8
563.555	1	7
564.744	1	-2
565.934	1	4
567.123	1	-1
568.313	1	0
569.502	1	9
570.692	1	7
571.881	1	3
573.070	1	-3
574.260	1	7
575.449	1	7
576.638	1	1
577.827	1	-12
579.016	1	-3
580.205	1	-1
581.394	1	4
582.583	1	11
583.772	1	3
584.961	1	4
586.150	1	11
587.339	1	-2
588.528	1	-3
589.717	1	2
590.905	1	17
592.094	1	12
593.283	1	-7
594.471	1	5
595.660	1	2
596.848	1	5
598.037	1	9
599.225	1	-3
600.413	1	6
601.602	1	1
602.790	1	-4
603.978	1	2
605.166	1	14
606.355	1	10
607.543	1	-1
608.731	1	0
609.919	1	9
611.107	1	8
612.295	1	15
613.483	1	-3
614.671	1	3
615.858	1	1
617.046	1	7
618.234	1	-3
619.422	1	4
620.609	1	-5
621.797	1	6
622.985	1	5
624.172	1	-1
625.360	1	2
626.547	1	1
627.735	1	9
628.922	1	-7
630.109	1	6
631.297	1	2
632.484	1	-5
633.671	1	-5
634.858	1	-2
636.045	1	9
637.232	1	-6
638.419	1	-1
639.606	1	2
640.793	1	0
641.980	1	1
643.167	1	3
644.354	1	-3
645.541	1	3
646.728	1	12
647.914	1	-3
649.101	1	-3
650.288	1	8
651.474	1	1
652.661	1	-1
653.847	1	-1
655.034	1	-4
656.220	1	0
657.406	1	0
658.593	1	-3
659.779	1	8
660.965	1	-1
662.152	1	-1
663.338	1	-3
664.524	1	-2
665.710	1	4
666.896	1	11
668.082	1	4
669.268	1	0
670.454	1	-8
671.640	1	-11
672.826	1	3
674.011	1	-1
675.197	1	5
676.383	1	13
677.569	1	-3
678.754	1	0
679.940	1	-3
681.125	1	8
682.311	1	-5
683.496	1	4
684.682	1	-6
685.867	1	-3
687.053	1	5
688.238	1	6
688.746	1	5