File: Data/GaN_130K_350ms/GaN_sample F_spot6_UVVIS_130 K_200um_350 ms 2x2mm1_102.txt
340.368	1	4
341.565	1	1
342.763	1	7
343.960	1	-8
345.157	1	-2
346.354	1	2
347.552	1	4
348.749	1	13
349.946	1	3
351.143	1	2
352.340	1	7
353.537	1	4
354.734	1	7
355.931	1	6
357.127	1	20
358.324	1	17
359.521	1	8
360.718	1	30
361.914	1	40
363.111	1	64
364.308	1	85
365.504	1	86
366.701	1	101
367.897	1	120
369.093	1	112
370.290	1	103
371.486	1	81
372.682	1	66
373.879	1	68
375.075	1	62
376.271	1	53
377.467	1	49
378.663	1	37
379.859	1	31
381.055	1	23
382.251	1	28
383.447	1	29
384.643	1	42
385.839	1	35
387.035	1	47
388.230	1	25
389.426	1	19
390.622	1	28
391.817	1	27
393.013	1	22
394.208	1	6
395.404	1	5
396.599	1	22
397.795	1	5
398.990	1	18
400.186	1	16
401.381	1	7
402.576	1	13
403.771	1	18
404.967	1	13
406.162	1	6
407.357	1	10
408.552	1	9
409.747	1	6
410.942	1	5
412.137	1	16
413.332	1	-3
414.526	1	11
415.721	1	9
416.916	1	12
418.111	1	16
419.305	1	15
420.500	1	7
421.695	1	3
422.889	1	10
424.084	1	13
425.278	1	1
426.472	1	11
427.667	1	15
428.861	1	-2
430.055	1	5
431.250	1	11
432.444	1	11
433.638	1	6
434.832	1	1
436.026	1	12
437.220	1	1
438.414	1	-4
439.608	1	13
440.802	1	-3
441.996	1	11
443.190	1	7
444.384	1	3
445.578	1	1
446.771	1	2
447.965	1	-2
449.159	1	11
450.352	1	11
451.546	1	12
452.739	1	6
453.933	1	13
455.126	1	4
456.320	1	6
457.513	1	6
458.706	1	1
459.899	1	4
461.093	1	12
462.286	1	0
463.479	1	10
464.672	1	3
465.865	1	-5
467.058	1	1
468.251	1	10
469.444	1	8
470.637	1	15
471.830	1	6
473.023	1	9
474.215	1	13
475.408	1	14
476.601	1	4
477.793	1	-2
478.986	1	3
480.179	1	7
481.371	1	17
482.564	1	0
483.756	1	14
484.948	1	12
486.141	1	9
487.333	1	-3
488.525	1	15
489.718	1	17
490.910	1	11
492.102	1	19
493.294	1	14
494.486	1	28
495.678	1	22
496.870	1	23
498.062	1	13
499.254	1	30
500.446	1	24
501.638	1	16
502.829	1	21
504.021	1	23
505.213	1	16
506.404	1	36
507.596	1	31
508.788	1	37
509.979	1	28
511.171	1	51
512.362	1	29
513.553	1	41
514.745	1	34
515.936	1	57
517.127	1	44
518.319	1	39
519.510	1	37
520.701	1	42
521.892	1	44
523.083	1	49
524.274	1	33
525.465	1	46
526.656	1	42
527.847	1	36
529.038	1	31
530.229	1	47
531.419	1	48
532.610	1	47
533.801	1	51
534.991	1	44
536.182	1	43
537.373	1	36
538.563	1	51
539.754	1	47
540.944	1	49
542.134	1	40
543.325	1	46
544.515	1	30
545.705	1	34
546.896	1	38
548.086	1	34
549.276	1	31
550.466	1	40
551.656	1	33
552.846	1	27
554.036	1	38
555.226	1	38
556.416	1	35
557.606	1	28
558.796	1	43
559.986	1	35
561.175	1	37
562.365	1	21
563.555	1	37
564.744	1	21
565.934	1	27
567.123	1	31
568.313	1	12
569.502	1	22
570.692	1	15
571.881	1	24
573.070	1	24
574.260	1	16
575.449	1	12
576.638	1	13
577.827	1	6
579.016	1	18
580.205	1	6
581.394	1	11
582.583	1	25
583.772	1	17
584.961	1	6
586.150	1	10
587.339	1	20
588.528	1	20
589.717	1	12
590.905	1	18
592.094	1	11
593.283	1	-2
594.471	1	7
595.660	1	15
596.848	1	11
598.037	1	4
599.225	1	11
600.413	1	10
601.602	1	7
602.790	1	6
603.978	1	14
605.166	1	7
606.355	1	5
607.543	1	13
608.731	1	10
609.919	1	18
611.107	1	16
612.295	1	6
613.483	1	0
614.671	1	5
615.858	1	6
617.046	1	10
618.234	1	-4
619.422	1	8
620.609	1	6
621.797	1	10
622.985	1	1
624.172	1	6
625.360	1	3
626.547	1	11
627.735	1	13
628.922	1	1
630.109	1	5
631.297	1	3
632.484	1	4
633.671	1	-1
634.858	1	10
636.045	1	18
637.232	1	-7
638.419	1	3
639.606	1	1
640.793	1	1
641.980	1	-2
643.167	1	10
644.354	1	2
645.541	1	3
646.728	1	12
647.914	1	-2
649.101	1	4
650.288	1	7
651.474	1	10
652.661	1	9
653.847	1	-1
655.034	1	-1
656.220	1	-9
657.406	1	5
658.593	1	-3
659.779	1	17
660.965	1	6
662.152	1	1
663.338	1	5
664.524	1	10
665.710	1	10
666.896	1	8
668.082	1	4
669.268	1	5
670.454	1	6
671.640	1	-2
672.826	1	8
674.011	1	5
675.197	1	0
676.383	1	8
677.569	1	1
678.754	1	7
679.940	1	8
681.125	1	14
682.311	1	-8
683.496	1	7
684.682	1	0
685.867	1	4
687.053	1	5
688.238	1	8
688.746	1	14