File: Data/GaN_130K_350ms/GaN_sample F_spot6_UVVIS_130 K_200um_350 ms 2x2mm1_147.txt
340.368	1	7
341.565	1	5
342.763	1	5
343.960	1	-9
345.157	1	-5
346.354	1	1
347.552	1	-2
348.749	1	11
349.946	1	1
351.143	1	7
352.340	1	13
353.537	1	2
354.734	1	-5
355.931	1	7
357.127	1	16
358.324	1	1
359.521	1	2
360.718	1	17
361.914	1	16
363.111	1	27
364.308	1	34
365.504	1	35
366.701	1	39
367.897	1	41
369.093	1	37
370.290	1	38
371.486	1	31
372.682	1	23
373.879	1	28
375.075	1	28
376.271	1	17
377.467	1	20
378.663	1	22
379.859	1	8
381.055	1	14
382.251	1	5
383.447	1	15
384.643	1	15
385.839	1	12
387.035	1	21
388.230	1	9
389.426	1	15
390.622	1	20
391.817	1	16
393.013	1	14
394.208	1	7
395.404	1	1
396.599	1	11
397.795	1	6
398.990	1	5
400.186	1	6
401.381	1	6
402.576	1	10
403.771	1	2
404.967	1	0
406.162	1	6
407.357	1	13
408.552	1	5
409.747	1	4
410.942	1	9
412.137	1	1
413.332	1	0
414.526	1	5
415.721	1	14
416.916	1	7
418.111	1	5
419.305	1	1
420.500	1	11
421.695	1	-2
422.889	1	9
424.084	1	9
425.278	1	2
426.472	1	8
427.667	1	12
428.861	1	7
430.055	1	8
431.250	1	8
432.444	1	9
433.638	1	3
434.832	1	-5
436.026	1	12
437.220	1	-6
438.414	1	4
439.608	1	14
440.802	1	8
441.996	1	6
443.190	1	7
444.384	1	-4
445.578	1	-2
446.771	1	2
447.965	1	2
449.159	1	10
450.352	1	10
451.546	1	22
452.739	1	7
453.933	1	1
455.126	1	2
456.320	1	5
457.513	1	3
458.706	1	10
459.899	1	-5
461.093	1	9
462.286	1	6
463.479	1	13
464.672	1	6
465.865	1	-2
467.058	1	7
468.251	1	9
469.444	1	7
470.637	1	1
471.830	1	0
473.023	1	4
474.215	1	2
475.408	1	5
476.601	1	-1
477.793	1	3
478.986	1	0
480.179	1	-2
481.371	1	13
482.564	1	-7
483.756	1	1
484.948	1	0
486.141	1	5
487.333	1	9
488.525	1	1
489.718	1	12
490.910	1	1
492.102	1	12
493.294	1	12
494.486	1	14
495.678	1	0
496.870	1	13
498.062	1	-1
499.254	1	11
500.446	1	6
501.638	1	7
502.829	1	4
504.021	1	7
505.213	1	12
506.404	1	14
507.596	1	7
508.788	1	14
509.979	1	9
511.171	1	21
512.362	1	7
513.553	1	17
514.745	1	16
515.936	1	25
517.127	1	19
518.319	1	11
519.510	1	14
520.701	1	8
521.892	1	13
523.083	1	9
524.274	1	7
525.465	1	19
526.656	1	13
527.847	1	15
529.038	1	10
530.229	1	22
531.419	1	15
532.610	1	13
533.801	1	27
534.991	1	18
536.182	1	18
537.373	1	12
538.563	1	13
539.754	1	11
540.944	1	20
542.134	1	1
543.325	1	17
544.515	1	12
545.705	1	11
546.896	1	8
548.086	1	6
549.276	1	11
550.466	1	13
551.656	1	2
552.846	1	1
554.036	1	14
555.226	1	20
556.416	1	19
557.606	1	5
558.796	1	11
559.986	1	15
561.175	1	10
562.365	1	19
563.555	1	10
564.744	1	10
565.934	1	8
567.123	1	10
568.313	1	-3
569.502	1	5
570.692	1	9
571.881	1	12
573.070	1	15
574.260	1	15
575.449	1	7
576.638	1	3
577.827	1	5
579.016	1	-1
580.205	1	1
581.394	1	4
582.583	1	8
583.772	1	5
584.961	1	1
586.150	1	7
587.339	1	6
588.528	1	18
589.717	1	5
590.905	1	12
592.094	1	4
593.283	1	-1
594.471	1	9
595.660	1	6
596.848	1	8
598.037	1	4
599.225	1	-2
600.413	1	15
601.602	1	1
602.790	1	7
603.978	1	4
605.166	1	17
606.355	1	4
607.543	1	3
608.731	1	6
609.919	1	9
611.107	1	8
612.295	1	5
613.483	1	1
614.671	1	12
615.858	1	-2
617.046	1	0
618.234	1	-7
619.422	1	4
620.609	1	-11
621.797	1	3
622.985	1	5
624.172	1	7
625.360	1	-6
626.547	1	-2
627.735	1	16
628.922	1	-7
630.109	1	5
631.297	1	2
632.484	1	-8
633.671	1	-1
634.858	1	14
636.045	1	14
637.232	1	-2
638.419	1	8
639.606	1	8
640.793	1	-4
641.980	1	6
643.167	1	3
644.354	1	1
645.541	1	5
646.728	1	11
647.914	1	-6
649.101	1	-1
650.288	1	2
651.474	1	8
652.661	1	-4
653.847	1	-1
655.034	1	4
656.220	1	0
657.406	1	5
658.593	1	-1
659.779	1	7
660.965	1	3
662.152	1	2
663.338	1	8
664.524	1	1
665.710	1	7
666.896	1	3
668.082	1	6
669.268	1	-4
670.454	1	7
671.640	1	5
672.826	1	-2
674.011	1	6
675.197	1	-6
676.383	1	4
677.569	1	1
678.754	1	2
679.940	1	-2
681.125	1	8
682.311	1	-13
683.496	1	2
684.682	1	10
685.867	1	6
687.053	1	-1
688.238	1	19
688.746	1	7