File: Data/GaN_130K_350ms/GaN_sample F_spot6_UVVIS_130 K_200um_350 ms 2x2mm1_156.txt
340.368	1	5
341.565	1	2
342.763	1	6
343.960	1	-4
345.157	1	-12
346.354	1	-1
347.552	1	10
348.749	1	5
349.946	1	5
351.143	1	8
352.340	1	17
353.537	1	1
354.734	1	2
355.931	1	8
357.127	1	14
358.324	1	-2
359.521	1	5
360.718	1	14
361.914	1	20
363.111	1	22
364.308	1	24
365.504	1	24
366.701	1	36
367.897	1	36
369.093	1	33
370.290	1	37
371.486	1	36
372.682	1	20
373.879	1	29
375.075	1	28
376.271	1	21
377.467	1	19
378.663	1	13
379.859	1	16
381.055	1	12
382.251	1	11
383.447	1	14
384.643	1	11
385.839	1	17
387.035	1	14
388.230	1	8
389.426	1	20
390.622	1	14
391.817	1	14
393.013	1	15
394.208	1	-1
395.404	1	2
396.599	1	9
397.795	1	9
398.990	1	0
400.186	1	5
401.381	1	4
402.576	1	14
403.771	1	22
404.967	1	3
406.162	1	4
407.357	1	0
408.552	1	-2
409.747	1	3
410.942	1	13
412.137	1	6
413.332	1	3
414.526	1	6
415.721	1	3
416.916	1	5
418.111	1	12
419.305	1	2
420.500	1	9
421.695	1	-5
422.889	1	3
424.084	1	13
425.278	1	8
426.472	1	4
427.667	1	18
428.861	1	8
430.055	1	1
431.250	1	16
432.444	1	10
433.638	1	8
434.832	1	1
436.026	1	7
437.220	1	0
438.414	1	-7
439.608	1	9
440.802	1	0
441.996	1	13
443.190	1	10
444.384	1	-5
445.578	1	1
446.771	1	5
447.965	1	4
449.159	1	6
450.352	1	9
451.546	1	12
452.739	1	5
453.933	1	9
455.126	1	-9
456.320	1	8
457.513	1	-10
458.706	1	11
459.899	1	-1
461.093	1	1
462.286	1	11
463.479	1	13
464.672	1	15
465.865	1	-4
467.058	1	14
468.251	1	-2
469.444	1	2
470.637	1	7
471.830	1	7
473.023	1	8
474.215	1	4
475.408	1	4
476.601	1	0
477.793	1	3
478.986	1	9
480.179	1	4
481.371	1	13
482.564	1	8
483.756	1	3
484.948	1	7
486.141	1	0
487.333	1	2
488.525	1	3
489.718	1	4
490.910	1	-5
492.102	1	1
493.294	1	8
494.486	1	17
495.678	1	3
496.870	1	7
498.062	1	-1
499.254	1	15
500.446	1	4
501.638	1	7
502.829	1	-3
504.021	1	5
505.213	1	8
506.404	1	12
507.596	1	-3
508.788	1	6
509.979	1	1
511.171	1	18
512.362	1	8
513.553	1	20
514.745	1	5
515.936	1	23
517.127	1	12
518.319	1	5
519.510	1	4
520.701	1	10
521.892	1	20
523.083	1	18
524.274	1	8
525.465	1	16
526.656	1	8
527.847	1	5
529.038	1	7
530.229	1	21
531.419	1	10
532.610	1	12
533.801	1	21
534.991	1	12
536.182	1	23
537.373	1	12
538.563	1	20
539.754	1	4
540.944	1	8
542.134	1	8
543.325	1	8
544.515	1	9
545.705	1	10
546.896	1	11
548.086	1	11
549.276	1	6
550.466	1	21
551.656	1	12
552.846	1	-2
554.036	1	7
555.226	1	3
556.416	1	13
557.606	1	9
558.796	1	11
559.986	1	5
561.175	1	17
562.365	1	16
563.555	1	17
564.744	1	6
565.934	1	5
567.123	1	2
568.313	1	2
569.502	1	10
570.692	1	13
571.881	1	7
573.070	1	12
574.260	1	6
575.449	1	10
576.638	1	-3
577.827	1	1
579.016	1	6
580.205	1	-1
581.394	1	7
582.583	1	10
583.772	1	4
584.961	1	0
586.150	1	11
587.339	1	12
588.528	1	7
589.717	1	0
590.905	1	0
592.094	1	5
593.283	1	-6
594.471	1	3
595.660	1	1
596.848	1	6
598.037	1	11
599.225	1	7
600.413	1	8
601.602	1	1
602.790	1	0
603.978	1	6
605.166	1	5
606.355	1	7
607.543	1	4
608.731	1	-1
609.919	1	2
611.107	1	6
612.295	1	7
613.483	1	-6
614.671	1	5
615.858	1	-3
617.046	1	8
618.234	1	1
619.422	1	13
620.609	1	3
621.797	1	-7
622.985	1	9
624.172	1	7
625.360	1	4
626.547	1	7
627.735	1	9
628.922	1	-2
630.109	1	15
631.297	1	11
632.484	1	-7
633.671	1	-3
634.858	1	11
636.045	1	15
637.232	1	0
638.419	1	6
639.606	1	14
640.793	1	-5
641.980	1	4
643.167	1	-2
644.354	1	-2
645.541	1	-1
646.728	1	5
647.914	1	-2
649.101	1	-2
650.288	1	4
651.474	1	-3
652.661	1	-3
653.847	1	-2
655.034	1	-2
656.220	1	3
657.406	1	8
658.593	1	2
659.779	1	2
660.965	1	3
662.152	1	4
663.338	1	11
664.524	1	4
665.710	1	6
666.896	1	9
668.082	1	2
669.268	1	0
670.454	1	1
671.640	1	-2
672.826	1	2
674.011	1	-3
675.197	1	-1
676.383	1	6
677.569	1	2
678.754	1	6
679.940	1	8
681.125	1	11
682.311	1	-8
683.496	1	-1
684.682	1	10
685.867	1	7
687.053	1	5
688.238	1	12
688.746	1	4