File: Data/GaN_130K_350ms/GaN_sample F_spot6_UVVIS_130 K_200um_350 ms 2x2mm1_282.txt
340.368	1	9
341.565	1	-2
342.763	1	-4
343.960	1	-14
345.157	1	-11
346.354	1	-3
347.552	1	-1
348.749	1	2
349.946	1	12
351.143	1	0
352.340	1	13
353.537	1	-7
354.734	1	-7
355.931	1	10
357.127	1	4
358.324	1	-6
359.521	1	-4
360.718	1	4
361.914	1	-1
363.111	1	16
364.308	1	20
365.504	1	9
366.701	1	3
367.897	1	6
369.093	1	15
370.290	1	14
371.486	1	8
372.682	1	2
373.879	1	10
375.075	1	14
376.271	1	9
377.467	1	14
378.663	1	5
379.859	1	-1
381.055	1	4
382.251	1	2
383.447	1	8
384.643	1	11
385.839	1	5
387.035	1	15
388.230	1	3
389.426	1	16
390.622	1	4
391.817	1	15
393.013	1	6
394.208	1	-8
395.404	1	1
396.599	1	14
397.795	1	-5
398.990	1	7
400.186	1	-1
401.381	1	2
402.576	1	2
403.771	1	10
404.967	1	4
406.162	1	-4
407.357	1	1
408.552	1	-1
409.747	1	4
410.942	1	4
412.137	1	-8
413.332	1	-2
414.526	1	6
415.721	1	3
416.916	1	-1
418.111	1	9
419.305	1	0
420.500	1	4
421.695	1	4
422.889	1	2
424.084	1	5
425.278	1	3
426.472	1	4
427.667	1	5
428.861	1	0
430.055	1	5
431.250	1	1
432.444	1	5
433.638	1	3
434.832	1	6
436.026	1	5
437.220	1	5
438.414	1	-6
439.608	1	13
440.802	1	-2
441.996	1	12
443.190	1	8
444.384	1	-4
445.578	1	-5
446.771	1	9
447.965	1	3
449.159	1	4
450.352	1	5
451.546	1	8
452.739	1	2
453.933	1	1
455.126	1	-8
456.320	1	-3
457.513	1	-3
458.706	1	8
459.899	1	-1
461.093	1	8
462.286	1	2
463.479	1	5
464.672	1	6
465.865	1	-4
467.058	1	8
468.251	1	6
469.444	1	-1
470.637	1	-2
471.830	1	2
473.023	1	1
474.215	1	15
475.408	1	2
476.601	1	-1
477.793	1	1
478.986	1	-5
480.179	1	-7
481.371	1	8
482.564	1	-6
483.756	1	1
484.948	1	-5
486.141	1	2
487.333	1	0
488.525	1	3
489.718	1	9
490.910	1	-7
492.102	1	13
493.294	1	13
494.486	1	13
495.678	1	1
496.870	1	9
498.062	1	-8
499.254	1	-1
500.446	1	4
501.638	1	2
502.829	1	8
504.021	1	4
505.213	1	9
506.404	1	-1
507.596	1	3
508.788	1	-6
509.979	1	-3
511.171	1	12
512.362	1	3
513.553	1	9
514.745	1	0
515.936	1	10
517.127	1	5
518.319	1	0
519.510	1	1
520.701	1	1
521.892	1	10
523.083	1	11
524.274	1	-5
525.465	1	15
526.656	1	2
527.847	1	3
529.038	1	-2
530.229	1	11
531.419	1	10
532.610	1	1
533.801	1	15
534.991	1	10
536.182	1	4
537.373	1	6
538.563	1	18
539.754	1	4
540.944	1	-6
542.134	1	-10
543.325	1	5
544.515	1	-2
545.705	1	-4
546.896	1	9
548.086	1	-8
549.276	1	-3
550.466	1	15
551.656	1	5
552.846	1	6
554.036	1	1
555.226	1	-1
556.416	1	3
557.606	1	10
558.796	1	7
559.986	1	2
561.175	1	8
562.365	1	0
563.555	1	6
564.744	1	7
565.934	1	3
567.123	1	6
568.313	1	-3
569.502	1	-5
570.692	1	11
571.881	1	5
573.070	1	2
574.260	1	5
575.449	1	6
576.638	1	7
577.827	1	1
579.016	1	-1
580.205	1	3
581.394	1	3
582.583	1	3
583.772	1	5
584.961	1	-2
586.150	1	13
587.339	1	1
588.528	1	9
589.717	1	5
590.905	1	8
592.094	1	5
593.283	1	-7
594.471	1	-3
595.660	1	12
596.848	1	5
598.037	1	-1
599.225	1	2
600.413	1	4
601.602	1	1
602.790	1	-5
603.978	1	-1
605.166	1	2
606.355	1	6
607.543	1	-3
608.731	1	1
609.919	1	10
611.107	1	10
612.295	1	-2
613.483	1	-7
614.671	1	-2
615.858	1	-3
617.046	1	7
618.234	1	0
619.422	1	4
620.609	1	-8
621.797	1	3
622.985	1	7
624.172	1	-2
625.360	1	-1
626.547	1	1
627.735	1	15
628.922	1	-10
630.109	1	10
631.297	1	-4
632.484	1	-10
633.671	1	6
634.858	1	9
636.045	1	12
637.232	1	-7
638.419	1	8
639.606	1	5
640.793	1	-9
641.980	1	0
643.167	1	6
644.354	1	0
645.541	1	8
646.728	1	10
647.914	1	-9
649.101	1	-4
650.288	1	17
651.474	1	4
652.661	1	7
653.847	1	5
655.034	1	3
656.220	1	-11
657.406	1	1
658.593	1	-7
659.779	1	-4
660.965	1	1
662.152	1	-2
663.338	1	8
664.524	1	1
665.710	1	5
666.896	1	2
668.082	1	-7
669.268	1	-2
670.454	1	5
671.640	1	-4
672.826	1	3
674.011	1	0
675.197	1	-4
676.383	1	6
677.569	1	-4
678.754	1	3
679.940	1	-7
681.125	1	4
682.311	1	-6
683.496	1	-5
684.682	1	4
685.867	1	6
687.053	1	0
688.238	1	3
688.746	1	8