File: Data/GaN_130K_350ms/GaN_sample F_spot6_UVVIS_130 K_200um_350 ms 2x2mm1_253.txt
340.368	1	6
341.565	1	4
342.763	1	4
343.960	1	-9
345.157	1	-8
346.354	1	-6
347.552	1	-5
348.749	1	6
349.946	1	8
351.143	1	3
352.340	1	9
353.537	1	-3
354.734	1	-14
355.931	1	2
357.127	1	-2
358.324	1	2
359.521	1	-3
360.718	1	9
361.914	1	6
363.111	1	20
364.308	1	9
365.504	1	16
366.701	1	6
367.897	1	12
369.093	1	12
370.290	1	19
371.486	1	8
372.682	1	4
373.879	1	12
375.075	1	8
376.271	1	12
377.467	1	6
378.663	1	11
379.859	1	10
381.055	1	11
382.251	1	5
383.447	1	5
384.643	1	0
385.839	1	11
387.035	1	11
388.230	1	-9
389.426	1	10
390.622	1	3
391.817	1	6
393.013	1	7
394.208	1	-6
395.404	1	-5
396.599	1	14
397.795	1	0
398.990	1	9
400.186	1	-5
401.381	1	3
402.576	1	6
403.771	1	6
404.967	1	3
406.162	1	-2
407.357	1	3
408.552	1	-3
409.747	1	1
410.942	1	4
412.137	1	-3
413.332	1	1
414.526	1	6
415.721	1	-7
416.916	1	6
418.111	1	8
419.305	1	-3
420.500	1	6
421.695	1	4
422.889	1	-7
424.084	1	3
425.278	1	-4
426.472	1	5
427.667	1	17
428.861	1	2
430.055	1	-1
431.250	1	12
432.444	1	15
433.638	1	4
434.832	1	-10
436.026	1	8
437.220	1	2
438.414	1	-2
439.608	1	21
440.802	1	-9
441.996	1	7
443.190	1	12
444.384	1	-4
445.578	1	-1
446.771	1	8
447.965	1	6
449.159	1	7
450.352	1	5
451.546	1	11
452.739	1	3
453.933	1	-1
455.126	1	-10
456.320	1	-2
457.513	1	-7
458.706	1	6
459.899	1	4
461.093	1	10
462.286	1	6
463.479	1	9
464.672	1	6
465.865	1	-4
467.058	1	3
468.251	1	13
469.444	1	4
470.637	1	5
471.830	1	1
473.023	1	7
474.215	1	3
475.408	1	2
476.601	1	1
477.793	1	0
478.986	1	0
480.179	1	-8
481.371	1	5
482.564	1	-1
483.756	1	-7
484.948	1	-2
486.141	1	0
487.333	1	3
488.525	1	4
489.718	1	5
490.910	1	-9
492.102	1	7
493.294	1	0
494.486	1	12
495.678	1	-2
496.870	1	8
498.062	1	-5
499.254	1	-3
500.446	1	12
501.638	1	-5
502.829	1	11
504.021	1	1
505.213	1	4
506.404	1	-10
507.596	1	-6
508.788	1	0
509.979	1	-1
511.171	1	19
512.362	1	-1
513.553	1	13
514.745	1	6
515.936	1	18
517.127	1	1
518.319	1	0
519.510	1	0
520.701	1	-1
521.892	1	6
523.083	1	2
524.274	1	5
525.465	1	3
526.656	1	2
527.847	1	3
529.038	1	-5
530.229	1	14
531.419	1	7
532.610	1	7
533.801	1	17
534.991	1	6
536.182	1	17
537.373	1	-5
538.563	1	3
539.754	1	4
540.944	1	4
542.134	1	-3
543.325	1	5
544.515	1	3
545.705	1	3
546.896	1	5
548.086	1	0
549.276	1	-2
550.466	1	20
551.656	1	7
552.846	1	0
554.036	1	-1
555.226	1	6
556.416	1	11
557.606	1	-1
558.796	1	12
559.986	1	3
561.175	1	11
562.365	1	8
563.555	1	9
564.744	1	1
565.934	1	5
567.123	1	8
568.313	1	2
569.502	1	-6
570.692	1	3
571.881	1	-1
573.070	1	0
574.260	1	1
575.449	1	10
576.638	1	3
577.827	1	1
579.016	1	1
580.205	1	7
581.394	1	2
582.583	1	12
583.772	1	7
584.961	1	-9
586.150	1	9
587.339	1	2
588.528	1	8
589.717	1	-4
590.905	1	7
592.094	1	3
593.283	1	-6
594.471	1	-15
595.660	1	0
596.848	1	4
598.037	1	5
599.225	1	0
600.413	1	8
601.602	1	-8
602.790	1	2
603.978	1	4
605.166	1	7
606.355	1	11
607.543	1	-3
608.731	1	14
609.919	1	5
611.107	1	1
612.295	1	10
613.483	1	3
614.671	1	-4
615.858	1	-10
617.046	1	7
618.234	1	0
619.422	1	-5
620.609	1	-1
621.797	1	-4
622.985	1	9
624.172	1	-8
625.360	1	2
626.547	1	11
627.735	1	14
628.922	1	-7
630.109	1	3
631.297	1	1
632.484	1	-11
633.671	1	-8
634.858	1	6
636.045	1	6
637.232	1	-4
638.419	1	8
639.606	1	0
640.793	1	-5
641.980	1	1
643.167	1	5
644.354	1	-6
645.541	1	-8
646.728	1	4
647.914	1	-5
649.101	1	-4
650.288	1	7
651.474	1	4
652.661	1	1
653.847	1	-4
655.034	1	3
656.220	1	2
657.406	1	6
658.593	1	5
659.779	1	12
660.965	1	-4
662.152	1	-2
663.338	1	-3
664.524	1	3
665.710	1	-2
666.896	1	2
668.082	1	4
669.268	1	-2
670.454	1	7
671.640	1	-3
672.826	1	-3
674.011	1	-10
675.197	1	-9
676.383	1	2
677.569	1	-8
678.754	1	8
679.940	1	-4
681.125	1	11
682.311	1	-16
683.496	1	-5
684.682	1	-5
685.867	1	4
687.053	1	-1
688.238	1	10
688.746	1	11