File: Data/GaN_130K_350ms/GaN_sample F_spot6_UVVIS_130 K_200um_350 ms 2x2mm1_107.txt
340.368	1	-1
341.565	1	5
342.763	1	-1
343.960	1	-6
345.157	1	-4
346.354	1	6
347.552	1	4
348.749	1	8
349.946	1	9
351.143	1	3
352.340	1	12
353.537	1	3
354.734	1	10
355.931	1	7
357.127	1	8
358.324	1	16
359.521	1	9
360.718	1	22
361.914	1	41
363.111	1	57
364.308	1	62
365.504	1	72
366.701	1	87
367.897	1	87
369.093	1	91
370.290	1	81
371.486	1	80
372.682	1	48
373.879	1	64
375.075	1	60
376.271	1	45
377.467	1	44
378.663	1	26
379.859	1	21
381.055	1	32
382.251	1	20
383.447	1	25
384.643	1	28
385.839	1	25
387.035	1	28
388.230	1	18
389.426	1	24
390.622	1	19
391.817	1	22
393.013	1	31
394.208	1	12
395.404	1	2
396.599	1	17
397.795	1	2
398.990	1	14
400.186	1	10
401.381	1	10
402.576	1	12
403.771	1	25
404.967	1	11
406.162	1	11
407.357	1	22
408.552	1	10
409.747	1	6
410.942	1	16
412.137	1	5
413.332	1	13
414.526	1	6
415.721	1	5
416.916	1	8
418.111	1	13
419.305	1	6
420.500	1	4
421.695	1	5
422.889	1	7
424.084	1	11
425.278	1	5
426.472	1	2
427.667	1	14
428.861	1	13
430.055	1	7
431.250	1	11
432.444	1	6
433.638	1	5
434.832	1	8
436.026	1	5
437.220	1	3
438.414	1	6
439.608	1	11
440.802	1	3
441.996	1	10
443.190	1	4
444.384	1	2
445.578	1	2
446.771	1	7
447.965	1	6
449.159	1	12
450.352	1	6
451.546	1	8
452.739	1	7
453.933	1	2
455.126	1	3
456.320	1	5
457.513	1	-2
458.706	1	10
459.899	1	5
461.093	1	9
462.286	1	10
463.479	1	6
464.672	1	13
465.865	1	-2
467.058	1	11
468.251	1	11
469.444	1	0
470.637	1	6
471.830	1	11
473.023	1	1
474.215	1	3
475.408	1	4
476.601	1	6
477.793	1	5
478.986	1	0
480.179	1	4
481.371	1	16
482.564	1	5
483.756	1	8
484.948	1	8
486.141	1	16
487.333	1	1
488.525	1	10
489.718	1	14
490.910	1	1
492.102	1	14
493.294	1	16
494.486	1	10
495.678	1	14
496.870	1	26
498.062	1	3
499.254	1	31
500.446	1	28
501.638	1	21
502.829	1	20
504.021	1	17
505.213	1	14
506.404	1	28
507.596	1	23
508.788	1	18
509.979	1	33
511.171	1	37
512.362	1	21
513.553	1	33
514.745	1	24
515.936	1	46
517.127	1	38
518.319	1	22
519.510	1	35
520.701	1	27
521.892	1	35
523.083	1	31
524.274	1	29
525.465	1	43
526.656	1	36
527.847	1	33
529.038	1	37
530.229	1	45
531.419	1	51
532.610	1	36
533.801	1	43
534.991	1	35
536.182	1	46
537.373	1	40
538.563	1	45
539.754	1	29
540.944	1	41
542.134	1	24
543.325	1	34
544.515	1	25
545.705	1	26
546.896	1	29
548.086	1	22
549.276	1	21
550.466	1	38
551.656	1	30
552.846	1	29
554.036	1	33
555.226	1	37
556.416	1	24
557.606	1	26
558.796	1	28
559.986	1	22
561.175	1	33
562.365	1	21
563.555	1	27
564.744	1	22
565.934	1	19
567.123	1	19
568.313	1	14
569.502	1	21
570.692	1	27
571.881	1	18
573.070	1	10
574.260	1	6
575.449	1	14
576.638	1	7
577.827	1	12
579.016	1	14
580.205	1	7
581.394	1	11
582.583	1	23
583.772	1	16
584.961	1	6
586.150	1	12
587.339	1	13
588.528	1	16
589.717	1	6
590.905	1	12
592.094	1	0
593.283	1	9
594.471	1	17
595.660	1	6
596.848	1	9
598.037	1	13
599.225	1	8
600.413	1	14
601.602	1	5
602.790	1	13
603.978	1	5
605.166	1	10
606.355	1	14
607.543	1	11
608.731	1	11
609.919	1	15
611.107	1	14
612.295	1	11
613.483	1	-4
614.671	1	9
615.858	1	5
617.046	1	12
618.234	1	0
619.422	1	12
620.609	1	0
621.797	1	1
622.985	1	7
624.172	1	13
625.360	1	5
626.547	1	4
627.735	1	11
628.922	1	-5
630.109	1	9
631.297	1	4
632.484	1	-13
633.671	1	2
634.858	1	11
636.045	1	17
637.232	1	0
638.419	1	9
639.606	1	8
640.793	1	-5
641.980	1	7
643.167	1	8
644.354	1	-1
645.541	1	13
646.728	1	3
647.914	1	5
649.101	1	2
650.288	1	9
651.474	1	6
652.661	1	7
653.847	1	6
655.034	1	10
656.220	1	1
657.406	1	4
658.593	1	4
659.779	1	11
660.965	1	1
662.152	1	1
663.338	1	5
664.524	1	-1
665.710	1	4
666.896	1	5
668.082	1	10
669.268	1	5
670.454	1	4
671.640	1	2
672.826	1	-3
674.011	1	7
675.197	1	-2
676.383	1	-2
677.569	1	5
678.754	1	7
679.940	1	7
681.125	1	10
682.311	1	-8
683.496	1	2
684.682	1	-1
685.867	1	15
687.053	1	4
688.238	1	18
688.746	1	10