File: Data/GaN_130K_350ms/GaN_sample F_spot6_UVVIS_130 K_200um_350 ms 2x2mm1_22.txt
340.368	1	4
341.565	1	6
342.763	1	2
343.960	1	-12
345.157	1	-9
346.354	1	-3
347.552	1	-1
348.749	1	3
349.946	1	4
351.143	1	3
352.340	1	6
353.537	1	0
354.734	1	0
355.931	1	4
357.127	1	9
358.324	1	2
359.521	1	7
360.718	1	11
361.914	1	-1
363.111	1	8
364.308	1	11
365.504	1	3
366.701	1	-2
367.897	1	-4
369.093	1	8
370.290	1	-2
371.486	1	-2
372.682	1	-6
373.879	1	7
375.075	1	14
376.271	1	3
377.467	1	7
378.663	1	7
379.859	1	-7
381.055	1	5
382.251	1	6
383.447	1	7
384.643	1	3
385.839	1	-3
387.035	1	5
388.230	1	-7
389.426	1	3
390.622	1	3
391.817	1	1
393.013	1	5
394.208	1	-9
395.404	1	-15
396.599	1	11
397.795	1	-11
398.990	1	7
400.186	1	-1
401.381	1	-2
402.576	1	2
403.771	1	10
404.967	1	-4
406.162	1	-1
407.357	1	1
408.552	1	-5
409.747	1	6
410.942	1	-6
412.137	1	-4
413.332	1	-6
414.526	1	-3
415.721	1	0
416.916	1	2
418.111	1	-2
419.305	1	-7
420.500	1	4
421.695	1	10
422.889	1	2
424.084	1	1
425.278	1	-4
426.472	1	-3
427.667	1	10
428.861	1	-3
430.055	1	5
431.250	1	-1
432.444	1	7
433.638	1	9
434.832	1	5
436.026	1	0
437.220	1	0
438.414	1	-4
439.608	1	4
440.802	1	-14
441.996	1	5
443.190	1	-2
444.384	1	-2
445.578	1	-8
446.771	1	6
447.965	1	-2
449.159	1	-1
450.352	1	4
451.546	1	7
452.739	1	5
453.933	1	-6
455.126	1	-6
456.320	1	-9
457.513	1	0
458.706	1	-1
459.899	1	6
461.093	1	7
462.286	1	7
463.479	1	7
464.672	1	9
465.865	1	-12
467.058	1	0
468.251	1	9
469.444	1	2
470.637	1	0
471.830	1	2
473.023	1	2
474.215	1	0
475.408	1	4
476.601	1	2
477.793	1	-6
478.986	1	1
480.179	1	-5
481.371	1	11
482.564	1	-1
483.756	1	5
484.948	1	5
486.141	1	7
487.333	1	-6
488.525	1	5
489.718	1	5
490.910	1	-8
492.102	1	2
493.294	1	7
494.486	1	8
495.678	1	-17
496.870	1	-5
498.062	1	-4
499.254	1	3
500.446	1	3
501.638	1	1
502.829	1	-1
504.021	1	-6
505.213	1	0
506.404	1	6
507.596	1	1
508.788	1	-1
509.979	1	-6
511.171	1	8
512.362	1	-9
513.553	1	0
514.745	1	2
515.936	1	9
517.127	1	-1
518.319	1	0
519.510	1	-4
520.701	1	-4
521.892	1	9
523.083	1	6
524.274	1	-9
525.465	1	-3
526.656	1	2
527.847	1	1
529.038	1	-9
530.229	1	10
531.419	1	-2
532.610	1	-7
533.801	1	3
534.991	1	1
536.182	1	4
537.373	1	0
538.563	1	4
539.754	1	-1
540.944	1	0
542.134	1	2
543.325	1	4
544.515	1	1
545.705	1	5
546.896	1	2
548.086	1	1
549.276	1	-10
550.466	1	4
551.656	1	9
552.846	1	0
554.036	1	-2
555.226	1	3
556.416	1	8
557.606	1	0
558.796	1	13
559.986	1	1
561.175	1	5
562.365	1	11
563.555	1	8
564.744	1	12
565.934	1	-2
567.123	1	6
568.313	1	-5
569.502	1	1
570.692	1	2
571.881	1	-1
573.070	1	1
574.260	1	-5
575.449	1	7
576.638	1	-4
577.827	1	-6
579.016	1	1
580.205	1	-7
581.394	1	3
582.583	1	13
583.772	1	4
584.961	1	3
586.150	1	10
587.339	1	1
588.528	1	3
589.717	1	0
590.905	1	6
592.094	1	-5
593.283	1	-11
594.471	1	2
595.660	1	2
596.848	1	7
598.037	1	-2
599.225	1	3
600.413	1	9
601.602	1	2
602.790	1	1
603.978	1	-1
605.166	1	7
606.355	1	2
607.543	1	3
608.731	1	7
609.919	1	0
611.107	1	5
612.295	1	0
613.483	1	-6
614.671	1	6
615.858	1	-5
617.046	1	12
618.234	1	-1
619.422	1	-1
620.609	1	-6
621.797	1	0
622.985	1	3
624.172	1	-3
625.360	1	6
626.547	1	4
627.735	1	4
628.922	1	1
630.109	1	12
631.297	1	2
632.484	1	-7
633.671	1	1
634.858	1	11
636.045	1	6
637.232	1	-4
638.419	1	3
639.606	1	4
640.793	1	-11
641.980	1	-5
643.167	1	-5
644.354	1	-4
645.541	1	8
646.728	1	2
647.914	1	-11
649.101	1	1
650.288	1	4
651.474	1	0
652.661	1	-8
653.847	1	-5
655.034	1	-3
656.220	1	1
657.406	1	-1
658.593	1	-4
659.779	1	14
660.965	1	7
662.152	1	-1
663.338	1	-2
664.524	1	0
665.710	1	-7
666.896	1	8
668.082	1	6
669.268	1	-5
670.454	1	3
671.640	1	-10
672.826	1	-3
674.011	1	4
675.197	1	-5
676.383	1	2
677.569	1	-3
678.754	1	2
679.940	1	-5
681.125	1	12
682.311	1	-4
683.496	1	-11
684.682	1	-3
685.867	1	8
687.053	1	-1
688.238	1	1
688.746	1	1