File: Data/GaN_130K_350ms/GaN_sample F_spot6_UVVIS_130 K_200um_350 ms 2x2mm1_168.txt
340.368	1	2
341.565	1	1
342.763	1	9
343.960	1	-5
345.157	1	-3
346.354	1	1
347.552	1	2
348.749	1	4
349.946	1	5
351.143	1	1
352.340	1	8
353.537	1	8
354.734	1	2
355.931	1	9
357.127	1	11
358.324	1	10
359.521	1	1
360.718	1	14
361.914	1	11
363.111	1	28
364.308	1	23
365.504	1	28
366.701	1	23
367.897	1	26
369.093	1	44
370.290	1	26
371.486	1	20
372.682	1	24
373.879	1	21
375.075	1	15
376.271	1	10
377.467	1	21
378.663	1	10
379.859	1	6
381.055	1	9
382.251	1	7
383.447	1	4
384.643	1	12
385.839	1	17
387.035	1	24
388.230	1	7
389.426	1	12
390.622	1	10
391.817	1	11
393.013	1	7
394.208	1	1
395.404	1	-4
396.599	1	15
397.795	1	3
398.990	1	13
400.186	1	3
401.381	1	3
402.576	1	3
403.771	1	11
404.967	1	8
406.162	1	4
407.357	1	6
408.552	1	3
409.747	1	-1
410.942	1	8
412.137	1	-1
413.332	1	7
414.526	1	10
415.721	1	4
416.916	1	4
418.111	1	1
419.305	1	4
420.500	1	5
421.695	1	3
422.889	1	9
424.084	1	7
425.278	1	4
426.472	1	10
427.667	1	11
428.861	1	-4
430.055	1	1
431.250	1	10
432.444	1	14
433.638	1	10
434.832	1	9
436.026	1	11
437.220	1	-2
438.414	1	0
439.608	1	13
440.802	1	-7
441.996	1	14
443.190	1	14
444.384	1	-5
445.578	1	6
446.771	1	9
447.965	1	9
449.159	1	5
450.352	1	9
451.546	1	11
452.739	1	6
453.933	1	-3
455.126	1	-4
456.320	1	11
457.513	1	1
458.706	1	5
459.899	1	-2
461.093	1	5
462.286	1	8
463.479	1	10
464.672	1	1
465.865	1	-6
467.058	1	4
468.251	1	5
469.444	1	2
470.637	1	16
471.830	1	6
473.023	1	7
474.215	1	5
475.408	1	9
476.601	1	6
477.793	1	-2
478.986	1	2
480.179	1	3
481.371	1	8
482.564	1	2
483.756	1	-1
484.948	1	4
486.141	1	6
487.333	1	2
488.525	1	6
489.718	1	8
490.910	1	-6
492.102	1	4
493.294	1	7
494.486	1	16
495.678	1	-1
496.870	1	4
498.062	1	1
499.254	1	14
500.446	1	4
501.638	1	10
502.829	1	3
504.021	1	5
505.213	1	9
506.404	1	8
507.596	1	7
508.788	1	2
509.979	1	2
511.171	1	13
512.362	1	5
513.553	1	10
514.745	1	8
515.936	1	8
517.127	1	12
518.319	1	8
519.510	1	-2
520.701	1	3
521.892	1	11
523.083	1	6
524.274	1	7
525.465	1	8
526.656	1	8
527.847	1	6
529.038	1	7
530.229	1	8
531.419	1	12
532.610	1	11
533.801	1	25
534.991	1	7
536.182	1	16
537.373	1	12
538.563	1	20
539.754	1	8
540.944	1	8
542.134	1	1
543.325	1	8
544.515	1	14
545.705	1	8
546.896	1	10
548.086	1	6
549.276	1	10
550.466	1	13
551.656	1	9
552.846	1	14
554.036	1	6
555.226	1	19
556.416	1	11
557.606	1	5
558.796	1	6
559.986	1	17
561.175	1	10
562.365	1	15
563.555	1	17
564.744	1	2
565.934	1	7
567.123	1	5
568.313	1	8
569.502	1	8
570.692	1	26
571.881	1	12
573.070	1	3
574.260	1	9
575.449	1	10
576.638	1	5
577.827	1	8
579.016	1	-5
580.205	1	2
581.394	1	7
582.583	1	9
583.772	1	2
584.961	1	3
586.150	1	5
587.339	1	-1
588.528	1	12
589.717	1	0
590.905	1	9
592.094	1	2
593.283	1	-4
594.471	1	3
595.660	1	6
596.848	1	3
598.037	1	8
599.225	1	5
600.413	1	10
601.602	1	13
602.790	1	-2
603.978	1	2
605.166	1	11
606.355	1	9
607.543	1	11
608.731	1	11
609.919	1	12
611.107	1	7
612.295	1	10
613.483	1	-2
614.671	1	5
615.858	1	2
617.046	1	2
618.234	1	-5
619.422	1	7
620.609	1	-7
621.797	1	2
622.985	1	4
624.172	1	1
625.360	1	3
626.547	1	5
627.735	1	17
628.922	1	-2
630.109	1	13
631.297	1	0
632.484	1	-8
633.671	1	1
634.858	1	4
636.045	1	10
637.232	1	-9
638.419	1	4
639.606	1	14
640.793	1	-13
641.980	1	4
643.167	1	0
644.354	1	-2
645.541	1	6
646.728	1	9
647.914	1	-7
649.101	1	-4
650.288	1	6
651.474	1	3
652.661	1	0
653.847	1	5
655.034	1	6
656.220	1	1
657.406	1	13
658.593	1	-2
659.779	1	-2
660.965	1	4
662.152	1	-3
663.338	1	0
664.524	1	0
665.710	1	7
666.896	1	13
668.082	1	4
669.268	1	-1
670.454	1	6
671.640	1	-8
672.826	1	2
674.011	1	5
675.197	1	10
676.383	1	3
677.569	1	5
678.754	1	8
679.940	1	3
681.125	1	6
682.311	1	-9
683.496	1	1
684.682	1	-5
685.867	1	-4
687.053	1	12
688.238	1	9
688.746	1	5