File: Data/GaN_130K_350ms/GaN_sample F_spot6_UVVIS_130 K_200um_350 ms 2x2mm1_114.txt
340.368	1	2
341.565	1	7
342.763	1	13
343.960	1	-14
345.157	1	3
346.354	1	-1
347.552	1	0
348.749	1	10
349.946	1	4
351.143	1	9
352.340	1	18
353.537	1	3
354.734	1	7
355.931	1	8
357.127	1	14
358.324	1	14
359.521	1	7
360.718	1	20
361.914	1	25
363.111	1	51
364.308	1	56
365.504	1	64
366.701	1	69
367.897	1	82
369.093	1	77
370.290	1	74
371.486	1	70
372.682	1	44
373.879	1	54
375.075	1	38
376.271	1	43
377.467	1	46
378.663	1	32
379.859	1	19
381.055	1	6
382.251	1	17
383.447	1	22
384.643	1	20
385.839	1	34
387.035	1	32
388.230	1	16
389.426	1	18
390.622	1	20
391.817	1	9
393.013	1	23
394.208	1	10
395.404	1	-1
396.599	1	15
397.795	1	14
398.990	1	7
400.186	1	10
401.381	1	13
402.576	1	10
403.771	1	13
404.967	1	14
406.162	1	4
407.357	1	3
408.552	1	3
409.747	1	1
410.942	1	14
412.137	1	7
413.332	1	-1
414.526	1	6
415.721	1	1
416.916	1	5
418.111	1	14
419.305	1	9
420.500	1	13
421.695	1	4
422.889	1	2
424.084	1	7
425.278	1	-4
426.472	1	6
427.667	1	15
428.861	1	9
430.055	1	4
431.250	1	16
432.444	1	22
433.638	1	12
434.832	1	8
436.026	1	12
437.220	1	8
438.414	1	9
439.608	1	10
440.802	1	-1
441.996	1	13
443.190	1	0
444.384	1	2
445.578	1	5
446.771	1	13
447.965	1	1
449.159	1	16
450.352	1	11
451.546	1	19
452.739	1	3
453.933	1	2
455.126	1	-1
456.320	1	6
457.513	1	-4
458.706	1	5
459.899	1	-1
461.093	1	6
462.286	1	11
463.479	1	16
464.672	1	7
465.865	1	-8
467.058	1	8
468.251	1	4
469.444	1	6
470.637	1	2
471.830	1	-3
473.023	1	2
474.215	1	0
475.408	1	14
476.601	1	9
477.793	1	-1
478.986	1	2
480.179	1	1
481.371	1	11
482.564	1	4
483.756	1	-1
484.948	1	5
486.141	1	18
487.333	1	0
488.525	1	8
489.718	1	13
490.910	1	3
492.102	1	23
493.294	1	10
494.486	1	27
495.678	1	6
496.870	1	20
498.062	1	5
499.254	1	23
500.446	1	16
501.638	1	12
502.829	1	12
504.021	1	18
505.213	1	33
506.404	1	13
507.596	1	8
508.788	1	9
509.979	1	20
511.171	1	31
512.362	1	28
513.553	1	34
514.745	1	6
515.936	1	36
517.127	1	32
518.319	1	24
519.510	1	16
520.701	1	33
521.892	1	25
523.083	1	21
524.274	1	12
525.465	1	34
526.656	1	33
527.847	1	20
529.038	1	26
530.229	1	35
531.419	1	30
532.610	1	26
533.801	1	40
534.991	1	21
536.182	1	26
537.373	1	42
538.563	1	33
539.754	1	19
540.944	1	26
542.134	1	23
543.325	1	14
544.515	1	29
545.705	1	27
546.896	1	29
548.086	1	18
549.276	1	21
550.466	1	32
551.656	1	26
552.846	1	23
554.036	1	17
555.226	1	29
556.416	1	20
557.606	1	25
558.796	1	26
559.986	1	16
561.175	1	24
562.365	1	20
563.555	1	16
564.744	1	25
565.934	1	14
567.123	1	13
568.313	1	14
569.502	1	13
570.692	1	23
571.881	1	8
573.070	1	14
574.260	1	15
575.449	1	16
576.638	1	9
577.827	1	-1
579.016	1	15
580.205	1	6
581.394	1	9
582.583	1	14
583.772	1	17
584.961	1	7
586.150	1	22
587.339	1	8
588.528	1	15
589.717	1	4
590.905	1	14
592.094	1	11
593.283	1	6
594.471	1	9
595.660	1	1
596.848	1	17
598.037	1	1
599.225	1	2
600.413	1	7
601.602	1	-2
602.790	1	2
603.978	1	3
605.166	1	16
606.355	1	11
607.543	1	6
608.731	1	2
609.919	1	7
611.107	1	3
612.295	1	8
613.483	1	2
614.671	1	10
615.858	1	2
617.046	1	8
618.234	1	6
619.422	1	1
620.609	1	-12
621.797	1	7
622.985	1	3
624.172	1	-3
625.360	1	4
626.547	1	-1
627.735	1	11
628.922	1	0
630.109	1	15
631.297	1	1
632.484	1	-16
633.671	1	3
634.858	1	18
636.045	1	15
637.232	1	2
638.419	1	20
639.606	1	11
640.793	1	-2
641.980	1	-6
643.167	1	6
644.354	1	-8
645.541	1	12
646.728	1	14
647.914	1	-4
649.101	1	7
650.288	1	13
651.474	1	-4
652.661	1	0
653.847	1	7
655.034	1	4
656.220	1	3
657.406	1	9
658.593	1	0
659.779	1	15
660.965	1	13
662.152	1	0
663.338	1	5
664.524	1	-3
665.710	1	2
666.896	1	14
668.082	1	7
669.268	1	4
670.454	1	-4
671.640	1	-1
672.826	1	4
674.011	1	1
675.197	1	3
676.383	1	-10
677.569	1	4
678.754	1	12
679.940	1	-11
681.125	1	11
682.311	1	-5
683.496	1	5
684.682	1	-2
685.867	1	13
687.053	1	9
688.238	1	9
688.746	1	6