File: Data/GaN_130K_350ms/GaN_sample F_spot6_UVVIS_130 K_200um_350 ms 2x2mm1_195.txt
340.368	1	11
341.565	1	9
342.763	1	4
343.960	1	-9
345.157	1	-8
346.354	1	-7
347.552	1	4
348.749	1	-1
349.946	1	9
351.143	1	1
352.340	1	10
353.537	1	3
354.734	1	-2
355.931	1	10
357.127	1	5
358.324	1	0
359.521	1	2
360.718	1	7
361.914	1	9
363.111	1	14
364.308	1	20
365.504	1	22
366.701	1	13
367.897	1	16
369.093	1	9
370.290	1	27
371.486	1	15
372.682	1	15
373.879	1	23
375.075	1	11
376.271	1	16
377.467	1	17
378.663	1	14
379.859	1	5
381.055	1	11
382.251	1	15
383.447	1	9
384.643	1	14
385.839	1	10
387.035	1	17
388.230	1	8
389.426	1	19
390.622	1	18
391.817	1	10
393.013	1	10
394.208	1	2
395.404	1	-14
396.599	1	12
397.795	1	-1
398.990	1	-1
400.186	1	10
401.381	1	2
402.576	1	-1
403.771	1	6
404.967	1	10
406.162	1	3
407.357	1	-1
408.552	1	-5
409.747	1	9
410.942	1	0
412.137	1	4
413.332	1	0
414.526	1	9
415.721	1	7
416.916	1	2
418.111	1	10
419.305	1	4
420.500	1	8
421.695	1	-5
422.889	1	11
424.084	1	12
425.278	1	-7
426.472	1	1
427.667	1	14
428.861	1	12
430.055	1	0
431.250	1	15
432.444	1	9
433.638	1	6
434.832	1	4
436.026	1	15
437.220	1	-6
438.414	1	1
439.608	1	11
440.802	1	-4
441.996	1	8
443.190	1	3
444.384	1	-2
445.578	1	-3
446.771	1	14
447.965	1	0
449.159	1	7
450.352	1	12
451.546	1	14
452.739	1	0
453.933	1	9
455.126	1	-3
456.320	1	0
457.513	1	-1
458.706	1	9
459.899	1	-4
461.093	1	10
462.286	1	5
463.479	1	12
464.672	1	6
465.865	1	-3
467.058	1	9
468.251	1	2
469.444	1	8
470.637	1	8
471.830	1	6
473.023	1	9
474.215	1	-5
475.408	1	9
476.601	1	-1
477.793	1	4
478.986	1	-2
480.179	1	-2
481.371	1	12
482.564	1	4
483.756	1	-4
484.948	1	11
486.141	1	-3
487.333	1	-1
488.525	1	4
489.718	1	5
490.910	1	-2
492.102	1	4
493.294	1	3
494.486	1	8
495.678	1	-3
496.870	1	2
498.062	1	-2
499.254	1	11
500.446	1	2
501.638	1	-1
502.829	1	9
504.021	1	-8
505.213	1	0
506.404	1	-1
507.596	1	5
508.788	1	5
509.979	1	-6
511.171	1	10
512.362	1	2
513.553	1	2
514.745	1	3
515.936	1	16
517.127	1	5
518.319	1	2
519.510	1	4
520.701	1	3
521.892	1	13
523.083	1	6
524.274	1	-5
525.465	1	8
526.656	1	9
527.847	1	-10
529.038	1	-5
530.229	1	12
531.419	1	9
532.610	1	-4
533.801	1	20
534.991	1	10
536.182	1	1
537.373	1	4
538.563	1	13
539.754	1	-1
540.944	1	13
542.134	1	2
543.325	1	5
544.515	1	7
545.705	1	4
546.896	1	10
548.086	1	-6
549.276	1	-1
550.466	1	6
551.656	1	5
552.846	1	-4
554.036	1	2
555.226	1	8
556.416	1	7
557.606	1	11
558.796	1	15
559.986	1	5
561.175	1	16
562.365	1	11
563.555	1	17
564.744	1	11
565.934	1	1
567.123	1	7
568.313	1	7
569.502	1	3
570.692	1	9
571.881	1	-1
573.070	1	1
574.260	1	6
575.449	1	12
576.638	1	-2
577.827	1	-8
579.016	1	-1
580.205	1	1
581.394	1	-5
582.583	1	16
583.772	1	10
584.961	1	0
586.150	1	7
587.339	1	2
588.528	1	9
589.717	1	-2
590.905	1	12
592.094	1	1
593.283	1	-9
594.471	1	12
595.660	1	2
596.848	1	1
598.037	1	16
599.225	1	3
600.413	1	7
601.602	1	2
602.790	1	-6
603.978	1	14
605.166	1	10
606.355	1	11
607.543	1	2
608.731	1	-1
609.919	1	15
611.107	1	2
612.295	1	2
613.483	1	6
614.671	1	5
615.858	1	-2
617.046	1	7
618.234	1	3
619.422	1	-4
620.609	1	-9
621.797	1	-1
622.985	1	11
624.172	1	-2
625.360	1	2
626.547	1	0
627.735	1	9
628.922	1	-3
630.109	1	4
631.297	1	-6
632.484	1	-8
633.671	1	-5
634.858	1	13
636.045	1	7
637.232	1	-3
638.419	1	4
639.606	1	6
640.793	1	-17
641.980	1	-2
643.167	1	6
644.354	1	3
645.541	1	2
646.728	1	2
647.914	1	-3
649.101	1	-4
650.288	1	8
651.474	1	-2
652.661	1	4
653.847	1	6
655.034	1	1
656.220	1	-1
657.406	1	-1
658.593	1	-3
659.779	1	-2
660.965	1	1
662.152	1	-2
663.338	1	4
664.524	1	-9
665.710	1	7
666.896	1	11
668.082	1	1
669.268	1	2
670.454	1	8
671.640	1	-9
672.826	1	-5
674.011	1	0
675.197	1	1
676.383	1	-5
677.569	1	1
678.754	1	3
679.940	1	4
681.125	1	18
682.311	1	-7
683.496	1	0
684.682	1	3
685.867	1	3
687.053	1	2
688.238	1	11
688.746	1	3