File: Data/GaN_130K_350ms/GaN_sample F_spot6_UVVIS_130 K_200um_350 ms 2x2mm1_298.txt
340.368	1	1
341.565	1	-5
342.763	1	0
343.960	1	-2
345.157	1	-11
346.354	1	5
347.552	1	1
348.749	1	6
349.946	1	0
351.143	1	2
352.340	1	11
353.537	1	3
354.734	1	-1
355.931	1	1
357.127	1	2
358.324	1	-4
359.521	1	2
360.718	1	1
361.914	1	0
363.111	1	12
364.308	1	7
365.504	1	8
366.701	1	-3
367.897	1	9
369.093	1	3
370.290	1	9
371.486	1	1
372.682	1	3
373.879	1	16
375.075	1	7
376.271	1	12
377.467	1	9
378.663	1	5
379.859	1	3
381.055	1	0
382.251	1	-2
383.447	1	9
384.643	1	1
385.839	1	6
387.035	1	16
388.230	1	-2
389.426	1	3
390.622	1	3
391.817	1	10
393.013	1	12
394.208	1	3
395.404	1	-4
396.599	1	1
397.795	1	-6
398.990	1	-6
400.186	1	3
401.381	1	2
402.576	1	2
403.771	1	9
404.967	1	4
406.162	1	-2
407.357	1	6
408.552	1	-4
409.747	1	1
410.942	1	-6
412.137	1	-3
413.332	1	-6
414.526	1	5
415.721	1	12
416.916	1	-9
418.111	1	3
419.305	1	3
420.500	1	7
421.695	1	-11
422.889	1	6
424.084	1	2
425.278	1	-6
426.472	1	5
427.667	1	3
428.861	1	-9
430.055	1	4
431.250	1	12
432.444	1	8
433.638	1	7
434.832	1	-6
436.026	1	10
437.220	1	1
438.414	1	-2
439.608	1	4
440.802	1	-7
441.996	1	6
443.190	1	-1
444.384	1	-6
445.578	1	-7
446.771	1	-3
447.965	1	0
449.159	1	10
450.352	1	1
451.546	1	8
452.739	1	8
453.933	1	-10
455.126	1	-7
456.320	1	-3
457.513	1	0
458.706	1	6
459.899	1	0
461.093	1	9
462.286	1	6
463.479	1	10
464.672	1	11
465.865	1	-3
467.058	1	-1
468.251	1	-2
469.444	1	8
470.637	1	5
471.830	1	0
473.023	1	16
474.215	1	7
475.408	1	3
476.601	1	2
477.793	1	-1
478.986	1	1
480.179	1	2
481.371	1	1
482.564	1	-1
483.756	1	-6
484.948	1	1
486.141	1	-1
487.333	1	0
488.525	1	10
489.718	1	4
490.910	1	-11
492.102	1	14
493.294	1	5
494.486	1	13
495.678	1	-1
496.870	1	6
498.062	1	-1
499.254	1	2
500.446	1	9
501.638	1	-1
502.829	1	2
504.021	1	-4
505.213	1	-1
506.404	1	0
507.596	1	1
508.788	1	-4
509.979	1	-6
511.171	1	6
512.362	1	0
513.553	1	4
514.745	1	-3
515.936	1	13
517.127	1	5
518.319	1	-10
519.510	1	0
520.701	1	-5
521.892	1	4
523.083	1	4
524.274	1	-13
525.465	1	4
526.656	1	5
527.847	1	-4
529.038	1	-1
530.229	1	8
531.419	1	7
532.610	1	0
533.801	1	17
534.991	1	-1
536.182	1	5
537.373	1	-2
538.563	1	5
539.754	1	3
540.944	1	6
542.134	1	1
543.325	1	4
544.515	1	-6
545.705	1	-3
546.896	1	11
548.086	1	-5
549.276	1	0
550.466	1	11
551.656	1	3
552.846	1	-3
554.036	1	4
555.226	1	6
556.416	1	9
557.606	1	16
558.796	1	13
559.986	1	4
561.175	1	4
562.365	1	10
563.555	1	9
564.744	1	2
565.934	1	1
567.123	1	-3
568.313	1	5
569.502	1	5
570.692	1	11
571.881	1	-5
573.070	1	3
574.260	1	1
575.449	1	12
576.638	1	-5
577.827	1	-10
579.016	1	-1
580.205	1	0
581.394	1	-6
582.583	1	7
583.772	1	2
584.961	1	4
586.150	1	5
587.339	1	-4
588.528	1	4
589.717	1	-6
590.905	1	0
592.094	1	0
593.283	1	7
594.471	1	2
595.660	1	3
596.848	1	4
598.037	1	-2
599.225	1	0
600.413	1	6
601.602	1	3
602.790	1	-5
603.978	1	2
605.166	1	15
606.355	1	11
607.543	1	9
608.731	1	5
609.919	1	3
611.107	1	6
612.295	1	7
613.483	1	-7
614.671	1	7
615.858	1	-7
617.046	1	7
618.234	1	2
619.422	1	-3
620.609	1	-3
621.797	1	5
622.985	1	3
624.172	1	-3
625.360	1	-1
626.547	1	0
627.735	1	9
628.922	1	-5
630.109	1	2
631.297	1	-4
632.484	1	-1
633.671	1	-8
634.858	1	4
636.045	1	7
637.232	1	-6
638.419	1	9
639.606	1	8
640.793	1	-10
641.980	1	6
643.167	1	8
644.354	1	1
645.541	1	-4
646.728	1	5
647.914	1	-1
649.101	1	-1
650.288	1	3
651.474	1	-2
652.661	1	-6
653.847	1	-2
655.034	1	-3
656.220	1	4
657.406	1	3
658.593	1	4
659.779	1	0
660.965	1	-4
662.152	1	5
663.338	1	1
664.524	1	-2
665.710	1	5
666.896	1	-4
668.082	1	5
669.268	1	-2
670.454	1	5
671.640	1	-8
672.826	1	-3
674.011	1	7
675.197	1	-4
676.383	1	3
677.569	1	-7
678.754	1	10
679.940	1	-3
681.125	1	15
682.311	1	-7
683.496	1	4
684.682	1	-3
685.867	1	-1
687.053	1	0
688.238	1	5
688.746	1	2