File: Data/GaN_130K_350ms/GaN_sample F_spot6_UVVIS_130 K_200um_350 ms 2x2mm1_252.txt
340.368	1	5
341.565	1	-7
342.763	1	3
343.960	1	-6
345.157	1	-9
346.354	1	1
347.552	1	4
348.749	1	8
349.946	1	7
351.143	1	-4
352.340	1	12
353.537	1	1
354.734	1	-3
355.931	1	7
357.127	1	1
358.324	1	-2
359.521	1	-2
360.718	1	15
361.914	1	7
363.111	1	18
364.308	1	18
365.504	1	4
366.701	1	12
367.897	1	17
369.093	1	14
370.290	1	16
371.486	1	3
372.682	1	5
373.879	1	13
375.075	1	13
376.271	1	12
377.467	1	11
378.663	1	13
379.859	1	9
381.055	1	-5
382.251	1	7
383.447	1	15
384.643	1	4
385.839	1	10
387.035	1	4
388.230	1	1
389.426	1	10
390.622	1	1
391.817	1	12
393.013	1	-1
394.208	1	0
395.404	1	3
396.599	1	6
397.795	1	-11
398.990	1	-1
400.186	1	3
401.381	1	4
402.576	1	8
403.771	1	6
404.967	1	-4
406.162	1	5
407.357	1	7
408.552	1	0
409.747	1	5
410.942	1	-1
412.137	1	-4
413.332	1	-6
414.526	1	11
415.721	1	8
416.916	1	3
418.111	1	7
419.305	1	4
420.500	1	-7
421.695	1	1
422.889	1	0
424.084	1	6
425.278	1	4
426.472	1	-3
427.667	1	7
428.861	1	0
430.055	1	0
431.250	1	8
432.444	1	3
433.638	1	-1
434.832	1	2
436.026	1	11
437.220	1	-4
438.414	1	-2
439.608	1	10
440.802	1	-2
441.996	1	4
443.190	1	6
444.384	1	-3
445.578	1	-8
446.771	1	0
447.965	1	1
449.159	1	-4
450.352	1	7
451.546	1	14
452.739	1	1
453.933	1	12
455.126	1	1
456.320	1	-7
457.513	1	5
458.706	1	2
459.899	1	2
461.093	1	4
462.286	1	5
463.479	1	10
464.672	1	4
465.865	1	-17
467.058	1	3
468.251	1	6
469.444	1	-1
470.637	1	7
471.830	1	0
473.023	1	3
474.215	1	4
475.408	1	6
476.601	1	5
477.793	1	-5
478.986	1	-5
480.179	1	-3
481.371	1	3
482.564	1	0
483.756	1	6
484.948	1	1
486.141	1	4
487.333	1	1
488.525	1	-6
489.718	1	7
490.910	1	-2
492.102	1	11
493.294	1	13
494.486	1	12
495.678	1	1
496.870	1	1
498.062	1	2
499.254	1	13
500.446	1	9
501.638	1	0
502.829	1	-3
504.021	1	1
505.213	1	3
506.404	1	-2
507.596	1	3
508.788	1	-2
509.979	1	6
511.171	1	11
512.362	1	-2
513.553	1	6
514.745	1	4
515.936	1	12
517.127	1	7
518.319	1	-5
519.510	1	-4
520.701	1	-5
521.892	1	4
523.083	1	2
524.274	1	4
525.465	1	4
526.656	1	12
527.847	1	11
529.038	1	-1
530.229	1	4
531.419	1	8
532.610	1	-1
533.801	1	11
534.991	1	7
536.182	1	15
537.373	1	10
538.563	1	8
539.754	1	-4
540.944	1	6
542.134	1	5
543.325	1	2
544.515	1	10
545.705	1	-8
546.896	1	5
548.086	1	-3
549.276	1	-2
550.466	1	7
551.656	1	7
552.846	1	-13
554.036	1	-1
555.226	1	3
556.416	1	12
557.606	1	4
558.796	1	11
559.986	1	3
561.175	1	7
562.365	1	7
563.555	1	10
564.744	1	-5
565.934	1	5
567.123	1	8
568.313	1	-3
569.502	1	-4
570.692	1	5
571.881	1	0
573.070	1	-1
574.260	1	4
575.449	1	0
576.638	1	2
577.827	1	1
579.016	1	2
580.205	1	-5
581.394	1	3
582.583	1	8
583.772	1	8
584.961	1	1
586.150	1	11
587.339	1	-1
588.528	1	9
589.717	1	-3
590.905	1	9
592.094	1	2
593.283	1	-11
594.471	1	13
595.660	1	-2
596.848	1	-2
598.037	1	11
599.225	1	4
600.413	1	6
601.602	1	0
602.790	1	-5
603.978	1	-1
605.166	1	10
606.355	1	8
607.543	1	6
608.731	1	1
609.919	1	4
611.107	1	-1
612.295	1	3
613.483	1	-4
614.671	1	8
615.858	1	1
617.046	1	-2
618.234	1	3
619.422	1	6
620.609	1	-2
621.797	1	-6
622.985	1	7
624.172	1	1
625.360	1	2
626.547	1	1
627.735	1	5
628.922	1	3
630.109	1	10
631.297	1	5
632.484	1	-13
633.671	1	-5
634.858	1	4
636.045	1	13
637.232	1	-15
638.419	1	2
639.606	1	7
640.793	1	-5
641.980	1	1
643.167	1	3
644.354	1	-9
645.541	1	-2
646.728	1	3
647.914	1	-7
649.101	1	-1
650.288	1	8
651.474	1	0
652.661	1	-8
653.847	1	-3
655.034	1	-6
656.220	1	-4
657.406	1	10
658.593	1	-1
659.779	1	0
660.965	1	0
662.152	1	-3
663.338	1	-5
664.524	1	5
665.710	1	7
666.896	1	1
668.082	1	3
669.268	1	0
670.454	1	-7
671.640	1	-6
672.826	1	1
674.011	1	-4
675.197	1	-3
676.383	1	6
677.569	1	4
678.754	1	8
679.940	1	5
681.125	1	1
682.311	1	-7
683.496	1	10
684.682	1	-11
685.867	1	1
687.053	1	6
688.238	1	5
688.746	1	2