File: Data/GaN_130K_350ms/GaN_sample F_spot6_UVVIS_130 K_200um_350 ms 2x2mm1_18.txt
340.368	1	2
341.565	1	3
342.763	1	1
343.960	1	-17
345.157	1	-14
346.354	1	-4
347.552	1	-3
348.749	1	-2
349.946	1	7
351.143	1	7
352.340	1	10
353.537	1	2
354.734	1	3
355.931	1	2
357.127	1	5
358.324	1	-1
359.521	1	-16
360.718	1	3
361.914	1	11
363.111	1	9
364.308	1	9
365.504	1	-3
366.701	1	-2
367.897	1	2
369.093	1	2
370.290	1	2
371.486	1	7
372.682	1	10
373.879	1	7
375.075	1	11
376.271	1	4
377.467	1	10
378.663	1	1
379.859	1	-6
381.055	1	2
382.251	1	-2
383.447	1	8
384.643	1	7
385.839	1	2
387.035	1	1
388.230	1	-2
389.426	1	4
390.622	1	7
391.817	1	8
393.013	1	4
394.208	1	-4
395.404	1	-9
396.599	1	2
397.795	1	-7
398.990	1	2
400.186	1	-6
401.381	1	-2
402.576	1	3
403.771	1	6
404.967	1	7
406.162	1	-2
407.357	1	1
408.552	1	-3
409.747	1	-5
410.942	1	-1
412.137	1	-7
413.332	1	-7
414.526	1	4
415.721	1	-3
416.916	1	-8
418.111	1	4
419.305	1	-6
420.500	1	2
421.695	1	4
422.889	1	5
424.084	1	0
425.278	1	-9
426.472	1	-1
427.667	1	5
428.861	1	-2
430.055	1	-4
431.250	1	2
432.444	1	-5
433.638	1	2
434.832	1	-1
436.026	1	10
437.220	1	-3
438.414	1	-7
439.608	1	14
440.802	1	-11
441.996	1	9
443.190	1	-2
444.384	1	-2
445.578	1	-8
446.771	1	7
447.965	1	2
449.159	1	-5
450.352	1	7
451.546	1	7
452.739	1	5
453.933	1	2
455.126	1	-15
456.320	1	1
457.513	1	-12
458.706	1	0
459.899	1	4
461.093	1	9
462.286	1	2
463.479	1	8
464.672	1	6
465.865	1	-5
467.058	1	1
468.251	1	7
469.444	1	0
470.637	1	-7
471.830	1	4
473.023	1	16
474.215	1	10
475.408	1	11
476.601	1	-8
477.793	1	-4
478.986	1	2
480.179	1	2
481.371	1	7
482.564	1	-2
483.756	1	2
484.948	1	8
486.141	1	-3
487.333	1	-3
488.525	1	5
489.718	1	3
490.910	1	-2
492.102	1	3
493.294	1	8
494.486	1	18
495.678	1	-7
496.870	1	-1
498.062	1	-9
499.254	1	10
500.446	1	5
501.638	1	5
502.829	1	-5
504.021	1	-7
505.213	1	2
506.404	1	3
507.596	1	-3
508.788	1	3
509.979	1	-2
511.171	1	8
512.362	1	-3
513.553	1	0
514.745	1	4
515.936	1	4
517.127	1	-1
518.319	1	0
519.510	1	-13
520.701	1	-1
521.892	1	2
523.083	1	-1
524.274	1	-8
525.465	1	9
526.656	1	6
527.847	1	8
529.038	1	-2
530.229	1	5
531.419	1	-1
532.610	1	5
533.801	1	12
534.991	1	-2
536.182	1	1
537.373	1	-1
538.563	1	5
539.754	1	-7
540.944	1	5
542.134	1	-2
543.325	1	0
544.515	1	0
545.705	1	-5
546.896	1	3
548.086	1	-12
549.276	1	-3
550.466	1	0
551.656	1	7
552.846	1	2
554.036	1	5
555.226	1	4
556.416	1	3
557.606	1	-4
558.796	1	7
559.986	1	6
561.175	1	6
562.365	1	1
563.555	1	2
564.744	1	3
565.934	1	-3
567.123	1	1
568.313	1	-6
569.502	1	-9
570.692	1	7
571.881	1	5
573.070	1	-2
574.260	1	8
575.449	1	12
576.638	1	-1
577.827	1	4
579.016	1	-2
580.205	1	0
581.394	1	5
582.583	1	7
583.772	1	-7
584.961	1	10
586.150	1	-3
587.339	1	4
588.528	1	9
589.717	1	-1
590.905	1	5
592.094	1	2
593.283	1	-3
594.471	1	-4
595.660	1	1
596.848	1	-6
598.037	1	3
599.225	1	-4
600.413	1	7
601.602	1	-5
602.790	1	-3
603.978	1	-6
605.166	1	3
606.355	1	9
607.543	1	5
608.731	1	2
609.919	1	2
611.107	1	1
612.295	1	0
613.483	1	-6
614.671	1	2
615.858	1	-9
617.046	1	15
618.234	1	0
619.422	1	-1
620.609	1	-8
621.797	1	-1
622.985	1	6
624.172	1	0
625.360	1	8
626.547	1	0
627.735	1	-2
628.922	1	-3
630.109	1	2
631.297	1	2
632.484	1	-13
633.671	1	-3
634.858	1	6
636.045	1	21
637.232	1	-9
638.419	1	2
639.606	1	9
640.793	1	-13
641.980	1	-3
643.167	1	-2
644.354	1	-7
645.541	1	-1
646.728	1	6
647.914	1	-8
649.101	1	0
650.288	1	5
651.474	1	2
652.661	1	-4
653.847	1	6
655.034	1	-4
656.220	1	3
657.406	1	9
658.593	1	2
659.779	1	0
660.965	1	-1
662.152	1	3
663.338	1	-5
664.524	1	0
665.710	1	-6
666.896	1	6
668.082	1	1
669.268	1	1
670.454	1	5
671.640	1	-1
672.826	1	0
674.011	1	-2
675.197	1	-7
676.383	1	3
677.569	1	-7
678.754	1	-3
679.940	1	1
681.125	1	10
682.311	1	-9
683.496	1	-3
684.682	1	2
685.867	1	-1
687.053	1	2
688.238	1	10
688.746	1	1