File: Data/GaN_130K_350ms/GaN_sample F_spot6_UVVIS_130 K_200um_350 ms 2x2mm1_161.txt
340.368	1	11
341.565	1	6
342.763	1	8
343.960	1	-1
345.157	1	-8
346.354	1	-2
347.552	1	2
348.749	1	10
349.946	1	14
351.143	1	3
352.340	1	8
353.537	1	2
354.734	1	3
355.931	1	14
357.127	1	0
358.324	1	5
359.521	1	14
360.718	1	20
361.914	1	12
363.111	1	25
364.308	1	29
365.504	1	26
366.701	1	23
367.897	1	17
369.093	1	28
370.290	1	39
371.486	1	27
372.682	1	18
373.879	1	23
375.075	1	25
376.271	1	16
377.467	1	15
378.663	1	23
379.859	1	11
381.055	1	12
382.251	1	9
383.447	1	10
384.643	1	13
385.839	1	11
387.035	1	26
388.230	1	11
389.426	1	12
390.622	1	6
391.817	1	12
393.013	1	12
394.208	1	6
395.404	1	4
396.599	1	21
397.795	1	1
398.990	1	13
400.186	1	3
401.381	1	4
402.576	1	12
403.771	1	15
404.967	1	5
406.162	1	-4
407.357	1	1
408.552	1	3
409.747	1	1
410.942	1	7
412.137	1	7
413.332	1	6
414.526	1	-2
415.721	1	9
416.916	1	7
418.111	1	16
419.305	1	8
420.500	1	9
421.695	1	2
422.889	1	-4
424.084	1	5
425.278	1	5
426.472	1	2
427.667	1	10
428.861	1	4
430.055	1	5
431.250	1	8
432.444	1	8
433.638	1	6
434.832	1	10
436.026	1	17
437.220	1	-8
438.414	1	3
439.608	1	10
440.802	1	-10
441.996	1	4
443.190	1	14
444.384	1	-3
445.578	1	-3
446.771	1	10
447.965	1	4
449.159	1	-2
450.352	1	11
451.546	1	6
452.739	1	7
453.933	1	14
455.126	1	2
456.320	1	5
457.513	1	4
458.706	1	13
459.899	1	0
461.093	1	15
462.286	1	10
463.479	1	14
464.672	1	11
465.865	1	-13
467.058	1	12
468.251	1	1
469.444	1	-2
470.637	1	2
471.830	1	7
473.023	1	4
474.215	1	4
475.408	1	4
476.601	1	0
477.793	1	2
478.986	1	-3
480.179	1	-1
481.371	1	12
482.564	1	1
483.756	1	4
484.948	1	2
486.141	1	1
487.333	1	-5
488.525	1	7
489.718	1	3
490.910	1	-7
492.102	1	6
493.294	1	3
494.486	1	19
495.678	1	14
496.870	1	14
498.062	1	15
499.254	1	10
500.446	1	11
501.638	1	0
502.829	1	2
504.021	1	2
505.213	1	10
506.404	1	3
507.596	1	5
508.788	1	9
509.979	1	6
511.171	1	20
512.362	1	5
513.553	1	13
514.745	1	7
515.936	1	20
517.127	1	9
518.319	1	5
519.510	1	12
520.701	1	8
521.892	1	18
523.083	1	16
524.274	1	4
525.465	1	21
526.656	1	8
527.847	1	12
529.038	1	14
530.229	1	13
531.419	1	8
532.610	1	19
533.801	1	20
534.991	1	10
536.182	1	19
537.373	1	12
538.563	1	13
539.754	1	12
540.944	1	6
542.134	1	9
543.325	1	7
544.515	1	6
545.705	1	7
546.896	1	17
548.086	1	3
549.276	1	9
550.466	1	17
551.656	1	16
552.846	1	5
554.036	1	12
555.226	1	14
556.416	1	15
557.606	1	4
558.796	1	16
559.986	1	14
561.175	1	13
562.365	1	11
563.555	1	17
564.744	1	3
565.934	1	4
567.123	1	8
568.313	1	1
569.502	1	5
570.692	1	6
571.881	1	5
573.070	1	6
574.260	1	1
575.449	1	16
576.638	1	7
577.827	1	3
579.016	1	2
580.205	1	-1
581.394	1	-3
582.583	1	14
583.772	1	0
584.961	1	-1
586.150	1	1
587.339	1	3
588.528	1	10
589.717	1	8
590.905	1	16
592.094	1	2
593.283	1	-3
594.471	1	5
595.660	1	4
596.848	1	5
598.037	1	5
599.225	1	1
600.413	1	15
601.602	1	3
602.790	1	-5
603.978	1	-1
605.166	1	13
606.355	1	13
607.543	1	6
608.731	1	8
609.919	1	10
611.107	1	10
612.295	1	4
613.483	1	0
614.671	1	0
615.858	1	-6
617.046	1	8
618.234	1	5
619.422	1	4
620.609	1	-6
621.797	1	-2
622.985	1	2
624.172	1	3
625.360	1	3
626.547	1	5
627.735	1	15
628.922	1	-8
630.109	1	5
631.297	1	3
632.484	1	-1
633.671	1	-4
634.858	1	12
636.045	1	13
637.232	1	3
638.419	1	4
639.606	1	10
640.793	1	0
641.980	1	5
643.167	1	9
644.354	1	-12
645.541	1	4
646.728	1	13
647.914	1	0
649.101	1	-13
650.288	1	6
651.474	1	-1
652.661	1	-6
653.847	1	1
655.034	1	3
656.220	1	4
657.406	1	7
658.593	1	5
659.779	1	0
660.965	1	-2
662.152	1	0
663.338	1	2
664.524	1	-5
665.710	1	3
666.896	1	3
668.082	1	5
669.268	1	7
670.454	1	1
671.640	1	-9
672.826	1	-2
674.011	1	6
675.197	1	1
676.383	1	4
677.569	1	3
678.754	1	-5
679.940	1	2
681.125	1	7
682.311	1	-5
683.496	1	3
684.682	1	-1
685.867	1	0
687.053	1	-4
688.238	1	13
688.746	1	11