File: Data/GaN_130K_350ms/GaN_sample F_spot6_UVVIS_130 K_200um_350 ms 2x2mm1_212.txt
340.368	1	4
341.565	1	-4
342.763	1	8
343.960	1	-9
345.157	1	-7
346.354	1	8
347.552	1	-1
348.749	1	6
349.946	1	0
351.143	1	1
352.340	1	15
353.537	1	1
354.734	1	-4
355.931	1	9
357.127	1	7
358.324	1	-2
359.521	1	0
360.718	1	19
361.914	1	10
363.111	1	15
364.308	1	20
365.504	1	25
366.701	1	15
367.897	1	10
369.093	1	15
370.290	1	15
371.486	1	13
372.682	1	12
373.879	1	14
375.075	1	13
376.271	1	4
377.467	1	21
378.663	1	12
379.859	1	3
381.055	1	8
382.251	1	8
383.447	1	8
384.643	1	5
385.839	1	5
387.035	1	16
388.230	1	-1
389.426	1	9
390.622	1	5
391.817	1	13
393.013	1	1
394.208	1	1
395.404	1	0
396.599	1	11
397.795	1	4
398.990	1	5
400.186	1	4
401.381	1	9
402.576	1	0
403.771	1	4
404.967	1	4
406.162	1	-7
407.357	1	1
408.552	1	-4
409.747	1	-2
410.942	1	9
412.137	1	-10
413.332	1	-1
414.526	1	7
415.721	1	7
416.916	1	1
418.111	1	4
419.305	1	7
420.500	1	5
421.695	1	0
422.889	1	4
424.084	1	5
425.278	1	2
426.472	1	1
427.667	1	17
428.861	1	2
430.055	1	4
431.250	1	18
432.444	1	7
433.638	1	7
434.832	1	-2
436.026	1	15
437.220	1	-5
438.414	1	-7
439.608	1	19
440.802	1	-6
441.996	1	9
443.190	1	3
444.384	1	-10
445.578	1	-3
446.771	1	9
447.965	1	0
449.159	1	7
450.352	1	10
451.546	1	14
452.739	1	10
453.933	1	2
455.126	1	-8
456.320	1	-3
457.513	1	-8
458.706	1	1
459.899	1	4
461.093	1	6
462.286	1	6
463.479	1	5
464.672	1	12
465.865	1	-11
467.058	1	12
468.251	1	4
469.444	1	-1
470.637	1	4
471.830	1	6
473.023	1	10
474.215	1	6
475.408	1	8
476.601	1	3
477.793	1	3
478.986	1	-3
480.179	1	1
481.371	1	5
482.564	1	1
483.756	1	-6
484.948	1	1
486.141	1	3
487.333	1	-4
488.525	1	8
489.718	1	6
490.910	1	2
492.102	1	13
493.294	1	8
494.486	1	18
495.678	1	10
496.870	1	-2
498.062	1	-3
499.254	1	8
500.446	1	13
501.638	1	6
502.829	1	10
504.021	1	-2
505.213	1	4
506.404	1	4
507.596	1	-4
508.788	1	-2
509.979	1	2
511.171	1	14
512.362	1	3
513.553	1	7
514.745	1	10
515.936	1	8
517.127	1	9
518.319	1	1
519.510	1	3
520.701	1	5
521.892	1	4
523.083	1	4
524.274	1	3
525.465	1	7
526.656	1	4
527.847	1	10
529.038	1	-8
530.229	1	9
531.419	1	16
532.610	1	12
533.801	1	18
534.991	1	4
536.182	1	11
537.373	1	4
538.563	1	16
539.754	1	7
540.944	1	8
542.134	1	2
543.325	1	11
544.515	1	6
545.705	1	1
546.896	1	3
548.086	1	0
549.276	1	0
550.466	1	10
551.656	1	10
552.846	1	-2
554.036	1	-2
555.226	1	12
556.416	1	9
557.606	1	5
558.796	1	18
559.986	1	4
561.175	1	13
562.365	1	15
563.555	1	13
564.744	1	6
565.934	1	6
567.123	1	7
568.313	1	-5
569.502	1	2
570.692	1	6
571.881	1	7
573.070	1	-3
574.260	1	-3
575.449	1	12
576.638	1	-4
577.827	1	-5
579.016	1	4
580.205	1	-5
581.394	1	5
582.583	1	14
583.772	1	13
584.961	1	5
586.150	1	17
587.339	1	2
588.528	1	5
589.717	1	-2
590.905	1	5
592.094	1	-1
593.283	1	-2
594.471	1	7
595.660	1	-1
596.848	1	-4
598.037	1	8
599.225	1	4
600.413	1	10
601.602	1	-9
602.790	1	-2
603.978	1	6
605.166	1	12
606.355	1	6
607.543	1	9
608.731	1	7
609.919	1	12
611.107	1	4
612.295	1	12
613.483	1	-1
614.671	1	0
615.858	1	0
617.046	1	12
618.234	1	2
619.422	1	-3
620.609	1	-12
621.797	1	-3
622.985	1	0
624.172	1	8
625.360	1	-2
626.547	1	1
627.735	1	2
628.922	1	-2
630.109	1	7
631.297	1	7
632.484	1	1
633.671	1	-1
634.858	1	4
636.045	1	16
637.232	1	4
638.419	1	1
639.606	1	8
640.793	1	-10
641.980	1	0
643.167	1	2
644.354	1	2
645.541	1	1
646.728	1	-7
647.914	1	-5
649.101	1	4
650.288	1	0
651.474	1	2
652.661	1	3
653.847	1	-4
655.034	1	7
656.220	1	1
657.406	1	7
658.593	1	4
659.779	1	7
660.965	1	5
662.152	1	6
663.338	1	-4
664.524	1	-6
665.710	1	3
666.896	1	8
668.082	1	-2
669.268	1	-4
670.454	1	5
671.640	1	0
672.826	1	3
674.011	1	5
675.197	1	3
676.383	1	1
677.569	1	-4
678.754	1	3
679.940	1	2
681.125	1	14
682.311	1	-3
683.496	1	-4
684.682	1	-3
685.867	1	-5
687.053	1	1
688.238	1	5
688.746	1	9