File: Data/GaN_130K_350ms/GaN_sample F_spot6_UVVIS_130 K_200um_350 ms 2x2mm1_248.txt
340.368	1	3
341.565	1	-6
342.763	1	1
343.960	1	-12
345.157	1	-12
346.354	1	3
347.552	1	-7
348.749	1	-2
349.946	1	0
351.143	1	10
352.340	1	13
353.537	1	3
354.734	1	8
355.931	1	9
357.127	1	6
358.324	1	-5
359.521	1	-2
360.718	1	6
361.914	1	-2
363.111	1	20
364.308	1	12
365.504	1	13
366.701	1	2
367.897	1	7
369.093	1	8
370.290	1	15
371.486	1	15
372.682	1	8
373.879	1	18
375.075	1	4
376.271	1	11
377.467	1	9
378.663	1	7
379.859	1	9
381.055	1	2
382.251	1	3
383.447	1	15
384.643	1	5
385.839	1	1
387.035	1	4
388.230	1	12
389.426	1	1
390.622	1	9
391.817	1	8
393.013	1	7
394.208	1	-5
395.404	1	-8
396.599	1	6
397.795	1	-3
398.990	1	0
400.186	1	-1
401.381	1	-3
402.576	1	1
403.771	1	11
404.967	1	4
406.162	1	8
407.357	1	7
408.552	1	0
409.747	1	7
410.942	1	8
412.137	1	2
413.332	1	5
414.526	1	9
415.721	1	1
416.916	1	-3
418.111	1	13
419.305	1	-6
420.500	1	6
421.695	1	3
422.889	1	0
424.084	1	13
425.278	1	-7
426.472	1	-6
427.667	1	5
428.861	1	1
430.055	1	-1
431.250	1	9
432.444	1	8
433.638	1	11
434.832	1	4
436.026	1	5
437.220	1	8
438.414	1	-6
439.608	1	10
440.802	1	-6
441.996	1	8
443.190	1	4
444.384	1	1
445.578	1	-8
446.771	1	3
447.965	1	4
449.159	1	8
450.352	1	9
451.546	1	-8
452.739	1	2
453.933	1	-3
455.126	1	1
456.320	1	3
457.513	1	-2
458.706	1	8
459.899	1	2
461.093	1	14
462.286	1	16
463.479	1	10
464.672	1	7
465.865	1	-3
467.058	1	9
468.251	1	6
469.444	1	4
470.637	1	3
471.830	1	4
473.023	1	7
474.215	1	4
475.408	1	2
476.601	1	-7
477.793	1	0
478.986	1	1
480.179	1	-5
481.371	1	9
482.564	1	-4
483.756	1	3
484.948	1	4
486.141	1	-3
487.333	1	1
488.525	1	5
489.718	1	1
490.910	1	-11
492.102	1	6
493.294	1	7
494.486	1	2
495.678	1	5
496.870	1	6
498.062	1	1
499.254	1	13
500.446	1	4
501.638	1	1
502.829	1	1
504.021	1	4
505.213	1	6
506.404	1	-3
507.596	1	4
508.788	1	2
509.979	1	-4
511.171	1	9
512.362	1	2
513.553	1	9
514.745	1	0
515.936	1	11
517.127	1	4
518.319	1	-8
519.510	1	-4
520.701	1	2
521.892	1	9
523.083	1	6
524.274	1	-5
525.465	1	7
526.656	1	8
527.847	1	-3
529.038	1	-2
530.229	1	3
531.419	1	8
532.610	1	4
533.801	1	12
534.991	1	2
536.182	1	16
537.373	1	5
538.563	1	10
539.754	1	3
540.944	1	7
542.134	1	-1
543.325	1	3
544.515	1	2
545.705	1	-1
546.896	1	6
548.086	1	-5
549.276	1	0
550.466	1	15
551.656	1	-1
552.846	1	1
554.036	1	9
555.226	1	6
556.416	1	2
557.606	1	-1
558.796	1	15
559.986	1	-2
561.175	1	9
562.365	1	8
563.555	1	8
564.744	1	8
565.934	1	7
567.123	1	0
568.313	1	4
569.502	1	-2
570.692	1	13
571.881	1	4
573.070	1	5
574.260	1	2
575.449	1	0
576.638	1	4
577.827	1	-9
579.016	1	4
580.205	1	-6
581.394	1	4
582.583	1	8
583.772	1	-1
584.961	1	2
586.150	1	15
587.339	1	1
588.528	1	6
589.717	1	-5
590.905	1	2
592.094	1	3
593.283	1	-10
594.471	1	4
595.660	1	4
596.848	1	9
598.037	1	2
599.225	1	6
600.413	1	6
601.602	1	0
602.790	1	4
603.978	1	4
605.166	1	6
606.355	1	11
607.543	1	2
608.731	1	-4
609.919	1	11
611.107	1	5
612.295	1	6
613.483	1	-3
614.671	1	2
615.858	1	-12
617.046	1	18
618.234	1	4
619.422	1	-2
620.609	1	-4
621.797	1	0
622.985	1	7
624.172	1	0
625.360	1	-3
626.547	1	4
627.735	1	9
628.922	1	-4
630.109	1	12
631.297	1	4
632.484	1	-2
633.671	1	-8
634.858	1	14
636.045	1	18
637.232	1	-8
638.419	1	4
639.606	1	8
640.793	1	-2
641.980	1	2
643.167	1	4
644.354	1	-3
645.541	1	-4
646.728	1	11
647.914	1	-5
649.101	1	5
650.288	1	7
651.474	1	-2
652.661	1	0
653.847	1	-6
655.034	1	-3
656.220	1	-5
657.406	1	-2
658.593	1	4
659.779	1	6
660.965	1	0
662.152	1	1
663.338	1	-2
664.524	1	-4
665.710	1	1
666.896	1	6
668.082	1	-3
669.268	1	-1
670.454	1	1
671.640	1	-5
672.826	1	2
674.011	1	1
675.197	1	-12
676.383	1	2
677.569	1	-3
678.754	1	13
679.940	1	-1
681.125	1	7
682.311	1	-11
683.496	1	-8
684.682	1	-3
685.867	1	-2
687.053	1	5
688.238	1	16
688.746	1	6