File: Data/GaN_130K_350ms/GaN_sample F_spot6_UVVIS_130 K_200um_350 ms 2x2mm1_283.txt
340.368	1	5
341.565	1	3
342.763	1	-1
343.960	1	-4
345.157	1	-13
346.354	1	4
347.552	1	-10
348.749	1	0
349.946	1	6
351.143	1	-3
352.340	1	7
353.537	1	2
354.734	1	1
355.931	1	-10
357.127	1	6
358.324	1	0
359.521	1	-13
360.718	1	9
361.914	1	8
363.111	1	13
364.308	1	15
365.504	1	11
366.701	1	9
367.897	1	8
369.093	1	16
370.290	1	10
371.486	1	6
372.682	1	10
373.879	1	7
375.075	1	15
376.271	1	6
377.467	1	18
378.663	1	-7
379.859	1	0
381.055	1	3
382.251	1	3
383.447	1	7
384.643	1	7
385.839	1	3
387.035	1	11
388.230	1	0
389.426	1	10
390.622	1	1
391.817	1	5
393.013	1	8
394.208	1	-2
395.404	1	-6
396.599	1	7
397.795	1	-5
398.990	1	7
400.186	1	-1
401.381	1	3
402.576	1	-5
403.771	1	0
404.967	1	3
406.162	1	5
407.357	1	-3
408.552	1	2
409.747	1	-2
410.942	1	3
412.137	1	0
413.332	1	2
414.526	1	12
415.721	1	0
416.916	1	3
418.111	1	8
419.305	1	1
420.500	1	5
421.695	1	-1
422.889	1	1
424.084	1	5
425.278	1	0
426.472	1	-3
427.667	1	6
428.861	1	3
430.055	1	-5
431.250	1	9
432.444	1	10
433.638	1	0
434.832	1	2
436.026	1	-4
437.220	1	2
438.414	1	-3
439.608	1	9
440.802	1	-8
441.996	1	8
443.190	1	4
444.384	1	-4
445.578	1	-10
446.771	1	6
447.965	1	0
449.159	1	4
450.352	1	11
451.546	1	13
452.739	1	6
453.933	1	2
455.126	1	-3
456.320	1	-2
457.513	1	-8
458.706	1	6
459.899	1	2
461.093	1	7
462.286	1	7
463.479	1	14
464.672	1	6
465.865	1	-11
467.058	1	3
468.251	1	9
469.444	1	0
470.637	1	-5
471.830	1	5
473.023	1	2
474.215	1	11
475.408	1	6
476.601	1	3
477.793	1	-5
478.986	1	-9
480.179	1	-6
481.371	1	11
482.564	1	-4
483.756	1	-1
484.948	1	2
486.141	1	5
487.333	1	1
488.525	1	1
489.718	1	3
490.910	1	1
492.102	1	4
493.294	1	-3
494.486	1	7
495.678	1	-6
496.870	1	5
498.062	1	-11
499.254	1	4
500.446	1	8
501.638	1	5
502.829	1	1
504.021	1	0
505.213	1	4
506.404	1	6
507.596	1	-7
508.788	1	-2
509.979	1	-5
511.171	1	10
512.362	1	-4
513.553	1	2
514.745	1	-3
515.936	1	8
517.127	1	2
518.319	1	2
519.510	1	-3
520.701	1	3
521.892	1	10
523.083	1	6
524.274	1	-6
525.465	1	0
526.656	1	6
527.847	1	4
529.038	1	-6
530.229	1	2
531.419	1	6
532.610	1	6
533.801	1	7
534.991	1	1
536.182	1	13
537.373	1	8
538.563	1	5
539.754	1	-6
540.944	1	3
542.134	1	-9
543.325	1	5
544.515	1	4
545.705	1	-3
546.896	1	9
548.086	1	-8
549.276	1	-1
550.466	1	5
551.656	1	-4
552.846	1	-5
554.036	1	-2
555.226	1	-4
556.416	1	10
557.606	1	0
558.796	1	11
559.986	1	-2
561.175	1	5
562.365	1	13
563.555	1	6
564.744	1	3
565.934	1	-10
567.123	1	4
568.313	1	0
569.502	1	0
570.692	1	4
571.881	1	-5
573.070	1	-4
574.260	1	5
575.449	1	10
576.638	1	-2
577.827	1	2
579.016	1	-6
580.205	1	-6
581.394	1	4
582.583	1	4
583.772	1	5
584.961	1	-8
586.150	1	1
587.339	1	-5
588.528	1	7
589.717	1	-5
590.905	1	2
592.094	1	4
593.283	1	-5
594.471	1	6
595.660	1	-4
596.848	1	2
598.037	1	10
599.225	1	5
600.413	1	6
601.602	1	3
602.790	1	-3
603.978	1	7
605.166	1	1
606.355	1	8
607.543	1	-4
608.731	1	4
609.919	1	5
611.107	1	2
612.295	1	9
613.483	1	5
614.671	1	2
615.858	1	1
617.046	1	13
618.234	1	1
619.422	1	3
620.609	1	-9
621.797	1	1
622.985	1	12
624.172	1	-5
625.360	1	6
626.547	1	9
627.735	1	10
628.922	1	-1
630.109	1	-2
631.297	1	0
632.484	1	-4
633.671	1	-1
634.858	1	8
636.045	1	9
637.232	1	-3
638.419	1	2
639.606	1	8
640.793	1	-9
641.980	1	-6
643.167	1	3
644.354	1	-6
645.541	1	3
646.728	1	7
647.914	1	-4
649.101	1	-1
650.288	1	4
651.474	1	-2
652.661	1	-1
653.847	1	-1
655.034	1	2
656.220	1	-2
657.406	1	2
658.593	1	4
659.779	1	0
660.965	1	0
662.152	1	5
663.338	1	-1
664.524	1	-1
665.710	1	3
666.896	1	0
668.082	1	-2
669.268	1	-1
670.454	1	-2
671.640	1	-16
672.826	1	-1
674.011	1	-3
675.197	1	0
676.383	1	2
677.569	1	1
678.754	1	4
679.940	1	-6
681.125	1	9
682.311	1	-1
683.496	1	-4
684.682	1	-3
685.867	1	-2
687.053	1	-3
688.238	1	9
688.746	1	-1