File: Data/GaN_130K_350ms/GaN_sample F_spot6_UVVIS_130 K_200um_350 ms 2x2mm1_260.txt
340.368	1	5
341.565	1	1
342.763	1	5
343.960	1	1
345.157	1	-7
346.354	1	6
347.552	1	1
348.749	1	4
349.946	1	1
351.143	1	1
352.340	1	7
353.537	1	-10
354.734	1	8
355.931	1	-3
357.127	1	11
358.324	1	0
359.521	1	0
360.718	1	6
361.914	1	7
363.111	1	11
364.308	1	14
365.504	1	23
366.701	1	11
367.897	1	9
369.093	1	11
370.290	1	9
371.486	1	9
372.682	1	11
373.879	1	13
375.075	1	17
376.271	1	-1
377.467	1	9
378.663	1	12
379.859	1	5
381.055	1	10
382.251	1	6
383.447	1	1
384.643	1	7
385.839	1	6
387.035	1	7
388.230	1	-4
389.426	1	-2
390.622	1	0
391.817	1	6
393.013	1	10
394.208	1	0
395.404	1	-8
396.599	1	21
397.795	1	-5
398.990	1	2
400.186	1	3
401.381	1	4
402.576	1	0
403.771	1	4
404.967	1	6
406.162	1	-3
407.357	1	-6
408.552	1	-5
409.747	1	1
410.942	1	0
412.137	1	5
413.332	1	2
414.526	1	-2
415.721	1	4
416.916	1	3
418.111	1	7
419.305	1	7
420.500	1	1
421.695	1	6
422.889	1	1
424.084	1	-3
425.278	1	-1
426.472	1	2
427.667	1	11
428.861	1	0
430.055	1	-3
431.250	1	7
432.444	1	12
433.638	1	9
434.832	1	5
436.026	1	5
437.220	1	7
438.414	1	-9
439.608	1	14
440.802	1	-4
441.996	1	12
443.190	1	0
444.384	1	5
445.578	1	0
446.771	1	8
447.965	1	4
449.159	1	10
450.352	1	14
451.546	1	12
452.739	1	-3
453.933	1	8
455.126	1	-4
456.320	1	-3
457.513	1	-4
458.706	1	1
459.899	1	2
461.093	1	0
462.286	1	1
463.479	1	8
464.672	1	-1
465.865	1	-8
467.058	1	5
468.251	1	1
469.444	1	3
470.637	1	11
471.830	1	9
473.023	1	10
474.215	1	10
475.408	1	9
476.601	1	4
477.793	1	-9
478.986	1	2
480.179	1	-14
481.371	1	3
482.564	1	3
483.756	1	1
484.948	1	-1
486.141	1	5
487.333	1	0
488.525	1	6
489.718	1	1
490.910	1	-5
492.102	1	14
493.294	1	-1
494.486	1	6
495.678	1	-9
496.870	1	10
498.062	1	-5
499.254	1	4
500.446	1	10
501.638	1	-2
502.829	1	0
504.021	1	5
505.213	1	2
506.404	1	0
507.596	1	-2
508.788	1	-2
509.979	1	-7
511.171	1	5
512.362	1	-1
513.553	1	4
514.745	1	6
515.936	1	11
517.127	1	1
518.319	1	1
519.510	1	6
520.701	1	2
521.892	1	-2
523.083	1	3
524.274	1	-4
525.465	1	10
526.656	1	3
527.847	1	-1
529.038	1	-5
530.229	1	5
531.419	1	9
532.610	1	2
533.801	1	13
534.991	1	-5
536.182	1	8
537.373	1	5
538.563	1	7
539.754	1	-1
540.944	1	6
542.134	1	7
543.325	1	10
544.515	1	7
545.705	1	6
546.896	1	0
548.086	1	0
549.276	1	-7
550.466	1	4
551.656	1	8
552.846	1	-4
554.036	1	3
555.226	1	3
556.416	1	5
557.606	1	5
558.796	1	12
559.986	1	-4
561.175	1	3
562.365	1	-2
563.555	1	5
564.744	1	12
565.934	1	6
567.123	1	2
568.313	1	4
569.502	1	7
570.692	1	12
571.881	1	-7
573.070	1	9
574.260	1	10
575.449	1	-5
576.638	1	2
577.827	1	-6
579.016	1	-4
580.205	1	-3
581.394	1	-2
582.583	1	9
583.772	1	3
584.961	1	-9
586.150	1	6
587.339	1	-5
588.528	1	1
589.717	1	0
590.905	1	13
592.094	1	-2
593.283	1	-5
594.471	1	4
595.660	1	7
596.848	1	2
598.037	1	0
599.225	1	7
600.413	1	9
601.602	1	0
602.790	1	-7
603.978	1	0
605.166	1	11
606.355	1	6
607.543	1	3
608.731	1	2
609.919	1	-3
611.107	1	6
612.295	1	10
613.483	1	-7
614.671	1	7
615.858	1	1
617.046	1	11
618.234	1	8
619.422	1	4
620.609	1	-8
621.797	1	2
622.985	1	-1
624.172	1	-3
625.360	1	9
626.547	1	-2
627.735	1	13
628.922	1	1
630.109	1	8
631.297	1	2
632.484	1	-5
633.671	1	-9
634.858	1	5
636.045	1	15
637.232	1	-12
638.419	1	6
639.606	1	4
640.793	1	-11
641.980	1	-1
643.167	1	-7
644.354	1	0
645.541	1	4
646.728	1	5
647.914	1	-1
649.101	1	-7
650.288	1	7
651.474	1	6
652.661	1	3
653.847	1	5
655.034	1	1
656.220	1	2
657.406	1	3
658.593	1	-5
659.779	1	-3
660.965	1	-2
662.152	1	5
663.338	1	4
664.524	1	-6
665.710	1	-4
666.896	1	-2
668.082	1	3
669.268	1	-12
670.454	1	0
671.640	1	-9
672.826	1	-7
674.011	1	-5
675.197	1	-3
676.383	1	7
677.569	1	6
678.754	1	0
679.940	1	-3
681.125	1	3
682.311	1	-8
683.496	1	1
684.682	1	0
685.867	1	0
687.053	1	1
688.238	1	4
688.746	1	5