File: Data/GaN_130K_350ms/GaN_sample F_spot6_UVVIS_130 K_200um_350 ms 2x2mm1_122.txt
340.368	1	7
341.565	1	2
342.763	1	4
343.960	1	-4
345.157	1	-6
346.354	1	11
347.552	1	7
348.749	1	0
349.946	1	12
351.143	1	4
352.340	1	14
353.537	1	4
354.734	1	8
355.931	1	10
357.127	1	12
358.324	1	9
359.521	1	6
360.718	1	17
361.914	1	30
363.111	1	45
364.308	1	49
365.504	1	51
366.701	1	58
367.897	1	65
369.093	1	61
370.290	1	58
371.486	1	47
372.682	1	48
373.879	1	48
375.075	1	42
376.271	1	27
377.467	1	30
378.663	1	20
379.859	1	26
381.055	1	15
382.251	1	23
383.447	1	11
384.643	1	23
385.839	1	14
387.035	1	23
388.230	1	10
389.426	1	8
390.622	1	17
391.817	1	24
393.013	1	17
394.208	1	11
395.404	1	5
396.599	1	12
397.795	1	5
398.990	1	3
400.186	1	6
401.381	1	8
402.576	1	0
403.771	1	6
404.967	1	2
406.162	1	1
407.357	1	16
408.552	1	2
409.747	1	7
410.942	1	-1
412.137	1	-2
413.332	1	-3
414.526	1	8
415.721	1	1
416.916	1	12
418.111	1	9
419.305	1	-4
420.500	1	9
421.695	1	4
422.889	1	12
424.084	1	14
425.278	1	4
426.472	1	2
427.667	1	11
428.861	1	4
430.055	1	4
431.250	1	11
432.444	1	11
433.638	1	2
434.832	1	9
436.026	1	7
437.220	1	4
438.414	1	6
439.608	1	12
440.802	1	-1
441.996	1	12
443.190	1	8
444.384	1	2
445.578	1	6
446.771	1	10
447.965	1	3
449.159	1	11
450.352	1	7
451.546	1	12
452.739	1	11
453.933	1	9
455.126	1	-11
456.320	1	8
457.513	1	-4
458.706	1	8
459.899	1	0
461.093	1	5
462.286	1	7
463.479	1	10
464.672	1	-3
465.865	1	-1
467.058	1	15
468.251	1	7
469.444	1	2
470.637	1	-1
471.830	1	6
473.023	1	13
474.215	1	3
475.408	1	9
476.601	1	10
477.793	1	2
478.986	1	3
480.179	1	-2
481.371	1	0
482.564	1	6
483.756	1	8
484.948	1	0
486.141	1	4
487.333	1	5
488.525	1	17
489.718	1	8
490.910	1	3
492.102	1	17
493.294	1	16
494.486	1	15
495.678	1	3
496.870	1	7
498.062	1	3
499.254	1	11
500.446	1	13
501.638	1	14
502.829	1	18
504.021	1	21
505.213	1	14
506.404	1	16
507.596	1	14
508.788	1	7
509.979	1	15
511.171	1	29
512.362	1	8
513.553	1	23
514.745	1	22
515.936	1	26
517.127	1	23
518.319	1	17
519.510	1	23
520.701	1	23
521.892	1	24
523.083	1	39
524.274	1	13
525.465	1	21
526.656	1	24
527.847	1	27
529.038	1	9
530.229	1	26
531.419	1	21
532.610	1	25
533.801	1	42
534.991	1	28
536.182	1	30
537.373	1	24
538.563	1	25
539.754	1	14
540.944	1	17
542.134	1	18
543.325	1	29
544.515	1	32
545.705	1	12
546.896	1	18
548.086	1	14
549.276	1	13
550.466	1	18
551.656	1	22
552.846	1	11
554.036	1	14
555.226	1	17
556.416	1	20
557.606	1	11
558.796	1	26
559.986	1	15
561.175	1	21
562.365	1	17
563.555	1	26
564.744	1	24
565.934	1	13
567.123	1	13
568.313	1	15
569.502	1	9
570.692	1	18
571.881	1	4
573.070	1	4
574.260	1	10
575.449	1	17
576.638	1	9
577.827	1	4
579.016	1	9
580.205	1	8
581.394	1	9
582.583	1	17
583.772	1	6
584.961	1	4
586.150	1	15
587.339	1	5
588.528	1	10
589.717	1	6
590.905	1	9
592.094	1	7
593.283	1	0
594.471	1	13
595.660	1	7
596.848	1	1
598.037	1	10
599.225	1	3
600.413	1	9
601.602	1	0
602.790	1	5
603.978	1	4
605.166	1	5
606.355	1	19
607.543	1	6
608.731	1	10
609.919	1	9
611.107	1	-3
612.295	1	8
613.483	1	1
614.671	1	10
615.858	1	-3
617.046	1	1
618.234	1	7
619.422	1	7
620.609	1	-1
621.797	1	4
622.985	1	12
624.172	1	-1
625.360	1	9
626.547	1	6
627.735	1	15
628.922	1	-7
630.109	1	16
631.297	1	10
632.484	1	-1
633.671	1	-3
634.858	1	8
636.045	1	18
637.232	1	-4
638.419	1	3
639.606	1	11
640.793	1	-11
641.980	1	-4
643.167	1	3
644.354	1	-5
645.541	1	9
646.728	1	9
647.914	1	5
649.101	1	3
650.288	1	12
651.474	1	0
652.661	1	0
653.847	1	4
655.034	1	4
656.220	1	6
657.406	1	0
658.593	1	-7
659.779	1	12
660.965	1	5
662.152	1	5
663.338	1	-3
664.524	1	2
665.710	1	8
666.896	1	1
668.082	1	5
669.268	1	3
670.454	1	-6
671.640	1	-6
672.826	1	1
674.011	1	5
675.197	1	4
676.383	1	3
677.569	1	3
678.754	1	1
679.940	1	6
681.125	1	9
682.311	1	-1
683.496	1	6
684.682	1	-5
685.867	1	1
687.053	1	3
688.238	1	6
688.746	1	18