File: Data/GaN_130K_350ms/GaN_sample F_spot6_UVVIS_130 K_200um_350 ms 2x2mm1_181.txt
340.368	1	9
341.565	1	-8
342.763	1	5
343.960	1	-9
345.157	1	-18
346.354	1	4
347.552	1	-7
348.749	1	4
349.946	1	6
351.143	1	-1
352.340	1	15
353.537	1	1
354.734	1	4
355.931	1	7
357.127	1	13
358.324	1	0
359.521	1	5
360.718	1	16
361.914	1	10
363.111	1	14
364.308	1	20
365.504	1	11
366.701	1	18
367.897	1	21
369.093	1	26
370.290	1	22
371.486	1	19
372.682	1	16
373.879	1	20
375.075	1	15
376.271	1	13
377.467	1	16
378.663	1	3
379.859	1	7
381.055	1	11
382.251	1	10
383.447	1	9
384.643	1	13
385.839	1	14
387.035	1	9
388.230	1	-1
389.426	1	14
390.622	1	3
391.817	1	15
393.013	1	5
394.208	1	-4
395.404	1	0
396.599	1	14
397.795	1	4
398.990	1	-4
400.186	1	-3
401.381	1	13
402.576	1	8
403.771	1	10
404.967	1	0
406.162	1	4
407.357	1	0
408.552	1	-5
409.747	1	-1
410.942	1	6
412.137	1	7
413.332	1	-2
414.526	1	2
415.721	1	14
416.916	1	1
418.111	1	5
419.305	1	3
420.500	1	2
421.695	1	12
422.889	1	11
424.084	1	5
425.278	1	-3
426.472	1	12
427.667	1	4
428.861	1	0
430.055	1	-1
431.250	1	8
432.444	1	10
433.638	1	7
434.832	1	9
436.026	1	11
437.220	1	6
438.414	1	-1
439.608	1	17
440.802	1	-10
441.996	1	8
443.190	1	7
444.384	1	-4
445.578	1	8
446.771	1	7
447.965	1	6
449.159	1	8
450.352	1	-4
451.546	1	14
452.739	1	7
453.933	1	3
455.126	1	0
456.320	1	1
457.513	1	-6
458.706	1	13
459.899	1	1
461.093	1	11
462.286	1	3
463.479	1	11
464.672	1	7
465.865	1	-5
467.058	1	12
468.251	1	2
469.444	1	1
470.637	1	2
471.830	1	5
473.023	1	8
474.215	1	-3
475.408	1	5
476.601	1	-2
477.793	1	-4
478.986	1	-3
480.179	1	1
481.371	1	13
482.564	1	8
483.756	1	-9
484.948	1	1
486.141	1	4
487.333	1	7
488.525	1	7
489.718	1	9
490.910	1	-8
492.102	1	9
493.294	1	1
494.486	1	7
495.678	1	-4
496.870	1	4
498.062	1	-1
499.254	1	6
500.446	1	8
501.638	1	5
502.829	1	7
504.021	1	-7
505.213	1	4
506.404	1	11
507.596	1	7
508.788	1	-5
509.979	1	4
511.171	1	7
512.362	1	-1
513.553	1	12
514.745	1	12
515.936	1	20
517.127	1	6
518.319	1	6
519.510	1	-3
520.701	1	1
521.892	1	16
523.083	1	3
524.274	1	8
525.465	1	19
526.656	1	13
527.847	1	11
529.038	1	5
530.229	1	14
531.419	1	10
532.610	1	10
533.801	1	14
534.991	1	2
536.182	1	19
537.373	1	12
538.563	1	12
539.754	1	6
540.944	1	9
542.134	1	-1
543.325	1	5
544.515	1	11
545.705	1	6
546.896	1	10
548.086	1	0
549.276	1	-5
550.466	1	18
551.656	1	5
552.846	1	-3
554.036	1	4
555.226	1	10
556.416	1	10
557.606	1	2
558.796	1	13
559.986	1	2
561.175	1	12
562.365	1	18
563.555	1	6
564.744	1	7
565.934	1	13
567.123	1	2
568.313	1	7
569.502	1	5
570.692	1	17
571.881	1	4
573.070	1	5
574.260	1	2
575.449	1	8
576.638	1	3
577.827	1	2
579.016	1	0
580.205	1	2
581.394	1	7
582.583	1	14
583.772	1	6
584.961	1	1
586.150	1	5
587.339	1	-7
588.528	1	11
589.717	1	5
590.905	1	7
592.094	1	2
593.283	1	-2
594.471	1	5
595.660	1	5
596.848	1	12
598.037	1	7
599.225	1	-7
600.413	1	9
601.602	1	-3
602.790	1	-4
603.978	1	7
605.166	1	6
606.355	1	14
607.543	1	-4
608.731	1	7
609.919	1	8
611.107	1	7
612.295	1	8
613.483	1	-1
614.671	1	5
615.858	1	-1
617.046	1	13
618.234	1	-5
619.422	1	10
620.609	1	3
621.797	1	10
622.985	1	11
624.172	1	3
625.360	1	4
626.547	1	2
627.735	1	9
628.922	1	0
630.109	1	5
631.297	1	3
632.484	1	-1
633.671	1	-4
634.858	1	10
636.045	1	14
637.232	1	-6
638.419	1	8
639.606	1	3
640.793	1	-10
641.980	1	1
643.167	1	2
644.354	1	-1
645.541	1	4
646.728	1	8
647.914	1	-6
649.101	1	-2
650.288	1	9
651.474	1	5
652.661	1	-4
653.847	1	-8
655.034	1	1
656.220	1	-1
657.406	1	-3
658.593	1	4
659.779	1	-1
660.965	1	-1
662.152	1	4
663.338	1	-2
664.524	1	-3
665.710	1	2
666.896	1	4
668.082	1	-6
669.268	1	-5
670.454	1	1
671.640	1	-3
672.826	1	2
674.011	1	4
675.197	1	4
676.383	1	8
677.569	1	-6
678.754	1	1
679.940	1	-2
681.125	1	16
682.311	1	-8
683.496	1	-5
684.682	1	8
685.867	1	6
687.053	1	10
688.238	1	14
688.746	1	10