File: Data/GaN_130K_350ms/GaN_sample F_spot6_UVVIS_130 K_200um_350 ms 2x2mm1_145.txt
340.368	1	-1
341.565	1	3
342.763	1	3
343.960	1	-6
345.157	1	-8
346.354	1	-3
347.552	1	-3
348.749	1	0
349.946	1	15
351.143	1	-4
352.340	1	5
353.537	1	-2
354.734	1	-2
355.931	1	4
357.127	1	0
358.324	1	8
359.521	1	3
360.718	1	20
361.914	1	18
363.111	1	25
364.308	1	31
365.504	1	34
366.701	1	44
367.897	1	37
369.093	1	42
370.290	1	47
371.486	1	40
372.682	1	36
373.879	1	38
375.075	1	30
376.271	1	30
377.467	1	20
378.663	1	23
379.859	1	14
381.055	1	9
382.251	1	12
383.447	1	13
384.643	1	20
385.839	1	14
387.035	1	18
388.230	1	9
389.426	1	12
390.622	1	1
391.817	1	15
393.013	1	13
394.208	1	7
395.404	1	6
396.599	1	16
397.795	1	8
398.990	1	5
400.186	1	8
401.381	1	7
402.576	1	15
403.771	1	18
404.967	1	7
406.162	1	-1
407.357	1	10
408.552	1	-1
409.747	1	-8
410.942	1	7
412.137	1	3
413.332	1	-1
414.526	1	12
415.721	1	1
416.916	1	5
418.111	1	10
419.305	1	7
420.500	1	14
421.695	1	10
422.889	1	11
424.084	1	14
425.278	1	7
426.472	1	0
427.667	1	8
428.861	1	0
430.055	1	4
431.250	1	15
432.444	1	11
433.638	1	15
434.832	1	0
436.026	1	11
437.220	1	-1
438.414	1	-3
439.608	1	13
440.802	1	0
441.996	1	14
443.190	1	12
444.384	1	1
445.578	1	-8
446.771	1	4
447.965	1	4
449.159	1	10
450.352	1	11
451.546	1	10
452.739	1	8
453.933	1	9
455.126	1	-3
456.320	1	1
457.513	1	-16
458.706	1	10
459.899	1	2
461.093	1	10
462.286	1	4
463.479	1	5
464.672	1	11
465.865	1	-10
467.058	1	12
468.251	1	7
469.444	1	-8
470.637	1	0
471.830	1	2
473.023	1	8
474.215	1	4
475.408	1	4
476.601	1	2
477.793	1	1
478.986	1	-10
480.179	1	5
481.371	1	8
482.564	1	4
483.756	1	11
484.948	1	3
486.141	1	14
487.333	1	-3
488.525	1	13
489.718	1	9
490.910	1	-7
492.102	1	8
493.294	1	11
494.486	1	15
495.678	1	4
496.870	1	7
498.062	1	3
499.254	1	13
500.446	1	6
501.638	1	18
502.829	1	-1
504.021	1	11
505.213	1	18
506.404	1	6
507.596	1	3
508.788	1	13
509.979	1	4
511.171	1	10
512.362	1	4
513.553	1	15
514.745	1	18
515.936	1	18
517.127	1	11
518.319	1	8
519.510	1	15
520.701	1	11
521.892	1	18
523.083	1	13
524.274	1	13
525.465	1	17
526.656	1	23
527.847	1	14
529.038	1	8
530.229	1	12
531.419	1	24
532.610	1	15
533.801	1	19
534.991	1	11
536.182	1	19
537.373	1	10
538.563	1	16
539.754	1	13
540.944	1	11
542.134	1	10
543.325	1	10
544.515	1	8
545.705	1	1
546.896	1	21
548.086	1	0
549.276	1	11
550.466	1	14
551.656	1	12
552.846	1	12
554.036	1	11
555.226	1	11
556.416	1	13
557.606	1	11
558.796	1	17
559.986	1	11
561.175	1	18
562.365	1	13
563.555	1	22
564.744	1	8
565.934	1	8
567.123	1	6
568.313	1	2
569.502	1	11
570.692	1	20
571.881	1	1
573.070	1	18
574.260	1	4
575.449	1	9
576.638	1	9
577.827	1	9
579.016	1	3
580.205	1	-2
581.394	1	6
582.583	1	12
583.772	1	8
584.961	1	4
586.150	1	8
587.339	1	10
588.528	1	12
589.717	1	-2
590.905	1	6
592.094	1	4
593.283	1	2
594.471	1	8
595.660	1	11
596.848	1	5
598.037	1	7
599.225	1	17
600.413	1	15
601.602	1	-6
602.790	1	5
603.978	1	9
605.166	1	15
606.355	1	12
607.543	1	-3
608.731	1	2
609.919	1	18
611.107	1	0
612.295	1	13
613.483	1	0
614.671	1	-1
615.858	1	-6
617.046	1	12
618.234	1	2
619.422	1	3
620.609	1	-5
621.797	1	2
622.985	1	9
624.172	1	-2
625.360	1	3
626.547	1	5
627.735	1	17
628.922	1	-6
630.109	1	8
631.297	1	6
632.484	1	-1
633.671	1	1
634.858	1	9
636.045	1	13
637.232	1	3
638.419	1	5
639.606	1	5
640.793	1	-7
641.980	1	1
643.167	1	2
644.354	1	-3
645.541	1	2
646.728	1	10
647.914	1	2
649.101	1	4
650.288	1	12
651.474	1	2
652.661	1	1
653.847	1	-3
655.034	1	7
656.220	1	0
657.406	1	5
658.593	1	2
659.779	1	6
660.965	1	-4
662.152	1	6
663.338	1	3
664.524	1	-5
665.710	1	4
666.896	1	8
668.082	1	11
669.268	1	-1
670.454	1	9
671.640	1	-8
672.826	1	1
674.011	1	5
675.197	1	-2
676.383	1	12
677.569	1	-2
678.754	1	3
679.940	1	6
681.125	1	13
682.311	1	-8
683.496	1	2
684.682	1	8
685.867	1	0
687.053	1	6
688.238	1	4
688.746	1	11