File: Data/GaN_130K_350ms/GaN_sample F_spot6_UVVIS_130 K_200um_350 ms 2x2mm1_141.txt
340.368	1	8
341.565	1	7
342.763	1	3
343.960	1	-9
345.157	1	-5
346.354	1	-8
347.552	1	0
348.749	1	7
349.946	1	3
351.143	1	-5
352.340	1	15
353.537	1	6
354.734	1	-1
355.931	1	14
357.127	1	4
358.324	1	3
359.521	1	5
360.718	1	13
361.914	1	16
363.111	1	37
364.308	1	41
365.504	1	35
366.701	1	42
367.897	1	41
369.093	1	43
370.290	1	41
371.486	1	35
372.682	1	31
373.879	1	37
375.075	1	28
376.271	1	20
377.467	1	24
378.663	1	25
379.859	1	13
381.055	1	14
382.251	1	14
383.447	1	11
384.643	1	22
385.839	1	9
387.035	1	17
388.230	1	3
389.426	1	11
390.622	1	11
391.817	1	19
393.013	1	18
394.208	1	4
395.404	1	-6
396.599	1	16
397.795	1	4
398.990	1	8
400.186	1	8
401.381	1	17
402.576	1	10
403.771	1	10
404.967	1	6
406.162	1	4
407.357	1	15
408.552	1	7
409.747	1	8
410.942	1	11
412.137	1	7
413.332	1	2
414.526	1	9
415.721	1	4
416.916	1	4
418.111	1	1
419.305	1	3
420.500	1	6
421.695	1	10
422.889	1	10
424.084	1	14
425.278	1	6
426.472	1	6
427.667	1	8
428.861	1	9
430.055	1	5
431.250	1	14
432.444	1	9
433.638	1	8
434.832	1	4
436.026	1	18
437.220	1	9
438.414	1	8
439.608	1	8
440.802	1	8
441.996	1	14
443.190	1	6
444.384	1	0
445.578	1	0
446.771	1	12
447.965	1	8
449.159	1	11
450.352	1	12
451.546	1	12
452.739	1	4
453.933	1	6
455.126	1	2
456.320	1	2
457.513	1	-2
458.706	1	13
459.899	1	3
461.093	1	11
462.286	1	6
463.479	1	12
464.672	1	11
465.865	1	-6
467.058	1	12
468.251	1	9
469.444	1	4
470.637	1	11
471.830	1	4
473.023	1	6
474.215	1	5
475.408	1	2
476.601	1	0
477.793	1	1
478.986	1	8
480.179	1	0
481.371	1	8
482.564	1	0
483.756	1	-1
484.948	1	13
486.141	1	1
487.333	1	-8
488.525	1	10
489.718	1	9
490.910	1	3
492.102	1	17
493.294	1	19
494.486	1	12
495.678	1	13
496.870	1	12
498.062	1	1
499.254	1	7
500.446	1	8
501.638	1	1
502.829	1	13
504.021	1	13
505.213	1	3
506.404	1	8
507.596	1	2
508.788	1	11
509.979	1	5
511.171	1	13
512.362	1	13
513.553	1	22
514.745	1	14
515.936	1	16
517.127	1	16
518.319	1	6
519.510	1	12
520.701	1	13
521.892	1	35
523.083	1	8
524.274	1	6
525.465	1	22
526.656	1	21
527.847	1	12
529.038	1	13
530.229	1	10
531.419	1	19
532.610	1	4
533.801	1	26
534.991	1	14
536.182	1	15
537.373	1	13
538.563	1	23
539.754	1	9
540.944	1	17
542.134	1	12
543.325	1	12
544.515	1	11
545.705	1	14
546.896	1	18
548.086	1	8
549.276	1	4
550.466	1	13
551.656	1	18
552.846	1	3
554.036	1	7
555.226	1	6
556.416	1	22
557.606	1	19
558.796	1	21
559.986	1	12
561.175	1	16
562.365	1	15
563.555	1	18
564.744	1	13
565.934	1	8
567.123	1	11
568.313	1	4
569.502	1	7
570.692	1	2
571.881	1	10
573.070	1	10
574.260	1	5
575.449	1	2
576.638	1	-3
577.827	1	-8
579.016	1	3
580.205	1	4
581.394	1	1
582.583	1	14
583.772	1	1
584.961	1	5
586.150	1	8
587.339	1	3
588.528	1	18
589.717	1	4
590.905	1	10
592.094	1	4
593.283	1	-2
594.471	1	11
595.660	1	9
596.848	1	4
598.037	1	7
599.225	1	12
600.413	1	9
601.602	1	0
602.790	1	1
603.978	1	0
605.166	1	8
606.355	1	5
607.543	1	8
608.731	1	2
609.919	1	6
611.107	1	7
612.295	1	17
613.483	1	-2
614.671	1	2
615.858	1	-1
617.046	1	12
618.234	1	3
619.422	1	7
620.609	1	-7
621.797	1	-1
622.985	1	6
624.172	1	4
625.360	1	8
626.547	1	4
627.735	1	10
628.922	1	-7
630.109	1	2
631.297	1	2
632.484	1	1
633.671	1	0
634.858	1	6
636.045	1	21
637.232	1	0
638.419	1	-6
639.606	1	9
640.793	1	-6
641.980	1	0
643.167	1	5
644.354	1	0
645.541	1	4
646.728	1	-2
647.914	1	-3
649.101	1	2
650.288	1	4
651.474	1	2
652.661	1	3
653.847	1	5
655.034	1	2
656.220	1	5
657.406	1	5
658.593	1	-1
659.779	1	-3
660.965	1	6
662.152	1	8
663.338	1	1
664.524	1	3
665.710	1	5
666.896	1	16
668.082	1	3
669.268	1	1
670.454	1	2
671.640	1	-15
672.826	1	9
674.011	1	3
675.197	1	1
676.383	1	10
677.569	1	3
678.754	1	18
679.940	1	-1
681.125	1	11
682.311	1	-6
683.496	1	3
684.682	1	-2
685.867	1	5
687.053	1	-5
688.238	1	13
688.746	1	6