File: Data/GaN_130K_350ms/GaN_sample F_spot6_UVVIS_130 K_200um_350 ms 2x2mm1_100.txt
340.368	1	9
341.565	1	3
342.763	1	10
343.960	1	-2
345.157	1	-9
346.354	1	-3
347.552	1	1
348.749	1	13
349.946	1	8
351.143	1	8
352.340	1	8
353.537	1	0
354.734	1	4
355.931	1	17
357.127	1	19
358.324	1	16
359.521	1	14
360.718	1	31
361.914	1	41
363.111	1	51
364.308	1	66
365.504	1	103
366.701	1	113
367.897	1	122
369.093	1	108
370.290	1	108
371.486	1	88
372.682	1	76
373.879	1	76
375.075	1	58
376.271	1	51
377.467	1	53
378.663	1	35
379.859	1	29
381.055	1	31
382.251	1	37
383.447	1	28
384.643	1	32
385.839	1	26
387.035	1	35
388.230	1	14
389.426	1	19
390.622	1	21
391.817	1	24
393.013	1	20
394.208	1	16
395.404	1	7
396.599	1	15
397.795	1	3
398.990	1	24
400.186	1	14
401.381	1	17
402.576	1	14
403.771	1	15
404.967	1	14
406.162	1	11
407.357	1	17
408.552	1	2
409.747	1	2
410.942	1	9
412.137	1	7
413.332	1	2
414.526	1	13
415.721	1	10
416.916	1	9
418.111	1	12
419.305	1	11
420.500	1	12
421.695	1	2
422.889	1	7
424.084	1	10
425.278	1	8
426.472	1	14
427.667	1	8
428.861	1	10
430.055	1	3
431.250	1	16
432.444	1	16
433.638	1	11
434.832	1	15
436.026	1	12
437.220	1	-1
438.414	1	-3
439.608	1	10
440.802	1	4
441.996	1	18
443.190	1	10
444.384	1	6
445.578	1	1
446.771	1	21
447.965	1	12
449.159	1	3
450.352	1	11
451.546	1	11
452.739	1	13
453.933	1	4
455.126	1	-15
456.320	1	12
457.513	1	0
458.706	1	7
459.899	1	-4
461.093	1	14
462.286	1	9
463.479	1	16
464.672	1	13
465.865	1	-2
467.058	1	5
468.251	1	5
469.444	1	0
470.637	1	6
471.830	1	7
473.023	1	5
474.215	1	1
475.408	1	7
476.601	1	-1
477.793	1	12
478.986	1	7
480.179	1	0
481.371	1	12
482.564	1	1
483.756	1	11
484.948	1	10
486.141	1	14
487.333	1	4
488.525	1	25
489.718	1	11
490.910	1	4
492.102	1	16
493.294	1	11
494.486	1	24
495.678	1	17
496.870	1	20
498.062	1	12
499.254	1	17
500.446	1	32
501.638	1	31
502.829	1	16
504.021	1	23
505.213	1	29
506.404	1	32
507.596	1	21
508.788	1	36
509.979	1	34
511.171	1	46
512.362	1	39
513.553	1	48
514.745	1	46
515.936	1	47
517.127	1	38
518.319	1	32
519.510	1	38
520.701	1	35
521.892	1	56
523.083	1	42
524.274	1	42
525.465	1	52
526.656	1	36
527.847	1	49
529.038	1	40
530.229	1	48
531.419	1	57
532.610	1	51
533.801	1	58
534.991	1	40
536.182	1	54
537.373	1	42
538.563	1	43
539.754	1	44
540.944	1	42
542.134	1	32
543.325	1	34
544.515	1	40
545.705	1	30
546.896	1	32
548.086	1	28
549.276	1	24
550.466	1	36
551.656	1	36
552.846	1	33
554.036	1	33
555.226	1	39
556.416	1	40
557.606	1	21
558.796	1	53
559.986	1	33
561.175	1	32
562.365	1	22
563.555	1	44
564.744	1	22
565.934	1	28
567.123	1	27
568.313	1	19
569.502	1	24
570.692	1	24
571.881	1	17
573.070	1	23
574.260	1	22
575.449	1	23
576.638	1	12
577.827	1	18
579.016	1	9
580.205	1	4
581.394	1	22
582.583	1	23
583.772	1	21
584.961	1	11
586.150	1	28
587.339	1	8
588.528	1	17
589.717	1	4
590.905	1	14
592.094	1	17
593.283	1	9
594.471	1	10
595.660	1	11
596.848	1	9
598.037	1	13
599.225	1	9
600.413	1	20
601.602	1	15
602.790	1	7
603.978	1	12
605.166	1	10
606.355	1	18
607.543	1	4
608.731	1	9
609.919	1	14
611.107	1	11
612.295	1	13
613.483	1	3
614.671	1	9
615.858	1	-1
617.046	1	10
618.234	1	10
619.422	1	12
620.609	1	0
621.797	1	8
622.985	1	9
624.172	1	-1
625.360	1	5
626.547	1	7
627.735	1	12
628.922	1	3
630.109	1	10
631.297	1	6
632.484	1	-11
633.671	1	4
634.858	1	11
636.045	1	13
637.232	1	1
638.419	1	17
639.606	1	8
640.793	1	2
641.980	1	1
643.167	1	5
644.354	1	-5
645.541	1	5
646.728	1	12
647.914	1	-3
649.101	1	-8
650.288	1	13
651.474	1	0
652.661	1	10
653.847	1	3
655.034	1	4
656.220	1	-4
657.406	1	8
658.593	1	5
659.779	1	4
660.965	1	8
662.152	1	4
663.338	1	3
664.524	1	2
665.710	1	10
666.896	1	6
668.082	1	5
669.268	1	-3
670.454	1	5
671.640	1	-3
672.826	1	3
674.011	1	8
675.197	1	-2
676.383	1	5
677.569	1	4
678.754	1	1
679.940	1	0
681.125	1	13
682.311	1	0
683.496	1	5
684.682	1	-10
685.867	1	7
687.053	1	15
688.238	1	14
688.746	1	10