File: Data/GaN_130K_350ms/GaN_sample F_spot6_UVVIS_130 K_200um_350 ms 2x2mm1_148.txt
340.368	1	2
341.565	1	1
342.763	1	5
343.960	1	-6
345.157	1	-1
346.354	1	10
347.552	1	10
348.749	1	5
349.946	1	10
351.143	1	-1
352.340	1	5
353.537	1	4
354.734	1	-1
355.931	1	11
357.127	1	7
358.324	1	8
359.521	1	4
360.718	1	14
361.914	1	10
363.111	1	30
364.308	1	33
365.504	1	24
366.701	1	35
367.897	1	34
369.093	1	46
370.290	1	43
371.486	1	25
372.682	1	24
373.879	1	31
375.075	1	28
376.271	1	19
377.467	1	25
378.663	1	26
379.859	1	13
381.055	1	13
382.251	1	18
383.447	1	20
384.643	1	13
385.839	1	6
387.035	1	15
388.230	1	6
389.426	1	13
390.622	1	14
391.817	1	17
393.013	1	4
394.208	1	-4
395.404	1	0
396.599	1	15
397.795	1	3
398.990	1	5
400.186	1	-1
401.381	1	8
402.576	1	3
403.771	1	14
404.967	1	-3
406.162	1	9
407.357	1	14
408.552	1	3
409.747	1	8
410.942	1	7
412.137	1	10
413.332	1	0
414.526	1	4
415.721	1	12
416.916	1	1
418.111	1	8
419.305	1	13
420.500	1	13
421.695	1	3
422.889	1	1
424.084	1	9
425.278	1	7
426.472	1	5
427.667	1	10
428.861	1	7
430.055	1	2
431.250	1	5
432.444	1	6
433.638	1	7
434.832	1	-2
436.026	1	-2
437.220	1	6
438.414	1	0
439.608	1	4
440.802	1	4
441.996	1	3
443.190	1	6
444.384	1	0
445.578	1	-3
446.771	1	2
447.965	1	-1
449.159	1	13
450.352	1	9
451.546	1	14
452.739	1	-7
453.933	1	6
455.126	1	-9
456.320	1	5
457.513	1	1
458.706	1	1
459.899	1	10
461.093	1	11
462.286	1	8
463.479	1	5
464.672	1	9
465.865	1	3
467.058	1	4
468.251	1	2
469.444	1	-5
470.637	1	2
471.830	1	14
473.023	1	19
474.215	1	-1
475.408	1	5
476.601	1	10
477.793	1	6
478.986	1	4
480.179	1	-2
481.371	1	7
482.564	1	0
483.756	1	-2
484.948	1	5
486.141	1	12
487.333	1	-7
488.525	1	6
489.718	1	0
490.910	1	2
492.102	1	14
493.294	1	13
494.486	1	15
495.678	1	7
496.870	1	8
498.062	1	1
499.254	1	12
500.446	1	6
501.638	1	5
502.829	1	3
504.021	1	-1
505.213	1	10
506.404	1	10
507.596	1	6
508.788	1	8
509.979	1	2
511.171	1	12
512.362	1	7
513.553	1	14
514.745	1	6
515.936	1	22
517.127	1	10
518.319	1	1
519.510	1	6
520.701	1	10
521.892	1	11
523.083	1	13
524.274	1	9
525.465	1	8
526.656	1	20
527.847	1	11
529.038	1	3
530.229	1	21
531.419	1	17
532.610	1	9
533.801	1	19
534.991	1	13
536.182	1	16
537.373	1	7
538.563	1	21
539.754	1	16
540.944	1	26
542.134	1	4
543.325	1	10
544.515	1	9
545.705	1	19
546.896	1	8
548.086	1	1
549.276	1	6
550.466	1	14
551.656	1	17
552.846	1	9
554.036	1	10
555.226	1	4
556.416	1	14
557.606	1	9
558.796	1	7
559.986	1	11
561.175	1	8
562.365	1	18
563.555	1	18
564.744	1	6
565.934	1	4
567.123	1	9
568.313	1	8
569.502	1	5
570.692	1	10
571.881	1	2
573.070	1	1
574.260	1	12
575.449	1	14
576.638	1	5
577.827	1	0
579.016	1	1
580.205	1	2
581.394	1	13
582.583	1	23
583.772	1	5
584.961	1	4
586.150	1	15
587.339	1	3
588.528	1	13
589.717	1	5
590.905	1	6
592.094	1	5
593.283	1	-3
594.471	1	10
595.660	1	5
596.848	1	17
598.037	1	8
599.225	1	-1
600.413	1	12
601.602	1	-4
602.790	1	-3
603.978	1	6
605.166	1	18
606.355	1	9
607.543	1	4
608.731	1	7
609.919	1	11
611.107	1	5
612.295	1	2
613.483	1	-2
614.671	1	2
615.858	1	4
617.046	1	13
618.234	1	4
619.422	1	8
620.609	1	-1
621.797	1	4
622.985	1	3
624.172	1	2
625.360	1	10
626.547	1	4
627.735	1	11
628.922	1	-3
630.109	1	12
631.297	1	0
632.484	1	-5
633.671	1	5
634.858	1	11
636.045	1	11
637.232	1	-4
638.419	1	-3
639.606	1	9
640.793	1	-5
641.980	1	2
643.167	1	6
644.354	1	1
645.541	1	-6
646.728	1	6
647.914	1	2
649.101	1	-6
650.288	1	2
651.474	1	7
652.661	1	0
653.847	1	8
655.034	1	3
656.220	1	1
657.406	1	7
658.593	1	8
659.779	1	1
660.965	1	-10
662.152	1	6
663.338	1	-1
664.524	1	-9
665.710	1	11
666.896	1	11
668.082	1	10
669.268	1	-5
670.454	1	4
671.640	1	-8
672.826	1	2
674.011	1	6
675.197	1	-2
676.383	1	4
677.569	1	4
678.754	1	-1
679.940	1	4
681.125	1	12
682.311	1	7
683.496	1	-3
684.682	1	8
685.867	1	-1
687.053	1	5
688.238	1	16
688.746	1	1