File: Data/GaN_130K_350ms/GaN_sample F_spot6_UVVIS_130 K_200um_350 ms 2x2mm1_111.txt
340.368	1	11
341.565	1	0
342.763	1	2
343.960	1	-17
345.157	1	-12
346.354	1	-6
347.552	1	3
348.749	1	7
349.946	1	22
351.143	1	5
352.340	1	6
353.537	1	6
354.734	1	7
355.931	1	15
357.127	1	20
358.324	1	19
359.521	1	7
360.718	1	33
361.914	1	32
363.111	1	46
364.308	1	70
365.504	1	65
366.701	1	84
367.897	1	88
369.093	1	86
370.290	1	74
371.486	1	75
372.682	1	62
373.879	1	54
375.075	1	56
376.271	1	37
377.467	1	38
378.663	1	25
379.859	1	30
381.055	1	28
382.251	1	24
383.447	1	21
384.643	1	22
385.839	1	25
387.035	1	30
388.230	1	18
389.426	1	19
390.622	1	18
391.817	1	26
393.013	1	21
394.208	1	3
395.404	1	0
396.599	1	17
397.795	1	10
398.990	1	13
400.186	1	4
401.381	1	5
402.576	1	17
403.771	1	14
404.967	1	7
406.162	1	7
407.357	1	10
408.552	1	-2
409.747	1	10
410.942	1	14
412.137	1	6
413.332	1	5
414.526	1	7
415.721	1	7
416.916	1	14
418.111	1	24
419.305	1	9
420.500	1	7
421.695	1	2
422.889	1	-1
424.084	1	17
425.278	1	5
426.472	1	4
427.667	1	9
428.861	1	6
430.055	1	-1
431.250	1	11
432.444	1	11
433.638	1	12
434.832	1	3
436.026	1	8
437.220	1	9
438.414	1	3
439.608	1	18
440.802	1	0
441.996	1	0
443.190	1	7
444.384	1	0
445.578	1	10
446.771	1	6
447.965	1	9
449.159	1	11
450.352	1	8
451.546	1	13
452.739	1	13
453.933	1	3
455.126	1	-3
456.320	1	8
457.513	1	0
458.706	1	8
459.899	1	-5
461.093	1	12
462.286	1	10
463.479	1	16
464.672	1	10
465.865	1	8
467.058	1	10
468.251	1	2
469.444	1	6
470.637	1	10
471.830	1	9
473.023	1	7
474.215	1	6
475.408	1	9
476.601	1	-2
477.793	1	3
478.986	1	11
480.179	1	3
481.371	1	17
482.564	1	2
483.756	1	14
484.948	1	9
486.141	1	4
487.333	1	10
488.525	1	10
489.718	1	16
490.910	1	14
492.102	1	14
493.294	1	18
494.486	1	25
495.678	1	0
496.870	1	13
498.062	1	0
499.254	1	23
500.446	1	24
501.638	1	15
502.829	1	17
504.021	1	15
505.213	1	19
506.404	1	22
507.596	1	22
508.788	1	20
509.979	1	15
511.171	1	27
512.362	1	18
513.553	1	29
514.745	1	30
515.936	1	26
517.127	1	36
518.319	1	20
519.510	1	27
520.701	1	27
521.892	1	25
523.083	1	33
524.274	1	26
525.465	1	36
526.656	1	43
527.847	1	34
529.038	1	23
530.229	1	31
531.419	1	32
532.610	1	32
533.801	1	38
534.991	1	38
536.182	1	31
537.373	1	29
538.563	1	41
539.754	1	21
540.944	1	30
542.134	1	26
543.325	1	31
544.515	1	16
545.705	1	34
546.896	1	24
548.086	1	28
549.276	1	25
550.466	1	39
551.656	1	26
552.846	1	11
554.036	1	26
555.226	1	28
556.416	1	25
557.606	1	14
558.796	1	23
559.986	1	22
561.175	1	16
562.365	1	21
563.555	1	23
564.744	1	20
565.934	1	20
567.123	1	15
568.313	1	9
569.502	1	15
570.692	1	22
571.881	1	15
573.070	1	10
574.260	1	20
575.449	1	13
576.638	1	4
577.827	1	11
579.016	1	14
580.205	1	8
581.394	1	3
582.583	1	9
583.772	1	12
584.961	1	15
586.150	1	12
587.339	1	8
588.528	1	17
589.717	1	5
590.905	1	7
592.094	1	13
593.283	1	2
594.471	1	6
595.660	1	9
596.848	1	8
598.037	1	15
599.225	1	10
600.413	1	26
601.602	1	1
602.790	1	4
603.978	1	4
605.166	1	17
606.355	1	14
607.543	1	8
608.731	1	5
609.919	1	15
611.107	1	5
612.295	1	20
613.483	1	5
614.671	1	11
615.858	1	-2
617.046	1	14
618.234	1	5
619.422	1	4
620.609	1	1
621.797	1	-2
622.985	1	13
624.172	1	4
625.360	1	-8
626.547	1	1
627.735	1	9
628.922	1	1
630.109	1	12
631.297	1	-3
632.484	1	-6
633.671	1	-9
634.858	1	4
636.045	1	18
637.232	1	-8
638.419	1	13
639.606	1	9
640.793	1	-16
641.980	1	-3
643.167	1	12
644.354	1	0
645.541	1	-6
646.728	1	7
647.914	1	8
649.101	1	4
650.288	1	7
651.474	1	6
652.661	1	-6
653.847	1	-1
655.034	1	0
656.220	1	10
657.406	1	-2
658.593	1	6
659.779	1	1
660.965	1	8
662.152	1	8
663.338	1	6
664.524	1	1
665.710	1	4
666.896	1	7
668.082	1	8
669.268	1	6
670.454	1	-8
671.640	1	1
672.826	1	-7
674.011	1	-3
675.197	1	11
676.383	1	7
677.569	1	-1
678.754	1	5
679.940	1	-7
681.125	1	15
682.311	1	-6
683.496	1	1
684.682	1	5
685.867	1	6
687.053	1	5
688.238	1	16
688.746	1	11