File: Data/GaN_130K_350ms/GaN_sample F_spot6_UVVIS_130 K_200um_350 ms 2x2mm1_279.txt
340.368	1	-1
341.565	1	-2
342.763	1	-2
343.960	1	-14
345.157	1	-18
346.354	1	-3
347.552	1	2
348.749	1	11
349.946	1	1
351.143	1	3
352.340	1	11
353.537	1	5
354.734	1	4
355.931	1	-4
357.127	1	7
358.324	1	-4
359.521	1	-1
360.718	1	1
361.914	1	2
363.111	1	14
364.308	1	7
365.504	1	8
366.701	1	18
367.897	1	8
369.093	1	8
370.290	1	11
371.486	1	12
372.682	1	13
373.879	1	11
375.075	1	11
376.271	1	2
377.467	1	13
378.663	1	3
379.859	1	4
381.055	1	6
382.251	1	6
383.447	1	3
384.643	1	8
385.839	1	2
387.035	1	15
388.230	1	-7
389.426	1	3
390.622	1	6
391.817	1	2
393.013	1	4
394.208	1	-7
395.404	1	1
396.599	1	11
397.795	1	5
398.990	1	0
400.186	1	-4
401.381	1	7
402.576	1	-4
403.771	1	13
404.967	1	-2
406.162	1	-2
407.357	1	12
408.552	1	-1
409.747	1	6
410.942	1	12
412.137	1	1
413.332	1	-6
414.526	1	4
415.721	1	4
416.916	1	9
418.111	1	4
419.305	1	2
420.500	1	2
421.695	1	-2
422.889	1	5
424.084	1	12
425.278	1	6
426.472	1	4
427.667	1	5
428.861	1	0
430.055	1	-2
431.250	1	5
432.444	1	8
433.638	1	3
434.832	1	4
436.026	1	2
437.220	1	-11
438.414	1	-1
439.608	1	14
440.802	1	-7
441.996	1	8
443.190	1	-1
444.384	1	-9
445.578	1	1
446.771	1	10
447.965	1	0
449.159	1	7
450.352	1	3
451.546	1	10
452.739	1	-4
453.933	1	1
455.126	1	-3
456.320	1	-3
457.513	1	-6
458.706	1	6
459.899	1	7
461.093	1	11
462.286	1	10
463.479	1	5
464.672	1	0
465.865	1	-8
467.058	1	5
468.251	1	14
469.444	1	3
470.637	1	5
471.830	1	9
473.023	1	3
474.215	1	6
475.408	1	14
476.601	1	-6
477.793	1	7
478.986	1	2
480.179	1	-4
481.371	1	5
482.564	1	1
483.756	1	1
484.948	1	6
486.141	1	4
487.333	1	3
488.525	1	14
489.718	1	8
490.910	1	-7
492.102	1	10
493.294	1	1
494.486	1	14
495.678	1	6
496.870	1	-4
498.062	1	-9
499.254	1	7
500.446	1	3
501.638	1	9
502.829	1	-1
504.021	1	-1
505.213	1	1
506.404	1	-2
507.596	1	3
508.788	1	9
509.979	1	-3
511.171	1	6
512.362	1	-3
513.553	1	3
514.745	1	0
515.936	1	17
517.127	1	-2
518.319	1	-1
519.510	1	-6
520.701	1	2
521.892	1	13
523.083	1	11
524.274	1	-8
525.465	1	3
526.656	1	9
527.847	1	6
529.038	1	-1
530.229	1	4
531.419	1	2
532.610	1	3
533.801	1	18
534.991	1	1
536.182	1	6
537.373	1	6
538.563	1	13
539.754	1	-1
540.944	1	0
542.134	1	8
543.325	1	0
544.515	1	8
545.705	1	0
546.896	1	5
548.086	1	-7
549.276	1	-2
550.466	1	0
551.656	1	1
552.846	1	7
554.036	1	-8
555.226	1	8
556.416	1	7
557.606	1	6
558.796	1	9
559.986	1	2
561.175	1	4
562.365	1	15
563.555	1	6
564.744	1	-1
565.934	1	-3
567.123	1	5
568.313	1	-1
569.502	1	-4
570.692	1	3
571.881	1	7
573.070	1	-4
574.260	1	0
575.449	1	-1
576.638	1	0
577.827	1	-4
579.016	1	-3
580.205	1	-10
581.394	1	3
582.583	1	6
583.772	1	4
584.961	1	8
586.150	1	9
587.339	1	-4
588.528	1	15
589.717	1	9
590.905	1	8
592.094	1	-6
593.283	1	-10
594.471	1	6
595.660	1	-2
596.848	1	4
598.037	1	-1
599.225	1	7
600.413	1	1
601.602	1	-8
602.790	1	2
603.978	1	1
605.166	1	5
606.355	1	9
607.543	1	1
608.731	1	5
609.919	1	13
611.107	1	15
612.295	1	-1
613.483	1	0
614.671	1	5
615.858	1	-4
617.046	1	12
618.234	1	7
619.422	1	1
620.609	1	-9
621.797	1	-6
622.985	1	2
624.172	1	0
625.360	1	4
626.547	1	3
627.735	1	2
628.922	1	-4
630.109	1	7
631.297	1	-2
632.484	1	-2
633.671	1	-1
634.858	1	5
636.045	1	17
637.232	1	-7
638.419	1	0
639.606	1	11
640.793	1	-10
641.980	1	-5
643.167	1	0
644.354	1	-9
645.541	1	3
646.728	1	4
647.914	1	-2
649.101	1	-5
650.288	1	7
651.474	1	-2
652.661	1	4
653.847	1	-1
655.034	1	1
656.220	1	0
657.406	1	2
658.593	1	1
659.779	1	7
660.965	1	8
662.152	1	3
663.338	1	-1
664.524	1	-4
665.710	1	6
666.896	1	2
668.082	1	-2
669.268	1	3
670.454	1	-1
671.640	1	-6
672.826	1	3
674.011	1	5
675.197	1	2
676.383	1	7
677.569	1	4
678.754	1	4
679.940	1	2
681.125	1	6
682.311	1	-8
683.496	1	-6
684.682	1	3
685.867	1	-2
687.053	1	3
688.238	1	9
688.746	1	6