File: Data/GaN_130K_350ms/GaN_sample F_spot6_UVVIS_130 K_200um_350 ms 2x2mm1_109.txt
340.368	1	2
341.565	1	-1
342.763	1	5
343.960	1	-16
345.157	1	-7
346.354	1	0
347.552	1	12
348.749	1	11
349.946	1	10
351.143	1	4
352.340	1	13
353.537	1	10
354.734	1	1
355.931	1	12
357.127	1	12
358.324	1	12
359.521	1	8
360.718	1	19
361.914	1	34
363.111	1	62
364.308	1	55
365.504	1	77
366.701	1	87
367.897	1	102
369.093	1	91
370.290	1	84
371.486	1	74
372.682	1	56
373.879	1	45
375.075	1	47
376.271	1	36
377.467	1	35
378.663	1	36
379.859	1	12
381.055	1	21
382.251	1	25
383.447	1	21
384.643	1	36
385.839	1	24
387.035	1	36
388.230	1	15
389.426	1	22
390.622	1	21
391.817	1	29
393.013	1	23
394.208	1	13
395.404	1	5
396.599	1	14
397.795	1	11
398.990	1	18
400.186	1	3
401.381	1	18
402.576	1	19
403.771	1	14
404.967	1	5
406.162	1	5
407.357	1	15
408.552	1	2
409.747	1	2
410.942	1	1
412.137	1	7
413.332	1	8
414.526	1	17
415.721	1	1
416.916	1	5
418.111	1	6
419.305	1	4
420.500	1	7
421.695	1	1
422.889	1	13
424.084	1	6
425.278	1	12
426.472	1	5
427.667	1	11
428.861	1	14
430.055	1	0
431.250	1	20
432.444	1	12
433.638	1	12
434.832	1	14
436.026	1	5
437.220	1	2
438.414	1	12
439.608	1	19
440.802	1	-11
441.996	1	13
443.190	1	-1
444.384	1	-2
445.578	1	-8
446.771	1	5
447.965	1	6
449.159	1	0
450.352	1	8
451.546	1	9
452.739	1	0
453.933	1	2
455.126	1	-8
456.320	1	8
457.513	1	-5
458.706	1	10
459.899	1	1
461.093	1	9
462.286	1	7
463.479	1	15
464.672	1	6
465.865	1	-6
467.058	1	8
468.251	1	11
469.444	1	4
470.637	1	7
471.830	1	7
473.023	1	13
474.215	1	8
475.408	1	11
476.601	1	3
477.793	1	8
478.986	1	7
480.179	1	6
481.371	1	11
482.564	1	6
483.756	1	9
484.948	1	5
486.141	1	9
487.333	1	4
488.525	1	17
489.718	1	8
490.910	1	7
492.102	1	15
493.294	1	14
494.486	1	29
495.678	1	-2
496.870	1	28
498.062	1	10
499.254	1	15
500.446	1	17
501.638	1	23
502.829	1	18
504.021	1	27
505.213	1	21
506.404	1	25
507.596	1	14
508.788	1	21
509.979	1	28
511.171	1	28
512.362	1	22
513.553	1	34
514.745	1	16
515.936	1	35
517.127	1	30
518.319	1	27
519.510	1	28
520.701	1	36
521.892	1	48
523.083	1	28
524.274	1	29
525.465	1	29
526.656	1	42
527.847	1	35
529.038	1	27
530.229	1	36
531.419	1	36
532.610	1	34
533.801	1	45
534.991	1	44
536.182	1	44
537.373	1	28
538.563	1	38
539.754	1	32
540.944	1	37
542.134	1	28
543.325	1	29
544.515	1	35
545.705	1	25
546.896	1	37
548.086	1	14
549.276	1	26
550.466	1	38
551.656	1	29
552.846	1	22
554.036	1	26
555.226	1	35
556.416	1	28
557.606	1	15
558.796	1	25
559.986	1	25
561.175	1	23
562.365	1	18
563.555	1	27
564.744	1	16
565.934	1	14
567.123	1	17
568.313	1	16
569.502	1	16
570.692	1	29
571.881	1	12
573.070	1	8
574.260	1	20
575.449	1	12
576.638	1	4
577.827	1	6
579.016	1	9
580.205	1	4
581.394	1	15
582.583	1	13
583.772	1	12
584.961	1	6
586.150	1	13
587.339	1	16
588.528	1	17
589.717	1	10
590.905	1	15
592.094	1	12
593.283	1	4
594.471	1	13
595.660	1	11
596.848	1	15
598.037	1	17
599.225	1	16
600.413	1	15
601.602	1	5
602.790	1	6
603.978	1	8
605.166	1	0
606.355	1	11
607.543	1	6
608.731	1	6
609.919	1	18
611.107	1	10
612.295	1	12
613.483	1	5
614.671	1	7
615.858	1	7
617.046	1	20
618.234	1	0
619.422	1	0
620.609	1	3
621.797	1	9
622.985	1	9
624.172	1	10
625.360	1	13
626.547	1	6
627.735	1	8
628.922	1	5
630.109	1	13
631.297	1	3
632.484	1	1
633.671	1	-3
634.858	1	7
636.045	1	23
637.232	1	2
638.419	1	2
639.606	1	13
640.793	1	-6
641.980	1	2
643.167	1	8
644.354	1	-2
645.541	1	2
646.728	1	12
647.914	1	-1
649.101	1	2
650.288	1	9
651.474	1	-4
652.661	1	7
653.847	1	10
655.034	1	4
656.220	1	3
657.406	1	5
658.593	1	2
659.779	1	3
660.965	1	2
662.152	1	2
663.338	1	8
664.524	1	-2
665.710	1	4
666.896	1	3
668.082	1	1
669.268	1	-4
670.454	1	1
671.640	1	-3
672.826	1	2
674.011	1	-3
675.197	1	1
676.383	1	11
677.569	1	4
678.754	1	8
679.940	1	8
681.125	1	8
682.311	1	-3
683.496	1	7
684.682	1	0
685.867	1	7
687.053	1	11
688.238	1	15
688.746	1	-2