File: Data/GaN_130K_350ms/GaN_sample F_spot6_UVVIS_130 K_200um_350 ms 2x2mm1_166.txt
340.368	1	4
341.565	1	-3
342.763	1	3
343.960	1	1
345.157	1	-11
346.354	1	3
347.552	1	3
348.749	1	1
349.946	1	3
351.143	1	-3
352.340	1	13
353.537	1	4
354.734	1	-1
355.931	1	7
357.127	1	9
358.324	1	10
359.521	1	4
360.718	1	7
361.914	1	0
363.111	1	27
364.308	1	20
365.504	1	19
366.701	1	28
367.897	1	26
369.093	1	30
370.290	1	36
371.486	1	24
372.682	1	18
373.879	1	16
375.075	1	23
376.271	1	14
377.467	1	24
378.663	1	14
379.859	1	10
381.055	1	9
382.251	1	17
383.447	1	9
384.643	1	18
385.839	1	8
387.035	1	13
388.230	1	-4
389.426	1	18
390.622	1	7
391.817	1	6
393.013	1	14
394.208	1	-4
395.404	1	0
396.599	1	16
397.795	1	5
398.990	1	-6
400.186	1	5
401.381	1	13
402.576	1	2
403.771	1	14
404.967	1	3
406.162	1	5
407.357	1	9
408.552	1	11
409.747	1	7
410.942	1	7
412.137	1	3
413.332	1	1
414.526	1	5
415.721	1	8
416.916	1	9
418.111	1	7
419.305	1	5
420.500	1	11
421.695	1	7
422.889	1	4
424.084	1	8
425.278	1	-5
426.472	1	3
427.667	1	10
428.861	1	2
430.055	1	1
431.250	1	15
432.444	1	8
433.638	1	9
434.832	1	9
436.026	1	12
437.220	1	0
438.414	1	-6
439.608	1	12
440.802	1	0
441.996	1	18
443.190	1	4
444.384	1	-7
445.578	1	-1
446.771	1	9
447.965	1	7
449.159	1	14
450.352	1	8
451.546	1	14
452.739	1	8
453.933	1	8
455.126	1	-11
456.320	1	1
457.513	1	3
458.706	1	4
459.899	1	-2
461.093	1	15
462.286	1	7
463.479	1	7
464.672	1	3
465.865	1	-11
467.058	1	5
468.251	1	9
469.444	1	6
470.637	1	11
471.830	1	9
473.023	1	16
474.215	1	8
475.408	1	8
476.601	1	8
477.793	1	-2
478.986	1	0
480.179	1	-3
481.371	1	7
482.564	1	2
483.756	1	5
484.948	1	4
486.141	1	8
487.333	1	-5
488.525	1	9
489.718	1	14
490.910	1	-3
492.102	1	12
493.294	1	6
494.486	1	10
495.678	1	4
496.870	1	6
498.062	1	7
499.254	1	14
500.446	1	7
501.638	1	5
502.829	1	7
504.021	1	10
505.213	1	10
506.404	1	1
507.596	1	-2
508.788	1	4
509.979	1	3
511.171	1	17
512.362	1	2
513.553	1	13
514.745	1	-2
515.936	1	19
517.127	1	3
518.319	1	2
519.510	1	2
520.701	1	6
521.892	1	19
523.083	1	5
524.274	1	-10
525.465	1	9
526.656	1	9
527.847	1	17
529.038	1	-5
530.229	1	8
531.419	1	11
532.610	1	11
533.801	1	17
534.991	1	9
536.182	1	19
537.373	1	17
538.563	1	21
539.754	1	6
540.944	1	13
542.134	1	2
543.325	1	7
544.515	1	14
545.705	1	8
546.896	1	11
548.086	1	2
549.276	1	5
550.466	1	10
551.656	1	15
552.846	1	8
554.036	1	9
555.226	1	10
556.416	1	4
557.606	1	6
558.796	1	8
559.986	1	12
561.175	1	14
562.365	1	14
563.555	1	19
564.744	1	18
565.934	1	2
567.123	1	5
568.313	1	3
569.502	1	0
570.692	1	13
571.881	1	9
573.070	1	8
574.260	1	1
575.449	1	8
576.638	1	2
577.827	1	0
579.016	1	4
580.205	1	-7
581.394	1	5
582.583	1	14
583.772	1	6
584.961	1	-1
586.150	1	0
587.339	1	1
588.528	1	17
589.717	1	4
590.905	1	10
592.094	1	8
593.283	1	7
594.471	1	1
595.660	1	9
596.848	1	3
598.037	1	8
599.225	1	11
600.413	1	3
601.602	1	-1
602.790	1	0
603.978	1	7
605.166	1	11
606.355	1	-1
607.543	1	3
608.731	1	11
609.919	1	8
611.107	1	12
612.295	1	8
613.483	1	-7
614.671	1	8
615.858	1	6
617.046	1	8
618.234	1	4
619.422	1	-1
620.609	1	2
621.797	1	-5
622.985	1	9
624.172	1	3
625.360	1	10
626.547	1	10
627.735	1	8
628.922	1	-5
630.109	1	6
631.297	1	-2
632.484	1	-10
633.671	1	-1
634.858	1	6
636.045	1	11
637.232	1	-5
638.419	1	12
639.606	1	3
640.793	1	-6
641.980	1	0
643.167	1	9
644.354	1	-6
645.541	1	8
646.728	1	14
647.914	1	0
649.101	1	2
650.288	1	7
651.474	1	2
652.661	1	-2
653.847	1	8
655.034	1	-4
656.220	1	0
657.406	1	0
658.593	1	-3
659.779	1	1
660.965	1	-1
662.152	1	-3
663.338	1	-1
664.524	1	-1
665.710	1	2
666.896	1	6
668.082	1	6
669.268	1	-1
670.454	1	-1
671.640	1	-3
672.826	1	8
674.011	1	4
675.197	1	-1
676.383	1	5
677.569	1	1
678.754	1	-2
679.940	1	-2
681.125	1	6
682.311	1	-15
683.496	1	-1
684.682	1	11
685.867	1	4
687.053	1	7
688.238	1	8
688.746	1	7