File: Data/GaN_130K_350ms/GaN_sample F_spot6_UVVIS_130 K_200um_350 ms 2x2mm1_274.txt
340.368	1	12
341.565	1	-9
342.763	1	-5
343.960	1	-11
345.157	1	-11
346.354	1	-3
347.552	1	-2
348.749	1	11
349.946	1	3
351.143	1	-2
352.340	1	17
353.537	1	1
354.734	1	-5
355.931	1	1
357.127	1	7
358.324	1	10
359.521	1	0
360.718	1	11
361.914	1	5
363.111	1	13
364.308	1	14
365.504	1	8
366.701	1	20
367.897	1	4
369.093	1	13
370.290	1	15
371.486	1	-1
372.682	1	-2
373.879	1	7
375.075	1	13
376.271	1	11
377.467	1	10
378.663	1	4
379.859	1	8
381.055	1	-1
382.251	1	6
383.447	1	10
384.643	1	-1
385.839	1	7
387.035	1	12
388.230	1	-2
389.426	1	6
390.622	1	3
391.817	1	7
393.013	1	2
394.208	1	-11
395.404	1	-5
396.599	1	11
397.795	1	-7
398.990	1	-2
400.186	1	0
401.381	1	10
402.576	1	2
403.771	1	-3
404.967	1	-5
406.162	1	1
407.357	1	7
408.552	1	-1
409.747	1	0
410.942	1	12
412.137	1	-12
413.332	1	-1
414.526	1	-2
415.721	1	-3
416.916	1	6
418.111	1	17
419.305	1	-1
420.500	1	12
421.695	1	4
422.889	1	-1
424.084	1	6
425.278	1	-3
426.472	1	4
427.667	1	9
428.861	1	-1
430.055	1	-1
431.250	1	3
432.444	1	7
433.638	1	11
434.832	1	4
436.026	1	5
437.220	1	0
438.414	1	1
439.608	1	16
440.802	1	-4
441.996	1	10
443.190	1	3
444.384	1	2
445.578	1	2
446.771	1	3
447.965	1	6
449.159	1	4
450.352	1	8
451.546	1	12
452.739	1	13
453.933	1	6
455.126	1	-5
456.320	1	0
457.513	1	0
458.706	1	3
459.899	1	4
461.093	1	8
462.286	1	6
463.479	1	3
464.672	1	9
465.865	1	-2
467.058	1	6
468.251	1	2
469.444	1	4
470.637	1	9
471.830	1	6
473.023	1	4
474.215	1	7
475.408	1	7
476.601	1	2
477.793	1	2
478.986	1	1
480.179	1	5
481.371	1	6
482.564	1	-4
483.756	1	2
484.948	1	2
486.141	1	-2
487.333	1	-6
488.525	1	11
489.718	1	-1
490.910	1	-4
492.102	1	6
493.294	1	8
494.486	1	3
495.678	1	1
496.870	1	-2
498.062	1	-2
499.254	1	10
500.446	1	7
501.638	1	13
502.829	1	5
504.021	1	1
505.213	1	5
506.404	1	2
507.596	1	0
508.788	1	4
509.979	1	0
511.171	1	12
512.362	1	2
513.553	1	11
514.745	1	7
515.936	1	3
517.127	1	2
518.319	1	-5
519.510	1	2
520.701	1	1
521.892	1	1
523.083	1	2
524.274	1	-5
525.465	1	11
526.656	1	4
527.847	1	3
529.038	1	-2
530.229	1	6
531.419	1	3
532.610	1	-2
533.801	1	10
534.991	1	3
536.182	1	4
537.373	1	10
538.563	1	4
539.754	1	-2
540.944	1	9
542.134	1	1
543.325	1	2
544.515	1	8
545.705	1	10
546.896	1	-2
548.086	1	-14
549.276	1	-5
550.466	1	9
551.656	1	7
552.846	1	-5
554.036	1	-2
555.226	1	10
556.416	1	5
557.606	1	3
558.796	1	9
559.986	1	-1
561.175	1	7
562.365	1	2
563.555	1	16
564.744	1	2
565.934	1	4
567.123	1	-2
568.313	1	-5
569.502	1	1
570.692	1	4
571.881	1	-4
573.070	1	-2
574.260	1	12
575.449	1	11
576.638	1	-10
577.827	1	-7
579.016	1	7
580.205	1	0
581.394	1	-4
582.583	1	4
583.772	1	-6
584.961	1	-6
586.150	1	7
587.339	1	-1
588.528	1	9
589.717	1	-1
590.905	1	8
592.094	1	6
593.283	1	-1
594.471	1	9
595.660	1	4
596.848	1	3
598.037	1	11
599.225	1	11
600.413	1	3
601.602	1	-7
602.790	1	0
603.978	1	7
605.166	1	12
606.355	1	15
607.543	1	-3
608.731	1	0
609.919	1	13
611.107	1	3
612.295	1	4
613.483	1	-2
614.671	1	2
615.858	1	-5
617.046	1	13
618.234	1	3
619.422	1	3
620.609	1	-7
621.797	1	2
622.985	1	6
624.172	1	-9
625.360	1	10
626.547	1	0
627.735	1	11
628.922	1	-9
630.109	1	3
631.297	1	-2
632.484	1	-8
633.671	1	-6
634.858	1	3
636.045	1	16
637.232	1	-4
638.419	1	2
639.606	1	3
640.793	1	-12
641.980	1	0
643.167	1	-1
644.354	1	-4
645.541	1	-2
646.728	1	4
647.914	1	0
649.101	1	-6
650.288	1	13
651.474	1	0
652.661	1	-3
653.847	1	2
655.034	1	-5
656.220	1	4
657.406	1	11
658.593	1	0
659.779	1	-1
660.965	1	-3
662.152	1	-8
663.338	1	2
664.524	1	5
665.710	1	7
666.896	1	1
668.082	1	3
669.268	1	-5
670.454	1	-2
671.640	1	-2
672.826	1	3
674.011	1	-2
675.197	1	0
676.383	1	5
677.569	1	6
678.754	1	-3
679.940	1	0
681.125	1	19
682.311	1	-12
683.496	1	-2
684.682	1	1
685.867	1	9
687.053	1	0
688.238	1	5
688.746	1	0