File: Data/GaN_130K_350ms/GaN_sample F_spot6_UVVIS_130 K_200um_350 ms 2x2mm1_101.txt
340.368	1	15
341.565	1	3
342.763	1	-7
343.960	1	-2
345.157	1	-14
346.354	1	9
347.552	1	-5
348.749	1	3
349.946	1	11
351.143	1	11
352.340	1	16
353.537	1	-3
354.734	1	7
355.931	1	14
357.127	1	12
358.324	1	19
359.521	1	28
360.718	1	30
361.914	1	38
363.111	1	59
364.308	1	78
365.504	1	85
366.701	1	101
367.897	1	119
369.093	1	116
370.290	1	101
371.486	1	91
372.682	1	73
373.879	1	70
375.075	1	68
376.271	1	45
377.467	1	38
378.663	1	42
379.859	1	32
381.055	1	38
382.251	1	26
383.447	1	27
384.643	1	41
385.839	1	33
387.035	1	31
388.230	1	20
389.426	1	35
390.622	1	12
391.817	1	30
393.013	1	18
394.208	1	4
395.404	1	12
396.599	1	17
397.795	1	12
398.990	1	12
400.186	1	17
401.381	1	18
402.576	1	7
403.771	1	14
404.967	1	9
406.162	1	0
407.357	1	5
408.552	1	4
409.747	1	11
410.942	1	15
412.137	1	1
413.332	1	2
414.526	1	0
415.721	1	12
416.916	1	8
418.111	1	15
419.305	1	13
420.500	1	7
421.695	1	16
422.889	1	2
424.084	1	14
425.278	1	6
426.472	1	6
427.667	1	15
428.861	1	16
430.055	1	-1
431.250	1	12
432.444	1	4
433.638	1	13
434.832	1	13
436.026	1	2
437.220	1	5
438.414	1	-1
439.608	1	15
440.802	1	-3
441.996	1	18
443.190	1	13
444.384	1	1
445.578	1	-5
446.771	1	9
447.965	1	3
449.159	1	12
450.352	1	9
451.546	1	16
452.739	1	12
453.933	1	7
455.126	1	2
456.320	1	-5
457.513	1	-4
458.706	1	11
459.899	1	0
461.093	1	9
462.286	1	13
463.479	1	13
464.672	1	11
465.865	1	0
467.058	1	10
468.251	1	8
469.444	1	11
470.637	1	5
471.830	1	13
473.023	1	13
474.215	1	13
475.408	1	15
476.601	1	11
477.793	1	6
478.986	1	7
480.179	1	-2
481.371	1	15
482.564	1	12
483.756	1	14
484.948	1	10
486.141	1	4
487.333	1	-1
488.525	1	20
489.718	1	23
490.910	1	10
492.102	1	23
493.294	1	16
494.486	1	23
495.678	1	12
496.870	1	13
498.062	1	19
499.254	1	22
500.446	1	21
501.638	1	16
502.829	1	29
504.021	1	20
505.213	1	23
506.404	1	28
507.596	1	31
508.788	1	30
509.979	1	30
511.171	1	44
512.362	1	34
513.553	1	39
514.745	1	27
515.936	1	45
517.127	1	42
518.319	1	34
519.510	1	38
520.701	1	41
521.892	1	48
523.083	1	49
524.274	1	35
525.465	1	38
526.656	1	45
527.847	1	35
529.038	1	35
530.229	1	57
531.419	1	50
532.610	1	36
533.801	1	54
534.991	1	44
536.182	1	39
537.373	1	45
538.563	1	51
539.754	1	41
540.944	1	42
542.134	1	33
543.325	1	38
544.515	1	34
545.705	1	41
546.896	1	46
548.086	1	31
549.276	1	30
550.466	1	43
551.656	1	37
552.846	1	30
554.036	1	43
555.226	1	43
556.416	1	45
557.606	1	34
558.796	1	43
559.986	1	29
561.175	1	28
562.365	1	37
563.555	1	25
564.744	1	29
565.934	1	25
567.123	1	22
568.313	1	18
569.502	1	32
570.692	1	30
571.881	1	21
573.070	1	9
574.260	1	28
575.449	1	26
576.638	1	19
577.827	1	11
579.016	1	11
580.205	1	18
581.394	1	15
582.583	1	18
583.772	1	19
584.961	1	16
586.150	1	22
587.339	1	12
588.528	1	19
589.717	1	7
590.905	1	15
592.094	1	10
593.283	1	2
594.471	1	6
595.660	1	14
596.848	1	4
598.037	1	10
599.225	1	10
600.413	1	9
601.602	1	5
602.790	1	1
603.978	1	13
605.166	1	17
606.355	1	12
607.543	1	2
608.731	1	12
609.919	1	16
611.107	1	9
612.295	1	15
613.483	1	5
614.671	1	7
615.858	1	0
617.046	1	8
618.234	1	4
619.422	1	12
620.609	1	4
621.797	1	1
622.985	1	3
624.172	1	-2
625.360	1	7
626.547	1	3
627.735	1	12
628.922	1	3
630.109	1	11
631.297	1	0
632.484	1	-3
633.671	1	-6
634.858	1	3
636.045	1	23
637.232	1	1
638.419	1	11
639.606	1	6
640.793	1	-7
641.980	1	2
643.167	1	6
644.354	1	-1
645.541	1	-1
646.728	1	7
647.914	1	1
649.101	1	5
650.288	1	3
651.474	1	2
652.661	1	4
653.847	1	8
655.034	1	8
656.220	1	-6
657.406	1	3
658.593	1	3
659.779	1	-3
660.965	1	-2
662.152	1	1
663.338	1	5
664.524	1	2
665.710	1	14
666.896	1	13
668.082	1	4
669.268	1	9
670.454	1	8
671.640	1	0
672.826	1	9
674.011	1	1
675.197	1	5
676.383	1	10
677.569	1	13
678.754	1	12
679.940	1	11
681.125	1	9
682.311	1	-12
683.496	1	5
684.682	1	1
685.867	1	-6
687.053	1	10
688.238	1	9
688.746	1	3