File: Data/GaN_130K_350ms/GaN_sample F_spot6_UVVIS_130 K_200um_350 ms 2x2mm1_201.txt
340.368	1	11
341.565	1	2
342.763	1	10
343.960	1	-11
345.157	1	-9
346.354	1	3
347.552	1	-4
348.749	1	17
349.946	1	7
351.143	1	12
352.340	1	12
353.537	1	3
354.734	1	-4
355.931	1	4
357.127	1	2
358.324	1	6
359.521	1	-4
360.718	1	10
361.914	1	9
363.111	1	22
364.308	1	19
365.504	1	15
366.701	1	9
367.897	1	14
369.093	1	23
370.290	1	30
371.486	1	7
372.682	1	11
373.879	1	12
375.075	1	18
376.271	1	18
377.467	1	6
378.663	1	17
379.859	1	9
381.055	1	0
382.251	1	1
383.447	1	2
384.643	1	12
385.839	1	11
387.035	1	12
388.230	1	3
389.426	1	10
390.622	1	11
391.817	1	8
393.013	1	12
394.208	1	0
395.404	1	-5
396.599	1	7
397.795	1	0
398.990	1	-9
400.186	1	-1
401.381	1	11
402.576	1	7
403.771	1	14
404.967	1	14
406.162	1	2
407.357	1	7
408.552	1	0
409.747	1	8
410.942	1	7
412.137	1	2
413.332	1	3
414.526	1	8
415.721	1	0
416.916	1	7
418.111	1	7
419.305	1	7
420.500	1	5
421.695	1	8
422.889	1	-1
424.084	1	8
425.278	1	3
426.472	1	9
427.667	1	1
428.861	1	3
430.055	1	-3
431.250	1	7
432.444	1	10
433.638	1	11
434.832	1	3
436.026	1	6
437.220	1	1
438.414	1	2
439.608	1	16
440.802	1	-5
441.996	1	14
443.190	1	4
444.384	1	8
445.578	1	3
446.771	1	2
447.965	1	7
449.159	1	10
450.352	1	-2
451.546	1	21
452.739	1	8
453.933	1	0
455.126	1	-4
456.320	1	1
457.513	1	-8
458.706	1	12
459.899	1	4
461.093	1	3
462.286	1	14
463.479	1	14
464.672	1	3
465.865	1	-3
467.058	1	12
468.251	1	10
469.444	1	3
470.637	1	6
471.830	1	7
473.023	1	6
474.215	1	7
475.408	1	4
476.601	1	2
477.793	1	-6
478.986	1	1
480.179	1	2
481.371	1	9
482.564	1	-2
483.756	1	6
484.948	1	6
486.141	1	2
487.333	1	0
488.525	1	6
489.718	1	3
490.910	1	-7
492.102	1	3
493.294	1	15
494.486	1	10
495.678	1	-1
496.870	1	0
498.062	1	-5
499.254	1	5
500.446	1	-1
501.638	1	8
502.829	1	-7
504.021	1	5
505.213	1	1
506.404	1	-2
507.596	1	12
508.788	1	-1
509.979	1	10
511.171	1	22
512.362	1	-3
513.553	1	4
514.745	1	0
515.936	1	12
517.127	1	5
518.319	1	4
519.510	1	8
520.701	1	-3
521.892	1	15
523.083	1	0
524.274	1	0
525.465	1	11
526.656	1	11
527.847	1	3
529.038	1	0
530.229	1	11
531.419	1	10
532.610	1	2
533.801	1	18
534.991	1	-1
536.182	1	6
537.373	1	11
538.563	1	3
539.754	1	-5
540.944	1	13
542.134	1	11
543.325	1	10
544.515	1	15
545.705	1	2
546.896	1	3
548.086	1	0
549.276	1	2
550.466	1	14
551.656	1	1
552.846	1	10
554.036	1	6
555.226	1	4
556.416	1	3
557.606	1	-2
558.796	1	10
559.986	1	7
561.175	1	7
562.365	1	15
563.555	1	9
564.744	1	8
565.934	1	6
567.123	1	4
568.313	1	-4
569.502	1	-6
570.692	1	14
571.881	1	9
573.070	1	4
574.260	1	12
575.449	1	3
576.638	1	6
577.827	1	-4
579.016	1	-4
580.205	1	5
581.394	1	7
582.583	1	20
583.772	1	9
584.961	1	-4
586.150	1	3
587.339	1	4
588.528	1	8
589.717	1	-5
590.905	1	4
592.094	1	6
593.283	1	-1
594.471	1	3
595.660	1	-1
596.848	1	5
598.037	1	4
599.225	1	0
600.413	1	5
601.602	1	-1
602.790	1	-1
603.978	1	3
605.166	1	11
606.355	1	5
607.543	1	3
608.731	1	1
609.919	1	11
611.107	1	2
612.295	1	7
613.483	1	4
614.671	1	8
615.858	1	-2
617.046	1	7
618.234	1	3
619.422	1	5
620.609	1	-2
621.797	1	3
622.985	1	2
624.172	1	-6
625.360	1	6
626.547	1	0
627.735	1	17
628.922	1	0
630.109	1	6
631.297	1	1
632.484	1	-5
633.671	1	0
634.858	1	6
636.045	1	15
637.232	1	3
638.419	1	6
639.606	1	1
640.793	1	-5
641.980	1	9
643.167	1	15
644.354	1	5
645.541	1	5
646.728	1	4
647.914	1	-6
649.101	1	-2
650.288	1	7
651.474	1	5
652.661	1	4
653.847	1	4
655.034	1	-1
656.220	1	-3
657.406	1	-1
658.593	1	5
659.779	1	-3
660.965	1	12
662.152	1	8
663.338	1	6
664.524	1	1
665.710	1	2
666.896	1	4
668.082	1	3
669.268	1	-4
670.454	1	2
671.640	1	-14
672.826	1	2
674.011	1	6
675.197	1	-2
676.383	1	3
677.569	1	4
678.754	1	9
679.940	1	-4
681.125	1	1
682.311	1	-9
683.496	1	-15
684.682	1	-10
685.867	1	-2
687.053	1	-4
688.238	1	10
688.746	1	8