File: Data/GaN_130K_350ms/GaN_sample F_spot6_UVVIS_130 K_200um_350 ms 2x2mm1_229.txt
340.368	1	8
341.565	1	5
342.763	1	5
343.960	1	-9
345.157	1	-11
346.354	1	3
347.552	1	-1
348.749	1	7
349.946	1	6
351.143	1	1
352.340	1	10
353.537	1	-6
354.734	1	-2
355.931	1	9
357.127	1	4
358.324	1	-5
359.521	1	-1
360.718	1	4
361.914	1	0
363.111	1	10
364.308	1	16
365.504	1	12
366.701	1	14
367.897	1	5
369.093	1	6
370.290	1	21
371.486	1	14
372.682	1	14
373.879	1	13
375.075	1	7
376.271	1	15
377.467	1	13
378.663	1	9
379.859	1	6
381.055	1	13
382.251	1	5
383.447	1	4
384.643	1	8
385.839	1	-1
387.035	1	5
388.230	1	6
389.426	1	9
390.622	1	3
391.817	1	4
393.013	1	11
394.208	1	-2
395.404	1	-4
396.599	1	19
397.795	1	-1
398.990	1	-1
400.186	1	3
401.381	1	12
402.576	1	0
403.771	1	8
404.967	1	-5
406.162	1	-2
407.357	1	4
408.552	1	-4
409.747	1	-5
410.942	1	10
412.137	1	-8
413.332	1	3
414.526	1	10
415.721	1	4
416.916	1	0
418.111	1	9
419.305	1	2
420.500	1	-1
421.695	1	-2
422.889	1	3
424.084	1	10
425.278	1	4
426.472	1	4
427.667	1	8
428.861	1	-1
430.055	1	4
431.250	1	5
432.444	1	8
433.638	1	8
434.832	1	4
436.026	1	8
437.220	1	-6
438.414	1	-7
439.608	1	21
440.802	1	-5
441.996	1	15
443.190	1	2
444.384	1	1
445.578	1	-10
446.771	1	-3
447.965	1	2
449.159	1	2
450.352	1	7
451.546	1	20
452.739	1	7
453.933	1	11
455.126	1	-13
456.320	1	5
457.513	1	-2
458.706	1	5
459.899	1	6
461.093	1	6
462.286	1	5
463.479	1	19
464.672	1	8
465.865	1	-7
467.058	1	6
468.251	1	9
469.444	1	1
470.637	1	-2
471.830	1	6
473.023	1	14
474.215	1	3
475.408	1	9
476.601	1	1
477.793	1	-1
478.986	1	2
480.179	1	2
481.371	1	13
482.564	1	4
483.756	1	0
484.948	1	1
486.141	1	3
487.333	1	-5
488.525	1	2
489.718	1	5
490.910	1	-3
492.102	1	7
493.294	1	4
494.486	1	12
495.678	1	3
496.870	1	3
498.062	1	-7
499.254	1	11
500.446	1	5
501.638	1	8
502.829	1	-1
504.021	1	4
505.213	1	1
506.404	1	-5
507.596	1	2
508.788	1	7
509.979	1	1
511.171	1	15
512.362	1	-6
513.553	1	10
514.745	1	1
515.936	1	7
517.127	1	10
518.319	1	4
519.510	1	-2
520.701	1	15
521.892	1	12
523.083	1	4
524.274	1	-3
525.465	1	12
526.656	1	13
527.847	1	4
529.038	1	1
530.229	1	9
531.419	1	6
532.610	1	0
533.801	1	6
534.991	1	8
536.182	1	13
537.373	1	12
538.563	1	16
539.754	1	3
540.944	1	8
542.134	1	3
543.325	1	-1
544.515	1	11
545.705	1	8
546.896	1	7
548.086	1	2
549.276	1	-2
550.466	1	13
551.656	1	8
552.846	1	5
554.036	1	5
555.226	1	-1
556.416	1	9
557.606	1	4
558.796	1	18
559.986	1	4
561.175	1	10
562.365	1	4
563.555	1	12
564.744	1	10
565.934	1	1
567.123	1	6
568.313	1	1
569.502	1	-1
570.692	1	17
571.881	1	-2
573.070	1	2
574.260	1	9
575.449	1	-2
576.638	1	-1
577.827	1	-1
579.016	1	1
580.205	1	-6
581.394	1	-4
582.583	1	13
583.772	1	3
584.961	1	-1
586.150	1	-1
587.339	1	2
588.528	1	9
589.717	1	4
590.905	1	11
592.094	1	4
593.283	1	-3
594.471	1	5
595.660	1	4
596.848	1	11
598.037	1	11
599.225	1	7
600.413	1	11
601.602	1	-3
602.790	1	1
603.978	1	8
605.166	1	9
606.355	1	11
607.543	1	5
608.731	1	6
609.919	1	1
611.107	1	9
612.295	1	10
613.483	1	-1
614.671	1	10
615.858	1	-8
617.046	1	13
618.234	1	-3
619.422	1	-3
620.609	1	-3
621.797	1	-5
622.985	1	3
624.172	1	-2
625.360	1	7
626.547	1	9
627.735	1	10
628.922	1	-5
630.109	1	8
631.297	1	2
632.484	1	-3
633.671	1	-5
634.858	1	-5
636.045	1	9
637.232	1	-5
638.419	1	6
639.606	1	5
640.793	1	-6
641.980	1	4
643.167	1	5
644.354	1	-1
645.541	1	-1
646.728	1	15
647.914	1	-1
649.101	1	4
650.288	1	5
651.474	1	4
652.661	1	-1
653.847	1	0
655.034	1	1
656.220	1	2
657.406	1	1
658.593	1	1
659.779	1	-4
660.965	1	-2
662.152	1	-1
663.338	1	9
664.524	1	-8
665.710	1	4
666.896	1	11
668.082	1	12
669.268	1	10
670.454	1	0
671.640	1	-15
672.826	1	3
674.011	1	13
675.197	1	1
676.383	1	6
677.569	1	6
678.754	1	16
679.940	1	-10
681.125	1	7
682.311	1	0
683.496	1	-7
684.682	1	-8
685.867	1	-4
687.053	1	7
688.238	1	8
688.746	1	10