File: Data/GaN_130K_350ms/GaN_sample F_spot6_UVVIS_130 K_200um_350 ms 2x2mm1_240.txt
340.368	1	8
341.565	1	8
342.763	1	6
343.960	1	-1
345.157	1	-9
346.354	1	5
347.552	1	3
348.749	1	-1
349.946	1	10
351.143	1	0
352.340	1	20
353.537	1	1
354.734	1	-2
355.931	1	6
357.127	1	4
358.324	1	2
359.521	1	6
360.718	1	8
361.914	1	11
363.111	1	16
364.308	1	13
365.504	1	5
366.701	1	10
367.897	1	13
369.093	1	16
370.290	1	13
371.486	1	15
372.682	1	13
373.879	1	11
375.075	1	9
376.271	1	9
377.467	1	11
378.663	1	7
379.859	1	-1
381.055	1	2
382.251	1	9
383.447	1	2
384.643	1	3
385.839	1	3
387.035	1	24
388.230	1	0
389.426	1	15
390.622	1	8
391.817	1	9
393.013	1	8
394.208	1	2
395.404	1	-8
396.599	1	8
397.795	1	-5
398.990	1	4
400.186	1	0
401.381	1	3
402.576	1	3
403.771	1	11
404.967	1	3
406.162	1	2
407.357	1	-4
408.552	1	-6
409.747	1	5
410.942	1	4
412.137	1	-10
413.332	1	2
414.526	1	1
415.721	1	2
416.916	1	3
418.111	1	14
419.305	1	5
420.500	1	5
421.695	1	2
422.889	1	7
424.084	1	12
425.278	1	-1
426.472	1	6
427.667	1	11
428.861	1	8
430.055	1	3
431.250	1	7
432.444	1	8
433.638	1	8
434.832	1	2
436.026	1	8
437.220	1	-1
438.414	1	-1
439.608	1	11
440.802	1	1
441.996	1	3
443.190	1	5
444.384	1	5
445.578	1	3
446.771	1	10
447.965	1	-4
449.159	1	4
450.352	1	5
451.546	1	7
452.739	1	7
453.933	1	-2
455.126	1	-1
456.320	1	3
457.513	1	-2
458.706	1	4
459.899	1	0
461.093	1	9
462.286	1	6
463.479	1	5
464.672	1	-1
465.865	1	-9
467.058	1	6
468.251	1	-1
469.444	1	3
470.637	1	2
471.830	1	1
473.023	1	15
474.215	1	-1
475.408	1	6
476.601	1	4
477.793	1	-2
478.986	1	6
480.179	1	-12
481.371	1	6
482.564	1	-2
483.756	1	-8
484.948	1	-3
486.141	1	3
487.333	1	-2
488.525	1	2
489.718	1	5
490.910	1	-1
492.102	1	10
493.294	1	2
494.486	1	9
495.678	1	-3
496.870	1	6
498.062	1	-4
499.254	1	6
500.446	1	13
501.638	1	5
502.829	1	4
504.021	1	-1
505.213	1	14
506.404	1	-1
507.596	1	9
508.788	1	1
509.979	1	0
511.171	1	15
512.362	1	3
513.553	1	6
514.745	1	8
515.936	1	19
517.127	1	8
518.319	1	-3
519.510	1	-3
520.701	1	6
521.892	1	6
523.083	1	10
524.274	1	0
525.465	1	2
526.656	1	10
527.847	1	8
529.038	1	-2
530.229	1	6
531.419	1	3
532.610	1	0
533.801	1	17
534.991	1	3
536.182	1	6
537.373	1	13
538.563	1	7
539.754	1	0
540.944	1	5
542.134	1	1
543.325	1	3
544.515	1	0
545.705	1	8
546.896	1	3
548.086	1	-5
549.276	1	-5
550.466	1	11
551.656	1	2
552.846	1	-5
554.036	1	3
555.226	1	5
556.416	1	9
557.606	1	-1
558.796	1	8
559.986	1	8
561.175	1	12
562.365	1	15
563.555	1	9
564.744	1	4
565.934	1	-5
567.123	1	5
568.313	1	-2
569.502	1	-5
570.692	1	11
571.881	1	-1
573.070	1	4
574.260	1	3
575.449	1	13
576.638	1	0
577.827	1	-8
579.016	1	9
580.205	1	-7
581.394	1	-2
582.583	1	12
583.772	1	5
584.961	1	-6
586.150	1	11
587.339	1	9
588.528	1	4
589.717	1	-1
590.905	1	11
592.094	1	-1
593.283	1	-5
594.471	1	4
595.660	1	3
596.848	1	6
598.037	1	-1
599.225	1	8
600.413	1	9
601.602	1	2
602.790	1	7
603.978	1	0
605.166	1	5
606.355	1	6
607.543	1	5
608.731	1	5
609.919	1	8
611.107	1	1
612.295	1	15
613.483	1	-10
614.671	1	2
615.858	1	-5
617.046	1	7
618.234	1	3
619.422	1	2
620.609	1	-7
621.797	1	7
622.985	1	9
624.172	1	8
625.360	1	9
626.547	1	-4
627.735	1	12
628.922	1	-1
630.109	1	0
631.297	1	8
632.484	1	-3
633.671	1	-8
634.858	1	10
636.045	1	17
637.232	1	-13
638.419	1	7
639.606	1	6
640.793	1	-7
641.980	1	-2
643.167	1	1
644.354	1	-3
645.541	1	6
646.728	1	12
647.914	1	-6
649.101	1	-5
650.288	1	17
651.474	1	3
652.661	1	-2
653.847	1	2
655.034	1	7
656.220	1	-3
657.406	1	0
658.593	1	4
659.779	1	0
660.965	1	-5
662.152	1	2
663.338	1	1
664.524	1	-3
665.710	1	-2
666.896	1	8
668.082	1	10
669.268	1	-5
670.454	1	6
671.640	1	-2
672.826	1	-2
674.011	1	2
675.197	1	-2
676.383	1	-10
677.569	1	1
678.754	1	1
679.940	1	-1
681.125	1	10
682.311	1	-11
683.496	1	-1
684.682	1	-5
685.867	1	6
687.053	1	5
688.238	1	5
688.746	1	9