File: Data/GaN_130K_350ms/GaN_sample F_spot6_UVVIS_130 K_200um_350 ms 2x2mm1_176.txt
340.368	1	2
341.565	1	6
342.763	1	2
343.960	1	-5
345.157	1	-3
346.354	1	4
347.552	1	-1
348.749	1	3
349.946	1	1
351.143	1	-1
352.340	1	8
353.537	1	-1
354.734	1	-8
355.931	1	2
357.127	1	6
358.324	1	6
359.521	1	5
360.718	1	7
361.914	1	6
363.111	1	23
364.308	1	20
365.504	1	18
366.701	1	20
367.897	1	15
369.093	1	24
370.290	1	18
371.486	1	17
372.682	1	14
373.879	1	18
375.075	1	24
376.271	1	13
377.467	1	18
378.663	1	13
379.859	1	10
381.055	1	9
382.251	1	11
383.447	1	7
384.643	1	11
385.839	1	8
387.035	1	19
388.230	1	9
389.426	1	10
390.622	1	8
391.817	1	16
393.013	1	7
394.208	1	-5
395.404	1	-1
396.599	1	18
397.795	1	0
398.990	1	1
400.186	1	-6
401.381	1	2
402.576	1	4
403.771	1	12
404.967	1	1
406.162	1	3
407.357	1	10
408.552	1	-1
409.747	1	1
410.942	1	7
412.137	1	-1
413.332	1	-8
414.526	1	13
415.721	1	10
416.916	1	-2
418.111	1	8
419.305	1	6
420.500	1	9
421.695	1	6
422.889	1	8
424.084	1	11
425.278	1	2
426.472	1	9
427.667	1	15
428.861	1	6
430.055	1	7
431.250	1	8
432.444	1	4
433.638	1	3
434.832	1	0
436.026	1	4
437.220	1	6
438.414	1	-3
439.608	1	8
440.802	1	-13
441.996	1	9
443.190	1	0
444.384	1	1
445.578	1	0
446.771	1	17
447.965	1	1
449.159	1	3
450.352	1	6
451.546	1	9
452.739	1	8
453.933	1	6
455.126	1	-4
456.320	1	1
457.513	1	-4
458.706	1	8
459.899	1	-2
461.093	1	5
462.286	1	18
463.479	1	15
464.672	1	6
465.865	1	-16
467.058	1	-1
468.251	1	7
469.444	1	1
470.637	1	5
471.830	1	5
473.023	1	3
474.215	1	0
475.408	1	14
476.601	1	-3
477.793	1	8
478.986	1	-9
480.179	1	-4
481.371	1	6
482.564	1	-5
483.756	1	0
484.948	1	2
486.141	1	7
487.333	1	-2
488.525	1	19
489.718	1	11
490.910	1	3
492.102	1	12
493.294	1	8
494.486	1	11
495.678	1	1
496.870	1	12
498.062	1	-5
499.254	1	10
500.446	1	10
501.638	1	-5
502.829	1	5
504.021	1	2
505.213	1	5
506.404	1	6
507.596	1	5
508.788	1	6
509.979	1	5
511.171	1	9
512.362	1	4
513.553	1	9
514.745	1	3
515.936	1	13
517.127	1	5
518.319	1	10
519.510	1	5
520.701	1	0
521.892	1	19
523.083	1	13
524.274	1	-4
525.465	1	19
526.656	1	10
527.847	1	4
529.038	1	4
530.229	1	18
531.419	1	12
532.610	1	5
533.801	1	20
534.991	1	5
536.182	1	6
537.373	1	9
538.563	1	16
539.754	1	6
540.944	1	8
542.134	1	-2
543.325	1	6
544.515	1	2
545.705	1	6
546.896	1	0
548.086	1	2
549.276	1	-1
550.466	1	4
551.656	1	6
552.846	1	-5
554.036	1	11
555.226	1	11
556.416	1	12
557.606	1	5
558.796	1	5
559.986	1	4
561.175	1	17
562.365	1	8
563.555	1	13
564.744	1	11
565.934	1	6
567.123	1	6
568.313	1	7
569.502	1	4
570.692	1	11
571.881	1	6
573.070	1	6
574.260	1	6
575.449	1	13
576.638	1	2
577.827	1	-1
579.016	1	2
580.205	1	0
581.394	1	12
582.583	1	18
583.772	1	-4
584.961	1	-1
586.150	1	13
587.339	1	6
588.528	1	7
589.717	1	-7
590.905	1	7
592.094	1	4
593.283	1	-2
594.471	1	1
595.660	1	-10
596.848	1	14
598.037	1	7
599.225	1	-1
600.413	1	10
601.602	1	-4
602.790	1	6
603.978	1	11
605.166	1	10
606.355	1	9
607.543	1	11
608.731	1	7
609.919	1	10
611.107	1	13
612.295	1	9
613.483	1	9
614.671	1	5
615.858	1	-2
617.046	1	4
618.234	1	6
619.422	1	3
620.609	1	-5
621.797	1	-3
622.985	1	5
624.172	1	-1
625.360	1	5
626.547	1	-1
627.735	1	7
628.922	1	-6
630.109	1	6
631.297	1	4
632.484	1	-8
633.671	1	-6
634.858	1	3
636.045	1	10
637.232	1	-2
638.419	1	5
639.606	1	11
640.793	1	-4
641.980	1	-9
643.167	1	2
644.354	1	-2
645.541	1	0
646.728	1	6
647.914	1	-2
649.101	1	5
650.288	1	2
651.474	1	8
652.661	1	2
653.847	1	5
655.034	1	2
656.220	1	-4
657.406	1	4
658.593	1	4
659.779	1	1
660.965	1	-3
662.152	1	4
663.338	1	-4
664.524	1	-4
665.710	1	0
666.896	1	5
668.082	1	2
669.268	1	-3
670.454	1	7
671.640	1	-7
672.826	1	-7
674.011	1	3
675.197	1	-5
676.383	1	5
677.569	1	4
678.754	1	3
679.940	1	6
681.125	1	6
682.311	1	-11
683.496	1	-1
684.682	1	0
685.867	1	7
687.053	1	-3
688.238	1	14
688.746	1	8