File: Data/GaN_130K_350ms/GaN_sample F_spot6_UVVIS_130 K_200um_350 ms 2x2mm1_172.txt
340.368	1	1
341.565	1	5
342.763	1	5
343.960	1	-5
345.157	1	-9
346.354	1	5
347.552	1	-1
348.749	1	5
349.946	1	9
351.143	1	0
352.340	1	7
353.537	1	5
354.734	1	-3
355.931	1	11
357.127	1	4
358.324	1	1
359.521	1	2
360.718	1	9
361.914	1	12
363.111	1	14
364.308	1	22
365.504	1	16
366.701	1	27
367.897	1	26
369.093	1	29
370.290	1	30
371.486	1	18
372.682	1	23
373.879	1	21
375.075	1	13
376.271	1	17
377.467	1	16
378.663	1	11
379.859	1	11
381.055	1	4
382.251	1	6
383.447	1	3
384.643	1	13
385.839	1	7
387.035	1	21
388.230	1	3
389.426	1	13
390.622	1	5
391.817	1	11
393.013	1	6
394.208	1	2
395.404	1	-7
396.599	1	8
397.795	1	-3
398.990	1	6
400.186	1	9
401.381	1	3
402.576	1	7
403.771	1	10
404.967	1	7
406.162	1	0
407.357	1	4
408.552	1	0
409.747	1	5
410.942	1	11
412.137	1	0
413.332	1	3
414.526	1	7
415.721	1	5
416.916	1	10
418.111	1	13
419.305	1	0
420.500	1	1
421.695	1	2
422.889	1	7
424.084	1	5
425.278	1	3
426.472	1	12
427.667	1	9
428.861	1	-2
430.055	1	4
431.250	1	8
432.444	1	10
433.638	1	3
434.832	1	-3
436.026	1	8
437.220	1	-2
438.414	1	3
439.608	1	14
440.802	1	-6
441.996	1	12
443.190	1	12
444.384	1	-1
445.578	1	-3
446.771	1	10
447.965	1	-3
449.159	1	10
450.352	1	12
451.546	1	9
452.739	1	6
453.933	1	1
455.126	1	2
456.320	1	2
457.513	1	1
458.706	1	0
459.899	1	-2
461.093	1	3
462.286	1	11
463.479	1	8
464.672	1	5
465.865	1	-11
467.058	1	6
468.251	1	4
469.444	1	0
470.637	1	0
471.830	1	-1
473.023	1	8
474.215	1	9
475.408	1	10
476.601	1	4
477.793	1	2
478.986	1	-4
480.179	1	0
481.371	1	9
482.564	1	1
483.756	1	3
484.948	1	-2
486.141	1	6
487.333	1	2
488.525	1	12
489.718	1	5
490.910	1	-7
492.102	1	12
493.294	1	14
494.486	1	10
495.678	1	-6
496.870	1	3
498.062	1	-6
499.254	1	8
500.446	1	5
501.638	1	5
502.829	1	0
504.021	1	3
505.213	1	4
506.404	1	-6
507.596	1	9
508.788	1	8
509.979	1	5
511.171	1	20
512.362	1	2
513.553	1	15
514.745	1	-4
515.936	1	22
517.127	1	9
518.319	1	3
519.510	1	2
520.701	1	11
521.892	1	12
523.083	1	10
524.274	1	0
525.465	1	9
526.656	1	13
527.847	1	11
529.038	1	7
530.229	1	14
531.419	1	9
532.610	1	7
533.801	1	24
534.991	1	10
536.182	1	12
537.373	1	15
538.563	1	14
539.754	1	-9
540.944	1	8
542.134	1	11
543.325	1	11
544.515	1	13
545.705	1	7
546.896	1	15
548.086	1	2
549.276	1	2
550.466	1	11
551.656	1	9
552.846	1	3
554.036	1	13
555.226	1	12
556.416	1	10
557.606	1	6
558.796	1	10
559.986	1	4
561.175	1	17
562.365	1	8
563.555	1	18
564.744	1	10
565.934	1	12
567.123	1	12
568.313	1	-2
569.502	1	9
570.692	1	4
571.881	1	6
573.070	1	7
574.260	1	-2
575.449	1	11
576.638	1	6
577.827	1	-1
579.016	1	4
580.205	1	-1
581.394	1	1
582.583	1	6
583.772	1	4
584.961	1	-2
586.150	1	5
587.339	1	7
588.528	1	17
589.717	1	2
590.905	1	9
592.094	1	4
593.283	1	-4
594.471	1	6
595.660	1	3
596.848	1	9
598.037	1	-1
599.225	1	5
600.413	1	9
601.602	1	3
602.790	1	2
603.978	1	-5
605.166	1	9
606.355	1	9
607.543	1	1
608.731	1	4
609.919	1	14
611.107	1	2
612.295	1	3
613.483	1	-11
614.671	1	-7
615.858	1	1
617.046	1	11
618.234	1	-1
619.422	1	5
620.609	1	-4
621.797	1	2
622.985	1	5
624.172	1	6
625.360	1	11
626.547	1	8
627.735	1	13
628.922	1	2
630.109	1	7
631.297	1	0
632.484	1	-5
633.671	1	3
634.858	1	5
636.045	1	15
637.232	1	-4
638.419	1	10
639.606	1	4
640.793	1	-5
641.980	1	-6
643.167	1	4
644.354	1	-1
645.541	1	3
646.728	1	9
647.914	1	5
649.101	1	-2
650.288	1	5
651.474	1	-5
652.661	1	6
653.847	1	9
655.034	1	-8
656.220	1	7
657.406	1	9
658.593	1	7
659.779	1	-4
660.965	1	1
662.152	1	6
663.338	1	3
664.524	1	2
665.710	1	4
666.896	1	5
668.082	1	3
669.268	1	2
670.454	1	5
671.640	1	-14
672.826	1	3
674.011	1	3
675.197	1	-8
676.383	1	-2
677.569	1	-3
678.754	1	0
679.940	1	-7
681.125	1	13
682.311	1	-3
683.496	1	-2
684.682	1	-2
685.867	1	4
687.053	1	9
688.238	1	9
688.746	1	2