File: Data/GaN_130K_350ms/GaN_sample F_spot6_UVVIS_130 K_200um_350 ms 2x2mm1_213.txt
340.368	1	2
341.565	1	2
342.763	1	14
343.960	1	-5
345.157	1	-9
346.354	1	-10
347.552	1	-1
348.749	1	10
349.946	1	5
351.143	1	1
352.340	1	15
353.537	1	6
354.734	1	2
355.931	1	12
357.127	1	6
358.324	1	4
359.521	1	0
360.718	1	5
361.914	1	12
363.111	1	18
364.308	1	15
365.504	1	17
366.701	1	16
367.897	1	5
369.093	1	21
370.290	1	17
371.486	1	21
372.682	1	14
373.879	1	11
375.075	1	14
376.271	1	11
377.467	1	11
378.663	1	8
379.859	1	4
381.055	1	11
382.251	1	9
383.447	1	6
384.643	1	7
385.839	1	12
387.035	1	19
388.230	1	0
389.426	1	18
390.622	1	-1
391.817	1	12
393.013	1	11
394.208	1	2
395.404	1	-6
396.599	1	6
397.795	1	5
398.990	1	3
400.186	1	2
401.381	1	4
402.576	1	8
403.771	1	10
404.967	1	-4
406.162	1	2
407.357	1	6
408.552	1	1
409.747	1	-1
410.942	1	0
412.137	1	0
413.332	1	-12
414.526	1	7
415.721	1	8
416.916	1	-1
418.111	1	4
419.305	1	12
420.500	1	10
421.695	1	6
422.889	1	6
424.084	1	7
425.278	1	7
426.472	1	5
427.667	1	5
428.861	1	3
430.055	1	-3
431.250	1	8
432.444	1	-1
433.638	1	3
434.832	1	5
436.026	1	14
437.220	1	3
438.414	1	0
439.608	1	16
440.802	1	-1
441.996	1	0
443.190	1	-2
444.384	1	-10
445.578	1	2
446.771	1	5
447.965	1	-2
449.159	1	3
450.352	1	14
451.546	1	18
452.739	1	8
453.933	1	-5
455.126	1	-8
456.320	1	10
457.513	1	-6
458.706	1	7
459.899	1	-1
461.093	1	10
462.286	1	6
463.479	1	5
464.672	1	2
465.865	1	-2
467.058	1	1
468.251	1	3
469.444	1	8
470.637	1	2
471.830	1	-1
473.023	1	9
474.215	1	3
475.408	1	4
476.601	1	-1
477.793	1	-1
478.986	1	2
480.179	1	-1
481.371	1	4
482.564	1	-7
483.756	1	1
484.948	1	2
486.141	1	-2
487.333	1	-4
488.525	1	2
489.718	1	2
490.910	1	-2
492.102	1	1
493.294	1	19
494.486	1	15
495.678	1	1
496.870	1	0
498.062	1	-4
499.254	1	6
500.446	1	0
501.638	1	4
502.829	1	-1
504.021	1	-3
505.213	1	12
506.404	1	6
507.596	1	3
508.788	1	6
509.979	1	1
511.171	1	15
512.362	1	0
513.553	1	12
514.745	1	-9
515.936	1	17
517.127	1	8
518.319	1	-3
519.510	1	1
520.701	1	9
521.892	1	11
523.083	1	9
524.274	1	0
525.465	1	8
526.656	1	8
527.847	1	6
529.038	1	-4
530.229	1	18
531.419	1	12
532.610	1	12
533.801	1	15
534.991	1	-2
536.182	1	12
537.373	1	4
538.563	1	9
539.754	1	9
540.944	1	2
542.134	1	1
543.325	1	5
544.515	1	10
545.705	1	3
546.896	1	-1
548.086	1	-4
549.276	1	-4
550.466	1	15
551.656	1	5
552.846	1	-3
554.036	1	7
555.226	1	8
556.416	1	11
557.606	1	5
558.796	1	12
559.986	1	6
561.175	1	12
562.365	1	4
563.555	1	8
564.744	1	12
565.934	1	3
567.123	1	9
568.313	1	3
569.502	1	-6
570.692	1	16
571.881	1	9
573.070	1	4
574.260	1	3
575.449	1	8
576.638	1	-6
577.827	1	2
579.016	1	11
580.205	1	2
581.394	1	-1
582.583	1	19
583.772	1	-1
584.961	1	-3
586.150	1	1
587.339	1	-7
588.528	1	7
589.717	1	-7
590.905	1	5
592.094	1	6
593.283	1	-6
594.471	1	-3
595.660	1	-5
596.848	1	-2
598.037	1	9
599.225	1	8
600.413	1	6
601.602	1	1
602.790	1	3
603.978	1	12
605.166	1	8
606.355	1	6
607.543	1	1
608.731	1	3
609.919	1	7
611.107	1	7
612.295	1	12
613.483	1	-7
614.671	1	1
615.858	1	-6
617.046	1	8
618.234	1	1
619.422	1	-1
620.609	1	-9
621.797	1	5
622.985	1	4
624.172	1	-3
625.360	1	-2
626.547	1	4
627.735	1	6
628.922	1	-3
630.109	1	2
631.297	1	9
632.484	1	-7
633.671	1	-7
634.858	1	5
636.045	1	20
637.232	1	-6
638.419	1	2
639.606	1	11
640.793	1	-8
641.980	1	-1
643.167	1	6
644.354	1	2
645.541	1	-3
646.728	1	8
647.914	1	-2
649.101	1	3
650.288	1	8
651.474	1	1
652.661	1	-1
653.847	1	4
655.034	1	2
656.220	1	0
657.406	1	-9
658.593	1	7
659.779	1	12
660.965	1	-1
662.152	1	-3
663.338	1	-3
664.524	1	-9
665.710	1	7
666.896	1	13
668.082	1	0
669.268	1	1
670.454	1	1
671.640	1	-8
672.826	1	-7
674.011	1	4
675.197	1	6
676.383	1	6
677.569	1	6
678.754	1	9
679.940	1	0
681.125	1	14
682.311	1	-7
683.496	1	1
684.682	1	0
685.867	1	1
687.053	1	-1
688.238	1	-1
688.746	1	3