File: Data/GaN_130K_350ms/GaN_sample F_spot6_UVVIS_130 K_200um_350 ms 2x2mm1_217.txt
340.368	1	9
341.565	1	-1
342.763	1	1
343.960	1	-8
345.157	1	-11
346.354	1	1
347.552	1	1
348.749	1	8
349.946	1	7
351.143	1	4
352.340	1	8
353.537	1	12
354.734	1	4
355.931	1	9
357.127	1	9
358.324	1	-5
359.521	1	2
360.718	1	15
361.914	1	8
363.111	1	17
364.308	1	11
365.504	1	13
366.701	1	12
367.897	1	13
369.093	1	14
370.290	1	27
371.486	1	5
372.682	1	7
373.879	1	17
375.075	1	15
376.271	1	13
377.467	1	15
378.663	1	12
379.859	1	7
381.055	1	12
382.251	1	8
383.447	1	7
384.643	1	8
385.839	1	13
387.035	1	14
388.230	1	1
389.426	1	16
390.622	1	8
391.817	1	7
393.013	1	3
394.208	1	1
395.404	1	-6
396.599	1	11
397.795	1	3
398.990	1	0
400.186	1	1
401.381	1	14
402.576	1	2
403.771	1	8
404.967	1	5
406.162	1	-1
407.357	1	8
408.552	1	1
409.747	1	6
410.942	1	7
412.137	1	-5
413.332	1	0
414.526	1	5
415.721	1	12
416.916	1	0
418.111	1	2
419.305	1	0
420.500	1	2
421.695	1	-9
422.889	1	3
424.084	1	7
425.278	1	9
426.472	1	3
427.667	1	13
428.861	1	0
430.055	1	-7
431.250	1	9
432.444	1	13
433.638	1	1
434.832	1	3
436.026	1	5
437.220	1	-3
438.414	1	-4
439.608	1	16
440.802	1	-7
441.996	1	11
443.190	1	6
444.384	1	-5
445.578	1	-4
446.771	1	10
447.965	1	6
449.159	1	2
450.352	1	10
451.546	1	10
452.739	1	7
453.933	1	7
455.126	1	-3
456.320	1	0
457.513	1	-3
458.706	1	6
459.899	1	5
461.093	1	7
462.286	1	6
463.479	1	9
464.672	1	7
465.865	1	-3
467.058	1	1
468.251	1	9
469.444	1	1
470.637	1	12
471.830	1	2
473.023	1	6
474.215	1	5
475.408	1	3
476.601	1	-1
477.793	1	0
478.986	1	5
480.179	1	0
481.371	1	5
482.564	1	0
483.756	1	-5
484.948	1	-1
486.141	1	0
487.333	1	-1
488.525	1	5
489.718	1	5
490.910	1	-8
492.102	1	6
493.294	1	9
494.486	1	14
495.678	1	-5
496.870	1	1
498.062	1	7
499.254	1	9
500.446	1	2
501.638	1	-2
502.829	1	10
504.021	1	2
505.213	1	3
506.404	1	2
507.596	1	7
508.788	1	1
509.979	1	1
511.171	1	11
512.362	1	-2
513.553	1	4
514.745	1	8
515.936	1	17
517.127	1	6
518.319	1	0
519.510	1	2
520.701	1	-9
521.892	1	10
523.083	1	-7
524.274	1	7
525.465	1	5
526.656	1	13
527.847	1	-2
529.038	1	-2
530.229	1	5
531.419	1	4
532.610	1	5
533.801	1	20
534.991	1	11
536.182	1	11
537.373	1	10
538.563	1	0
539.754	1	11
540.944	1	7
542.134	1	4
543.325	1	8
544.515	1	10
545.705	1	8
546.896	1	6
548.086	1	6
549.276	1	2
550.466	1	9
551.656	1	3
552.846	1	3
554.036	1	4
555.226	1	13
556.416	1	2
557.606	1	3
558.796	1	11
559.986	1	1
561.175	1	10
562.365	1	11
563.555	1	18
564.744	1	8
565.934	1	1
567.123	1	0
568.313	1	-1
569.502	1	4
570.692	1	11
571.881	1	8
573.070	1	3
574.260	1	5
575.449	1	8
576.638	1	3
577.827	1	-4
579.016	1	5
580.205	1	6
581.394	1	-2
582.583	1	6
583.772	1	6
584.961	1	2
586.150	1	3
587.339	1	3
588.528	1	6
589.717	1	-3
590.905	1	9
592.094	1	-2
593.283	1	-10
594.471	1	7
595.660	1	0
596.848	1	7
598.037	1	2
599.225	1	10
600.413	1	10
601.602	1	3
602.790	1	-1
603.978	1	2
605.166	1	5
606.355	1	6
607.543	1	0
608.731	1	8
609.919	1	14
611.107	1	5
612.295	1	9
613.483	1	-4
614.671	1	9
615.858	1	-1
617.046	1	8
618.234	1	4
619.422	1	5
620.609	1	1
621.797	1	4
622.985	1	5
624.172	1	0
625.360	1	7
626.547	1	5
627.735	1	8
628.922	1	-3
630.109	1	12
631.297	1	3
632.484	1	-1
633.671	1	0
634.858	1	13
636.045	1	10
637.232	1	-3
638.419	1	4
639.606	1	6
640.793	1	0
641.980	1	6
643.167	1	-4
644.354	1	0
645.541	1	-7
646.728	1	9
647.914	1	-4
649.101	1	-1
650.288	1	4
651.474	1	-2
652.661	1	0
653.847	1	0
655.034	1	-1
656.220	1	1
657.406	1	8
658.593	1	6
659.779	1	2
660.965	1	2
662.152	1	10
663.338	1	9
664.524	1	-4
665.710	1	3
666.896	1	5
668.082	1	8
669.268	1	-1
670.454	1	-2
671.640	1	-4
672.826	1	4
674.011	1	4
675.197	1	5
676.383	1	12
677.569	1	3
678.754	1	9
679.940	1	-5
681.125	1	12
682.311	1	-12
683.496	1	0
684.682	1	1
685.867	1	5
687.053	1	-2
688.238	1	14
688.746	1	4