File: Data/GaN_130K_350ms/GaN_sample F_spot6_UVVIS_130 K_200um_350 ms 2x2mm1_209.txt
340.368	1	9
341.565	1	9
342.763	1	1
343.960	1	-6
345.157	1	-8
346.354	1	-1
347.552	1	6
348.749	1	5
349.946	1	1
351.143	1	4
352.340	1	13
353.537	1	1
354.734	1	-12
355.931	1	6
357.127	1	16
358.324	1	3
359.521	1	-7
360.718	1	9
361.914	1	-1
363.111	1	23
364.308	1	19
365.504	1	10
366.701	1	11
367.897	1	13
369.093	1	17
370.290	1	22
371.486	1	16
372.682	1	14
373.879	1	12
375.075	1	19
376.271	1	5
377.467	1	19
378.663	1	15
379.859	1	9
381.055	1	6
382.251	1	6
383.447	1	1
384.643	1	9
385.839	1	12
387.035	1	19
388.230	1	2
389.426	1	2
390.622	1	6
391.817	1	12
393.013	1	4
394.208	1	2
395.404	1	-5
396.599	1	10
397.795	1	6
398.990	1	8
400.186	1	-8
401.381	1	11
402.576	1	9
403.771	1	7
404.967	1	2
406.162	1	1
407.357	1	-1
408.552	1	4
409.747	1	4
410.942	1	-2
412.137	1	-2
413.332	1	-7
414.526	1	6
415.721	1	4
416.916	1	-9
418.111	1	10
419.305	1	-1
420.500	1	-3
421.695	1	1
422.889	1	11
424.084	1	9
425.278	1	-3
426.472	1	10
427.667	1	3
428.861	1	-2
430.055	1	7
431.250	1	12
432.444	1	3
433.638	1	3
434.832	1	8
436.026	1	6
437.220	1	1
438.414	1	-1
439.608	1	13
440.802	1	-1
441.996	1	15
443.190	1	9
444.384	1	-7
445.578	1	3
446.771	1	5
447.965	1	7
449.159	1	-1
450.352	1	10
451.546	1	14
452.739	1	7
453.933	1	7
455.126	1	-13
456.320	1	6
457.513	1	7
458.706	1	7
459.899	1	-2
461.093	1	14
462.286	1	-1
463.479	1	6
464.672	1	3
465.865	1	-2
467.058	1	9
468.251	1	6
469.444	1	4
470.637	1	4
471.830	1	6
473.023	1	4
474.215	1	-3
475.408	1	9
476.601	1	-7
477.793	1	-6
478.986	1	-2
480.179	1	-6
481.371	1	11
482.564	1	-6
483.756	1	1
484.948	1	14
486.141	1	1
487.333	1	0
488.525	1	5
489.718	1	7
490.910	1	-6
492.102	1	4
493.294	1	15
494.486	1	20
495.678	1	-6
496.870	1	8
498.062	1	-4
499.254	1	5
500.446	1	7
501.638	1	5
502.829	1	-1
504.021	1	-4
505.213	1	4
506.404	1	6
507.596	1	-2
508.788	1	-2
509.979	1	-3
511.171	1	7
512.362	1	1
513.553	1	5
514.745	1	10
515.936	1	22
517.127	1	12
518.319	1	2
519.510	1	1
520.701	1	6
521.892	1	6
523.083	1	9
524.274	1	-1
525.465	1	12
526.656	1	3
527.847	1	4
529.038	1	5
530.229	1	11
531.419	1	11
532.610	1	-4
533.801	1	21
534.991	1	16
536.182	1	7
537.373	1	2
538.563	1	13
539.754	1	9
540.944	1	13
542.134	1	10
543.325	1	-3
544.515	1	13
545.705	1	9
546.896	1	10
548.086	1	-1
549.276	1	-1
550.466	1	7
551.656	1	8
552.846	1	-3
554.036	1	-5
555.226	1	6
556.416	1	10
557.606	1	-2
558.796	1	12
559.986	1	6
561.175	1	6
562.365	1	10
563.555	1	6
564.744	1	10
565.934	1	0
567.123	1	11
568.313	1	-11
569.502	1	5
570.692	1	11
571.881	1	6
573.070	1	7
574.260	1	11
575.449	1	4
576.638	1	-7
577.827	1	1
579.016	1	-2
580.205	1	-7
581.394	1	-2
582.583	1	11
583.772	1	3
584.961	1	2
586.150	1	15
587.339	1	2
588.528	1	12
589.717	1	0
590.905	1	7
592.094	1	-2
593.283	1	-2
594.471	1	-5
595.660	1	8
596.848	1	6
598.037	1	1
599.225	1	4
600.413	1	11
601.602	1	0
602.790	1	6
603.978	1	2
605.166	1	14
606.355	1	6
607.543	1	7
608.731	1	1
609.919	1	15
611.107	1	10
612.295	1	12
613.483	1	4
614.671	1	5
615.858	1	-2
617.046	1	8
618.234	1	-1
619.422	1	6
620.609	1	-8
621.797	1	-1
622.985	1	9
624.172	1	3
625.360	1	0
626.547	1	4
627.735	1	3
628.922	1	-4
630.109	1	0
631.297	1	-1
632.484	1	2
633.671	1	-10
634.858	1	9
636.045	1	20
637.232	1	-1
638.419	1	2
639.606	1	5
640.793	1	-7
641.980	1	4
643.167	1	7
644.354	1	-9
645.541	1	7
646.728	1	5
647.914	1	-1
649.101	1	3
650.288	1	7
651.474	1	-4
652.661	1	0
653.847	1	-2
655.034	1	0
656.220	1	6
657.406	1	-3
658.593	1	1
659.779	1	0
660.965	1	-6
662.152	1	3
663.338	1	-1
664.524	1	-5
665.710	1	3
666.896	1	0
668.082	1	4
669.268	1	4
670.454	1	4
671.640	1	-1
672.826	1	-2
674.011	1	0
675.197	1	-5
676.383	1	1
677.569	1	-8
678.754	1	2
679.940	1	-2
681.125	1	8
682.311	1	-9
683.496	1	1
684.682	1	3
685.867	1	3
687.053	1	9
688.238	1	7
688.746	1	1