File: Data/GaN_130K_350ms/GaN_sample F_spot6_UVVIS_130 K_200um_350 ms 2x2mm1_154.txt
340.368	1	2
341.565	1	8
342.763	1	6
343.960	1	-5
345.157	1	-6
346.354	1	8
347.552	1	0
348.749	1	-3
349.946	1	2
351.143	1	-4
352.340	1	12
353.537	1	0
354.734	1	3
355.931	1	9
357.127	1	11
358.324	1	5
359.521	1	4
360.718	1	19
361.914	1	19
363.111	1	25
364.308	1	19
365.504	1	33
366.701	1	39
367.897	1	41
369.093	1	28
370.290	1	40
371.486	1	33
372.682	1	27
373.879	1	22
375.075	1	31
376.271	1	18
377.467	1	21
378.663	1	15
379.859	1	11
381.055	1	7
382.251	1	4
383.447	1	26
384.643	1	22
385.839	1	10
387.035	1	17
388.230	1	7
389.426	1	29
390.622	1	7
391.817	1	7
393.013	1	3
394.208	1	6
395.404	1	-4
396.599	1	11
397.795	1	2
398.990	1	13
400.186	1	5
401.381	1	8
402.576	1	0
403.771	1	19
404.967	1	2
406.162	1	4
407.357	1	10
408.552	1	-4
409.747	1	-2
410.942	1	3
412.137	1	-2
413.332	1	-8
414.526	1	11
415.721	1	11
416.916	1	-2
418.111	1	13
419.305	1	10
420.500	1	9
421.695	1	-1
422.889	1	13
424.084	1	13
425.278	1	-5
426.472	1	6
427.667	1	9
428.861	1	4
430.055	1	1
431.250	1	13
432.444	1	2
433.638	1	4
434.832	1	-4
436.026	1	17
437.220	1	1
438.414	1	-2
439.608	1	18
440.802	1	-5
441.996	1	11
443.190	1	10
444.384	1	1
445.578	1	-6
446.771	1	11
447.965	1	4
449.159	1	10
450.352	1	13
451.546	1	14
452.739	1	11
453.933	1	9
455.126	1	-1
456.320	1	1
457.513	1	-1
458.706	1	6
459.899	1	5
461.093	1	7
462.286	1	6
463.479	1	9
464.672	1	12
465.865	1	-8
467.058	1	8
468.251	1	5
469.444	1	0
470.637	1	10
471.830	1	6
473.023	1	5
474.215	1	5
475.408	1	0
476.601	1	1
477.793	1	2
478.986	1	-3
480.179	1	5
481.371	1	10
482.564	1	-2
483.756	1	1
484.948	1	-2
486.141	1	-2
487.333	1	-1
488.525	1	7
489.718	1	6
490.910	1	-6
492.102	1	7
493.294	1	9
494.486	1	24
495.678	1	7
496.870	1	0
498.062	1	-1
499.254	1	6
500.446	1	16
501.638	1	11
502.829	1	3
504.021	1	9
505.213	1	8
506.404	1	3
507.596	1	0
508.788	1	13
509.979	1	9
511.171	1	13
512.362	1	3
513.553	1	21
514.745	1	6
515.936	1	20
517.127	1	20
518.319	1	2
519.510	1	6
520.701	1	7
521.892	1	12
523.083	1	12
524.274	1	4
525.465	1	15
526.656	1	8
527.847	1	3
529.038	1	8
530.229	1	16
531.419	1	12
532.610	1	12
533.801	1	35
534.991	1	13
536.182	1	24
537.373	1	11
538.563	1	10
539.754	1	5
540.944	1	8
542.134	1	16
543.325	1	12
544.515	1	7
545.705	1	8
546.896	1	16
548.086	1	0
549.276	1	5
550.466	1	14
551.656	1	15
552.846	1	8
554.036	1	10
555.226	1	5
556.416	1	14
557.606	1	9
558.796	1	20
559.986	1	13
561.175	1	6
562.365	1	6
563.555	1	13
564.744	1	12
565.934	1	4
567.123	1	9
568.313	1	7
569.502	1	7
570.692	1	15
571.881	1	3
573.070	1	1
574.260	1	8
575.449	1	3
576.638	1	-4
577.827	1	6
579.016	1	6
580.205	1	4
581.394	1	3
582.583	1	13
583.772	1	15
584.961	1	4
586.150	1	7
587.339	1	8
588.528	1	9
589.717	1	8
590.905	1	9
592.094	1	4
593.283	1	-1
594.471	1	3
595.660	1	4
596.848	1	6
598.037	1	6
599.225	1	2
600.413	1	-1
601.602	1	1
602.790	1	4
603.978	1	8
605.166	1	5
606.355	1	8
607.543	1	-1
608.731	1	15
609.919	1	11
611.107	1	5
612.295	1	13
613.483	1	-1
614.671	1	-1
615.858	1	-7
617.046	1	3
618.234	1	1
619.422	1	-2
620.609	1	12
621.797	1	0
622.985	1	10
624.172	1	5
625.360	1	1
626.547	1	4
627.735	1	10
628.922	1	0
630.109	1	9
631.297	1	2
632.484	1	-5
633.671	1	-6
634.858	1	12
636.045	1	21
637.232	1	-1
638.419	1	12
639.606	1	8
640.793	1	-3
641.980	1	0
643.167	1	3
644.354	1	3
645.541	1	1
646.728	1	1
647.914	1	-14
649.101	1	-3
650.288	1	4
651.474	1	2
652.661	1	3
653.847	1	4
655.034	1	4
656.220	1	1
657.406	1	6
658.593	1	7
659.779	1	0
660.965	1	8
662.152	1	3
663.338	1	1
664.524	1	1
665.710	1	11
666.896	1	5
668.082	1	1
669.268	1	-6
670.454	1	2
671.640	1	-3
672.826	1	-1
674.011	1	7
675.197	1	2
676.383	1	3
677.569	1	1
678.754	1	4
679.940	1	-4
681.125	1	9
682.311	1	2
683.496	1	-2
684.682	1	1
685.867	1	4
687.053	1	7
688.238	1	11
688.746	1	-8