File: Data/GaN_130K_350ms/GaN_sample F_spot6_UVVIS_130 K_200um_350 ms 2x2mm1_225.txt
340.368	1	3
341.565	1	-9
342.763	1	11
343.960	1	-3
345.157	1	-8
346.354	1	1
347.552	1	-3
348.749	1	6
349.946	1	1
351.143	1	2
352.340	1	15
353.537	1	-2
354.734	1	-1
355.931	1	3
357.127	1	15
358.324	1	3
359.521	1	-1
360.718	1	6
361.914	1	2
363.111	1	18
364.308	1	14
365.504	1	14
366.701	1	20
367.897	1	9
369.093	1	16
370.290	1	14
371.486	1	14
372.682	1	11
373.879	1	24
375.075	1	12
376.271	1	9
377.467	1	21
378.663	1	9
379.859	1	5
381.055	1	6
382.251	1	5
383.447	1	11
384.643	1	22
385.839	1	5
387.035	1	9
388.230	1	2
389.426	1	6
390.622	1	3
391.817	1	5
393.013	1	3
394.208	1	1
395.404	1	1
396.599	1	10
397.795	1	-7
398.990	1	6
400.186	1	8
401.381	1	4
402.576	1	8
403.771	1	6
404.967	1	-3
406.162	1	-3
407.357	1	4
408.552	1	-3
409.747	1	0
410.942	1	1
412.137	1	-6
413.332	1	-5
414.526	1	1
415.721	1	2
416.916	1	8
418.111	1	4
419.305	1	2
420.500	1	8
421.695	1	5
422.889	1	4
424.084	1	13
425.278	1	-3
426.472	1	3
427.667	1	16
428.861	1	1
430.055	1	2
431.250	1	10
432.444	1	12
433.638	1	0
434.832	1	2
436.026	1	7
437.220	1	-9
438.414	1	6
439.608	1	16
440.802	1	-15
441.996	1	8
443.190	1	0
444.384	1	-2
445.578	1	1
446.771	1	4
447.965	1	6
449.159	1	2
450.352	1	9
451.546	1	13
452.739	1	4
453.933	1	7
455.126	1	-1
456.320	1	8
457.513	1	-3
458.706	1	12
459.899	1	-1
461.093	1	5
462.286	1	8
463.479	1	7
464.672	1	13
465.865	1	-9
467.058	1	8
468.251	1	3
469.444	1	1
470.637	1	5
471.830	1	8
473.023	1	13
474.215	1	3
475.408	1	4
476.601	1	1
477.793	1	0
478.986	1	-1
480.179	1	0
481.371	1	4
482.564	1	-1
483.756	1	1
484.948	1	-1
486.141	1	3
487.333	1	-4
488.525	1	6
489.718	1	6
490.910	1	-2
492.102	1	10
493.294	1	5
494.486	1	11
495.678	1	1
496.870	1	2
498.062	1	-14
499.254	1	6
500.446	1	0
501.638	1	6
502.829	1	-1
504.021	1	2
505.213	1	3
506.404	1	2
507.596	1	10
508.788	1	0
509.979	1	-1
511.171	1	14
512.362	1	0
513.553	1	12
514.745	1	2
515.936	1	11
517.127	1	5
518.319	1	0
519.510	1	4
520.701	1	0
521.892	1	13
523.083	1	-1
524.274	1	-1
525.465	1	4
526.656	1	0
527.847	1	-2
529.038	1	2
530.229	1	-2
531.419	1	3
532.610	1	0
533.801	1	16
534.991	1	0
536.182	1	13
537.373	1	12
538.563	1	8
539.754	1	1
540.944	1	7
542.134	1	7
543.325	1	0
544.515	1	12
545.705	1	-5
546.896	1	9
548.086	1	-3
549.276	1	5
550.466	1	9
551.656	1	0
552.846	1	-7
554.036	1	1
555.226	1	8
556.416	1	3
557.606	1	0
558.796	1	10
559.986	1	4
561.175	1	5
562.365	1	3
563.555	1	13
564.744	1	4
565.934	1	5
567.123	1	3
568.313	1	7
569.502	1	4
570.692	1	3
571.881	1	-1
573.070	1	-3
574.260	1	2
575.449	1	2
576.638	1	-5
577.827	1	-1
579.016	1	5
580.205	1	-6
581.394	1	-3
582.583	1	9
583.772	1	6
584.961	1	5
586.150	1	8
587.339	1	7
588.528	1	1
589.717	1	7
590.905	1	14
592.094	1	4
593.283	1	-7
594.471	1	2
595.660	1	10
596.848	1	2
598.037	1	3
599.225	1	4
600.413	1	11
601.602	1	-5
602.790	1	7
603.978	1	3
605.166	1	7
606.355	1	6
607.543	1	8
608.731	1	4
609.919	1	15
611.107	1	5
612.295	1	6
613.483	1	-3
614.671	1	10
615.858	1	-10
617.046	1	9
618.234	1	4
619.422	1	2
620.609	1	-7
621.797	1	5
622.985	1	3
624.172	1	-2
625.360	1	4
626.547	1	-1
627.735	1	11
628.922	1	0
630.109	1	12
631.297	1	-2
632.484	1	-2
633.671	1	-1
634.858	1	5
636.045	1	12
637.232	1	-6
638.419	1	4
639.606	1	5
640.793	1	-9
641.980	1	2
643.167	1	0
644.354	1	-4
645.541	1	9
646.728	1	9
647.914	1	-4
649.101	1	-7
650.288	1	10
651.474	1	6
652.661	1	3
653.847	1	9
655.034	1	2
656.220	1	4
657.406	1	4
658.593	1	9
659.779	1	3
660.965	1	2
662.152	1	7
663.338	1	3
664.524	1	-4
665.710	1	-3
666.896	1	11
668.082	1	6
669.268	1	-2
670.454	1	1
671.640	1	-2
672.826	1	1
674.011	1	8
675.197	1	-11
676.383	1	2
677.569	1	2
678.754	1	6
679.940	1	-9
681.125	1	8
682.311	1	-3
683.496	1	6
684.682	1	5
685.867	1	7
687.053	1	-3
688.238	1	2
688.746	1	9