File: Data/GaN_130K_350ms/GaN_sample F_spot6_UVVIS_130 K_200um_350 ms 2x2mm1_190.txt
340.368	1	7
341.565	1	0
342.763	1	1
343.960	1	-5
345.157	1	-16
346.354	1	6
347.552	1	-8
348.749	1	3
349.946	1	9
351.143	1	2
352.340	1	14
353.537	1	10
354.734	1	3
355.931	1	12
357.127	1	2
358.324	1	-3
359.521	1	1
360.718	1	11
361.914	1	-6
363.111	1	16
364.308	1	13
365.504	1	13
366.701	1	16
367.897	1	27
369.093	1	21
370.290	1	27
371.486	1	19
372.682	1	19
373.879	1	11
375.075	1	16
376.271	1	7
377.467	1	15
378.663	1	11
379.859	1	7
381.055	1	7
382.251	1	11
383.447	1	7
384.643	1	8
385.839	1	7
387.035	1	20
388.230	1	9
389.426	1	4
390.622	1	2
391.817	1	1
393.013	1	14
394.208	1	-2
395.404	1	-7
396.599	1	11
397.795	1	6
398.990	1	-1
400.186	1	2
401.381	1	3
402.576	1	11
403.771	1	12
404.967	1	2
406.162	1	10
407.357	1	7
408.552	1	4
409.747	1	6
410.942	1	6
412.137	1	3
413.332	1	6
414.526	1	2
415.721	1	9
416.916	1	13
418.111	1	8
419.305	1	9
420.500	1	12
421.695	1	2
422.889	1	10
424.084	1	6
425.278	1	5
426.472	1	13
427.667	1	7
428.861	1	-3
430.055	1	9
431.250	1	12
432.444	1	9
433.638	1	6
434.832	1	7
436.026	1	8
437.220	1	-2
438.414	1	-3
439.608	1	25
440.802	1	-8
441.996	1	19
443.190	1	12
444.384	1	-1
445.578	1	-1
446.771	1	11
447.965	1	3
449.159	1	4
450.352	1	8
451.546	1	-2
452.739	1	2
453.933	1	-2
455.126	1	-3
456.320	1	4
457.513	1	1
458.706	1	9
459.899	1	0
461.093	1	4
462.286	1	10
463.479	1	5
464.672	1	10
465.865	1	-5
467.058	1	5
468.251	1	1
469.444	1	3
470.637	1	3
471.830	1	0
473.023	1	4
474.215	1	7
475.408	1	-2
476.601	1	5
477.793	1	3
478.986	1	-7
480.179	1	-3
481.371	1	12
482.564	1	3
483.756	1	4
484.948	1	7
486.141	1	4
487.333	1	-5
488.525	1	-2
489.718	1	11
490.910	1	-2
492.102	1	17
493.294	1	9
494.486	1	19
495.678	1	1
496.870	1	-1
498.062	1	-14
499.254	1	11
500.446	1	5
501.638	1	7
502.829	1	6
504.021	1	9
505.213	1	9
506.404	1	9
507.596	1	1
508.788	1	8
509.979	1	8
511.171	1	9
512.362	1	-1
513.553	1	12
514.745	1	9
515.936	1	6
517.127	1	0
518.319	1	0
519.510	1	6
520.701	1	4
521.892	1	16
523.083	1	9
524.274	1	-2
525.465	1	12
526.656	1	12
527.847	1	7
529.038	1	-2
530.229	1	10
531.419	1	12
532.610	1	4
533.801	1	11
534.991	1	5
536.182	1	14
537.373	1	2
538.563	1	7
539.754	1	6
540.944	1	8
542.134	1	4
543.325	1	0
544.515	1	4
545.705	1	6
546.896	1	10
548.086	1	2
549.276	1	2
550.466	1	10
551.656	1	11
552.846	1	2
554.036	1	8
555.226	1	15
556.416	1	11
557.606	1	11
558.796	1	18
559.986	1	10
561.175	1	1
562.365	1	12
563.555	1	16
564.744	1	3
565.934	1	6
567.123	1	6
568.313	1	7
569.502	1	4
570.692	1	10
571.881	1	8
573.070	1	1
574.260	1	6
575.449	1	8
576.638	1	3
577.827	1	6
579.016	1	-2
580.205	1	-5
581.394	1	3
582.583	1	8
583.772	1	4
584.961	1	4
586.150	1	8
587.339	1	-1
588.528	1	8
589.717	1	2
590.905	1	16
592.094	1	5
593.283	1	-8
594.471	1	5
595.660	1	13
596.848	1	0
598.037	1	8
599.225	1	5
600.413	1	14
601.602	1	0
602.790	1	-3
603.978	1	4
605.166	1	-4
606.355	1	12
607.543	1	1
608.731	1	7
609.919	1	7
611.107	1	5
612.295	1	9
613.483	1	1
614.671	1	4
615.858	1	2
617.046	1	13
618.234	1	4
619.422	1	4
620.609	1	-4
621.797	1	3
622.985	1	6
624.172	1	1
625.360	1	5
626.547	1	0
627.735	1	3
628.922	1	-3
630.109	1	12
631.297	1	-8
632.484	1	-11
633.671	1	2
634.858	1	5
636.045	1	17
637.232	1	-4
638.419	1	10
639.606	1	5
640.793	1	-6
641.980	1	-3
643.167	1	1
644.354	1	-12
645.541	1	-1
646.728	1	-2
647.914	1	-2
649.101	1	2
650.288	1	9
651.474	1	-1
652.661	1	4
653.847	1	-3
655.034	1	3
656.220	1	0
657.406	1	5
658.593	1	-2
659.779	1	5
660.965	1	-1
662.152	1	-1
663.338	1	3
664.524	1	-4
665.710	1	10
666.896	1	8
668.082	1	2
669.268	1	6
670.454	1	12
671.640	1	-6
672.826	1	7
674.011	1	1
675.197	1	-2
676.383	1	2
677.569	1	0
678.754	1	5
679.940	1	0
681.125	1	6
682.311	1	-7
683.496	1	-8
684.682	1	4
685.867	1	5
687.053	1	4
688.238	1	10
688.746	1	14