File: Data/GaN_130K_350ms/GaN_sample F_spot6_UVVIS_130 K_200um_350 ms 2x2mm1_276.txt
340.368	1	12
341.565	1	4
342.763	1	-11
343.960	1	-11
345.157	1	-8
346.354	1	5
347.552	1	5
348.749	1	-1
349.946	1	6
351.143	1	-3
352.340	1	11
353.537	1	5
354.734	1	-1
355.931	1	13
357.127	1	8
358.324	1	-1
359.521	1	-5
360.718	1	4
361.914	1	2
363.111	1	12
364.308	1	13
365.504	1	6
366.701	1	10
367.897	1	6
369.093	1	11
370.290	1	11
371.486	1	15
372.682	1	9
373.879	1	10
375.075	1	16
376.271	1	7
377.467	1	7
378.663	1	5
379.859	1	-5
381.055	1	1
382.251	1	1
383.447	1	4
384.643	1	8
385.839	1	4
387.035	1	15
388.230	1	-3
389.426	1	9
390.622	1	9
391.817	1	6
393.013	1	12
394.208	1	1
395.404	1	-3
396.599	1	13
397.795	1	-3
398.990	1	-8
400.186	1	5
401.381	1	4
402.576	1	6
403.771	1	12
404.967	1	1
406.162	1	4
407.357	1	4
408.552	1	2
409.747	1	5
410.942	1	2
412.137	1	-1
413.332	1	2
414.526	1	-1
415.721	1	3
416.916	1	-2
418.111	1	7
419.305	1	3
420.500	1	3
421.695	1	13
422.889	1	7
424.084	1	5
425.278	1	5
426.472	1	-1
427.667	1	8
428.861	1	1
430.055	1	-9
431.250	1	6
432.444	1	1
433.638	1	10
434.832	1	-3
436.026	1	8
437.220	1	-6
438.414	1	-7
439.608	1	12
440.802	1	-7
441.996	1	16
443.190	1	9
444.384	1	-6
445.578	1	2
446.771	1	2
447.965	1	3
449.159	1	7
450.352	1	12
451.546	1	11
452.739	1	-3
453.933	1	10
455.126	1	-4
456.320	1	-6
457.513	1	-7
458.706	1	2
459.899	1	4
461.093	1	9
462.286	1	0
463.479	1	6
464.672	1	-1
465.865	1	-8
467.058	1	3
468.251	1	5
469.444	1	4
470.637	1	5
471.830	1	5
473.023	1	3
474.215	1	4
475.408	1	0
476.601	1	3
477.793	1	2
478.986	1	0
480.179	1	2
481.371	1	6
482.564	1	-2
483.756	1	-7
484.948	1	3
486.141	1	-1
487.333	1	-3
488.525	1	9
489.718	1	5
490.910	1	-6
492.102	1	11
493.294	1	8
494.486	1	13
495.678	1	0
496.870	1	-2
498.062	1	3
499.254	1	7
500.446	1	11
501.638	1	4
502.829	1	2
504.021	1	-1
505.213	1	0
506.404	1	-1
507.596	1	4
508.788	1	-7
509.979	1	-3
511.171	1	7
512.362	1	-2
513.553	1	7
514.745	1	-7
515.936	1	11
517.127	1	4
518.319	1	-3
519.510	1	-4
520.701	1	2
521.892	1	4
523.083	1	5
524.274	1	-1
525.465	1	6
526.656	1	0
527.847	1	7
529.038	1	-10
530.229	1	2
531.419	1	5
532.610	1	7
533.801	1	10
534.991	1	2
536.182	1	9
537.373	1	6
538.563	1	5
539.754	1	1
540.944	1	5
542.134	1	-1
543.325	1	-1
544.515	1	-1
545.705	1	1
546.896	1	4
548.086	1	-2
549.276	1	-5
550.466	1	10
551.656	1	-6
552.846	1	-7
554.036	1	-7
555.226	1	-6
556.416	1	8
557.606	1	1
558.796	1	11
559.986	1	12
561.175	1	2
562.365	1	7
563.555	1	13
564.744	1	-2
565.934	1	5
567.123	1	0
568.313	1	-1
569.502	1	-4
570.692	1	10
571.881	1	-7
573.070	1	5
574.260	1	1
575.449	1	6
576.638	1	-5
577.827	1	-5
579.016	1	0
580.205	1	-2
581.394	1	-6
582.583	1	2
583.772	1	12
584.961	1	1
586.150	1	8
587.339	1	4
588.528	1	2
589.717	1	-3
590.905	1	8
592.094	1	8
593.283	1	-11
594.471	1	3
595.660	1	0
596.848	1	3
598.037	1	6
599.225	1	0
600.413	1	13
601.602	1	4
602.790	1	-1
603.978	1	-1
605.166	1	11
606.355	1	0
607.543	1	-5
608.731	1	5
609.919	1	7
611.107	1	9
612.295	1	3
613.483	1	2
614.671	1	3
615.858	1	-4
617.046	1	13
618.234	1	-7
619.422	1	3
620.609	1	-3
621.797	1	5
622.985	1	15
624.172	1	-3
625.360	1	7
626.547	1	-2
627.735	1	10
628.922	1	-2
630.109	1	0
631.297	1	2
632.484	1	-12
633.671	1	-8
634.858	1	15
636.045	1	15
637.232	1	2
638.419	1	4
639.606	1	4
640.793	1	-10
641.980	1	3
643.167	1	-4
644.354	1	-1
645.541	1	0
646.728	1	8
647.914	1	-4
649.101	1	6
650.288	1	5
651.474	1	2
652.661	1	1
653.847	1	-7
655.034	1	8
656.220	1	12
657.406	1	4
658.593	1	2
659.779	1	3
660.965	1	-7
662.152	1	7
663.338	1	0
664.524	1	4
665.710	1	3
666.896	1	-3
668.082	1	5
669.268	1	-5
670.454	1	-5
671.640	1	-3
672.826	1	-5
674.011	1	8
675.197	1	-2
676.383	1	-6
677.569	1	5
678.754	1	9
679.940	1	-5
681.125	1	6
682.311	1	-14
683.496	1	1
684.682	1	-2
685.867	1	2
687.053	1	-2
688.238	1	6
688.746	1	13