File: Data/GaN_130K_350ms/GaN_sample F_spot6_UVVIS_130 K_200um_350 ms 2x2mm1_124.txt
340.368	1	1
341.565	1	-6
342.763	1	8
343.960	1	-13
345.157	1	-9
346.354	1	6
347.552	1	2
348.749	1	2
349.946	1	16
351.143	1	7
352.340	1	12
353.537	1	-7
354.734	1	5
355.931	1	9
357.127	1	9
358.324	1	6
359.521	1	18
360.718	1	26
361.914	1	27
363.111	1	37
364.308	1	49
365.504	1	46
366.701	1	56
367.897	1	71
369.093	1	60
370.290	1	55
371.486	1	44
372.682	1	45
373.879	1	47
375.075	1	39
376.271	1	32
377.467	1	25
378.663	1	27
379.859	1	16
381.055	1	21
382.251	1	12
383.447	1	13
384.643	1	17
385.839	1	18
387.035	1	26
388.230	1	11
389.426	1	21
390.622	1	12
391.817	1	13
393.013	1	8
394.208	1	8
395.404	1	5
396.599	1	16
397.795	1	1
398.990	1	3
400.186	1	10
401.381	1	9
402.576	1	9
403.771	1	12
404.967	1	11
406.162	1	4
407.357	1	8
408.552	1	-1
409.747	1	12
410.942	1	12
412.137	1	-1
413.332	1	-1
414.526	1	3
415.721	1	10
416.916	1	11
418.111	1	11
419.305	1	-1
420.500	1	12
421.695	1	2
422.889	1	13
424.084	1	6
425.278	1	7
426.472	1	7
427.667	1	13
428.861	1	4
430.055	1	0
431.250	1	8
432.444	1	13
433.638	1	10
434.832	1	-6
436.026	1	5
437.220	1	0
438.414	1	4
439.608	1	13
440.802	1	-5
441.996	1	12
443.190	1	7
444.384	1	-5
445.578	1	2
446.771	1	7
447.965	1	7
449.159	1	5
450.352	1	10
451.546	1	5
452.739	1	17
453.933	1	2
455.126	1	-12
456.320	1	4
457.513	1	-1
458.706	1	6
459.899	1	6
461.093	1	10
462.286	1	5
463.479	1	5
464.672	1	10
465.865	1	-5
467.058	1	12
468.251	1	9
469.444	1	6
470.637	1	6
471.830	1	8
473.023	1	-3
474.215	1	3
475.408	1	8
476.601	1	6
477.793	1	-5
478.986	1	4
480.179	1	-1
481.371	1	8
482.564	1	6
483.756	1	6
484.948	1	14
486.141	1	4
487.333	1	3
488.525	1	13
489.718	1	13
490.910	1	-2
492.102	1	15
493.294	1	12
494.486	1	13
495.678	1	4
496.870	1	8
498.062	1	12
499.254	1	6
500.446	1	23
501.638	1	11
502.829	1	12
504.021	1	4
505.213	1	11
506.404	1	13
507.596	1	12
508.788	1	15
509.979	1	3
511.171	1	24
512.362	1	11
513.553	1	20
514.745	1	18
515.936	1	34
517.127	1	24
518.319	1	16
519.510	1	21
520.701	1	21
521.892	1	27
523.083	1	22
524.274	1	13
525.465	1	27
526.656	1	26
527.847	1	26
529.038	1	28
530.229	1	26
531.419	1	30
532.610	1	23
533.801	1	46
534.991	1	27
536.182	1	20
537.373	1	15
538.563	1	25
539.754	1	16
540.944	1	23
542.134	1	18
543.325	1	12
544.515	1	19
545.705	1	31
546.896	1	23
548.086	1	7
549.276	1	13
550.466	1	19
551.656	1	19
552.846	1	14
554.036	1	16
555.226	1	21
556.416	1	17
557.606	1	12
558.796	1	23
559.986	1	21
561.175	1	15
562.365	1	23
563.555	1	22
564.744	1	19
565.934	1	9
567.123	1	11
568.313	1	7
569.502	1	9
570.692	1	14
571.881	1	15
573.070	1	10
574.260	1	14
575.449	1	7
576.638	1	8
577.827	1	-1
579.016	1	2
580.205	1	3
581.394	1	15
582.583	1	16
583.772	1	16
584.961	1	11
586.150	1	10
587.339	1	7
588.528	1	19
589.717	1	-3
590.905	1	9
592.094	1	4
593.283	1	3
594.471	1	6
595.660	1	5
596.848	1	12
598.037	1	8
599.225	1	5
600.413	1	8
601.602	1	-2
602.790	1	4
603.978	1	7
605.166	1	18
606.355	1	15
607.543	1	2
608.731	1	11
609.919	1	11
611.107	1	6
612.295	1	19
613.483	1	7
614.671	1	5
615.858	1	-3
617.046	1	6
618.234	1	5
619.422	1	1
620.609	1	-5
621.797	1	4
622.985	1	10
624.172	1	-2
625.360	1	0
626.547	1	11
627.735	1	14
628.922	1	-8
630.109	1	13
631.297	1	6
632.484	1	-3
633.671	1	-5
634.858	1	9
636.045	1	22
637.232	1	-6
638.419	1	11
639.606	1	5
640.793	1	-6
641.980	1	2
643.167	1	3
644.354	1	0
645.541	1	-3
646.728	1	10
647.914	1	-6
649.101	1	5
650.288	1	6
651.474	1	2
652.661	1	2
653.847	1	6
655.034	1	1
656.220	1	0
657.406	1	2
658.593	1	5
659.779	1	9
660.965	1	6
662.152	1	1
663.338	1	8
664.524	1	0
665.710	1	9
666.896	1	2
668.082	1	7
669.268	1	0
670.454	1	2
671.640	1	-12
672.826	1	8
674.011	1	5
675.197	1	2
676.383	1	5
677.569	1	5
678.754	1	4
679.940	1	-3
681.125	1	11
682.311	1	-3
683.496	1	5
684.682	1	1
685.867	1	9
687.053	1	-2
688.238	1	6
688.746	1	12