File: Data/GaN_130K_350ms/GaN_sample F_spot6_UVVIS_130 K_200um_350 ms 2x2mm1_104.txt
340.368	1	4
341.565	1	9
342.763	1	12
343.960	1	-2
345.157	1	-4
346.354	1	3
347.552	1	0
348.749	1	10
349.946	1	10
351.143	1	11
352.340	1	13
353.537	1	3
354.734	1	13
355.931	1	13
357.127	1	14
358.324	1	19
359.521	1	18
360.718	1	29
361.914	1	46
363.111	1	63
364.308	1	81
365.504	1	88
366.701	1	86
367.897	1	108
369.093	1	102
370.290	1	100
371.486	1	83
372.682	1	70
373.879	1	65
375.075	1	60
376.271	1	42
377.467	1	37
378.663	1	38
379.859	1	36
381.055	1	36
382.251	1	21
383.447	1	36
384.643	1	32
385.839	1	26
387.035	1	33
388.230	1	14
389.426	1	19
390.622	1	30
391.817	1	25
393.013	1	17
394.208	1	5
395.404	1	13
396.599	1	20
397.795	1	13
398.990	1	17
400.186	1	11
401.381	1	12
402.576	1	12
403.771	1	18
404.967	1	15
406.162	1	2
407.357	1	18
408.552	1	6
409.747	1	3
410.942	1	11
412.137	1	-4
413.332	1	-2
414.526	1	3
415.721	1	12
416.916	1	0
418.111	1	8
419.305	1	16
420.500	1	14
421.695	1	9
422.889	1	11
424.084	1	9
425.278	1	-2
426.472	1	11
427.667	1	17
428.861	1	0
430.055	1	10
431.250	1	10
432.444	1	11
433.638	1	6
434.832	1	3
436.026	1	6
437.220	1	3
438.414	1	-3
439.608	1	3
440.802	1	9
441.996	1	11
443.190	1	8
444.384	1	0
445.578	1	-1
446.771	1	14
447.965	1	-3
449.159	1	12
450.352	1	13
451.546	1	1
452.739	1	8
453.933	1	6
455.126	1	2
456.320	1	5
457.513	1	8
458.706	1	12
459.899	1	4
461.093	1	17
462.286	1	9
463.479	1	11
464.672	1	10
465.865	1	-2
467.058	1	7
468.251	1	14
469.444	1	4
470.637	1	9
471.830	1	12
473.023	1	13
474.215	1	1
475.408	1	9
476.601	1	-1
477.793	1	-3
478.986	1	-4
480.179	1	4
481.371	1	17
482.564	1	5
483.756	1	5
484.948	1	10
486.141	1	16
487.333	1	1
488.525	1	7
489.718	1	23
490.910	1	-2
492.102	1	18
493.294	1	18
494.486	1	26
495.678	1	7
496.870	1	17
498.062	1	11
499.254	1	12
500.446	1	24
501.638	1	21
502.829	1	18
504.021	1	24
505.213	1	22
506.404	1	19
507.596	1	31
508.788	1	28
509.979	1	26
511.171	1	52
512.362	1	30
513.553	1	32
514.745	1	35
515.936	1	41
517.127	1	32
518.319	1	33
519.510	1	26
520.701	1	39
521.892	1	47
523.083	1	49
524.274	1	27
525.465	1	47
526.656	1	43
527.847	1	42
529.038	1	38
530.229	1	49
531.419	1	46
532.610	1	44
533.801	1	48
534.991	1	43
536.182	1	46
537.373	1	38
538.563	1	40
539.754	1	28
540.944	1	40
542.134	1	35
543.325	1	37
544.515	1	35
545.705	1	30
546.896	1	36
548.086	1	26
549.276	1	28
550.466	1	40
551.656	1	37
552.846	1	30
554.036	1	26
555.226	1	40
556.416	1	38
557.606	1	30
558.796	1	42
559.986	1	21
561.175	1	17
562.365	1	18
563.555	1	35
564.744	1	22
565.934	1	10
567.123	1	35
568.313	1	21
569.502	1	23
570.692	1	30
571.881	1	17
573.070	1	16
574.260	1	23
575.449	1	24
576.638	1	11
577.827	1	8
579.016	1	14
580.205	1	9
581.394	1	18
582.583	1	21
583.772	1	11
584.961	1	8
586.150	1	20
587.339	1	19
588.528	1	19
589.717	1	7
590.905	1	17
592.094	1	12
593.283	1	-4
594.471	1	18
595.660	1	11
596.848	1	4
598.037	1	11
599.225	1	15
600.413	1	17
601.602	1	4
602.790	1	5
603.978	1	11
605.166	1	11
606.355	1	15
607.543	1	9
608.731	1	7
609.919	1	11
611.107	1	13
612.295	1	15
613.483	1	7
614.671	1	13
615.858	1	2
617.046	1	14
618.234	1	-1
619.422	1	11
620.609	1	-12
621.797	1	1
622.985	1	12
624.172	1	7
625.360	1	9
626.547	1	2
627.735	1	16
628.922	1	4
630.109	1	15
631.297	1	5
632.484	1	-1
633.671	1	1
634.858	1	8
636.045	1	22
637.232	1	2
638.419	1	5
639.606	1	10
640.793	1	-7
641.980	1	7
643.167	1	14
644.354	1	-2
645.541	1	9
646.728	1	9
647.914	1	4
649.101	1	-2
650.288	1	13
651.474	1	-1
652.661	1	3
653.847	1	3
655.034	1	-4
656.220	1	-1
657.406	1	-5
658.593	1	1
659.779	1	14
660.965	1	-2
662.152	1	-3
663.338	1	8
664.524	1	2
665.710	1	8
666.896	1	13
668.082	1	5
669.268	1	2
670.454	1	6
671.640	1	-6
672.826	1	12
674.011	1	4
675.197	1	8
676.383	1	-2
677.569	1	1
678.754	1	17
679.940	1	6
681.125	1	14
682.311	1	-7
683.496	1	4
684.682	1	-2
685.867	1	6
687.053	1	8
688.238	1	24
688.746	1	7