File: Data/GaN_130K_350ms/GaN_sample F_spot6_UVVIS_130 K_200um_350 ms 2x2mm1_275.txt
340.368	1	2
341.565	1	7
342.763	1	1
343.960	1	-7
345.157	1	-15
346.354	1	-6
347.552	1	-5
348.749	1	4
349.946	1	3
351.143	1	0
352.340	1	9
353.537	1	5
354.734	1	-4
355.931	1	-4
357.127	1	2
358.324	1	-2
359.521	1	-7
360.718	1	8
361.914	1	5
363.111	1	16
364.308	1	9
365.504	1	10
366.701	1	10
367.897	1	7
369.093	1	6
370.290	1	9
371.486	1	12
372.682	1	8
373.879	1	13
375.075	1	9
376.271	1	21
377.467	1	10
378.663	1	4
379.859	1	8
381.055	1	4
382.251	1	4
383.447	1	10
384.643	1	11
385.839	1	9
387.035	1	-1
388.230	1	7
389.426	1	8
390.622	1	3
391.817	1	9
393.013	1	7
394.208	1	0
395.404	1	-3
396.599	1	14
397.795	1	-8
398.990	1	5
400.186	1	4
401.381	1	6
402.576	1	5
403.771	1	12
404.967	1	5
406.162	1	3
407.357	1	2
408.552	1	8
409.747	1	4
410.942	1	8
412.137	1	5
413.332	1	-3
414.526	1	2
415.721	1	4
416.916	1	4
418.111	1	7
419.305	1	0
420.500	1	9
421.695	1	4
422.889	1	11
424.084	1	23
425.278	1	2
426.472	1	5
427.667	1	14
428.861	1	-7
430.055	1	5
431.250	1	10
432.444	1	6
433.638	1	5
434.832	1	6
436.026	1	4
437.220	1	-6
438.414	1	1
439.608	1	7
440.802	1	-11
441.996	1	10
443.190	1	2
444.384	1	-4
445.578	1	-6
446.771	1	2
447.965	1	2
449.159	1	5
450.352	1	8
451.546	1	9
452.739	1	2
453.933	1	9
455.126	1	-9
456.320	1	3
457.513	1	0
458.706	1	3
459.899	1	6
461.093	1	11
462.286	1	18
463.479	1	9
464.672	1	6
465.865	1	-7
467.058	1	2
468.251	1	4
469.444	1	2
470.637	1	7
471.830	1	1
473.023	1	4
474.215	1	-6
475.408	1	7
476.601	1	2
477.793	1	1
478.986	1	-2
480.179	1	-5
481.371	1	4
482.564	1	3
483.756	1	4
484.948	1	-6
486.141	1	-1
487.333	1	-6
488.525	1	0
489.718	1	8
490.910	1	-3
492.102	1	6
493.294	1	4
494.486	1	11
495.678	1	-13
496.870	1	3
498.062	1	-4
499.254	1	12
500.446	1	0
501.638	1	7
502.829	1	-6
504.021	1	-3
505.213	1	1
506.404	1	-7
507.596	1	2
508.788	1	-2
509.979	1	-3
511.171	1	10
512.362	1	-4
513.553	1	1
514.745	1	1
515.936	1	13
517.127	1	-2
518.319	1	3
519.510	1	-4
520.701	1	3
521.892	1	6
523.083	1	5
524.274	1	-3
525.465	1	2
526.656	1	8
527.847	1	-9
529.038	1	-3
530.229	1	9
531.419	1	3
532.610	1	9
533.801	1	19
534.991	1	-2
536.182	1	10
537.373	1	1
538.563	1	7
539.754	1	4
540.944	1	5
542.134	1	-1
543.325	1	2
544.515	1	10
545.705	1	-1
546.896	1	-7
548.086	1	-6
549.276	1	0
550.466	1	6
551.656	1	-1
552.846	1	5
554.036	1	3
555.226	1	1
556.416	1	6
557.606	1	-2
558.796	1	21
559.986	1	6
561.175	1	-1
562.365	1	1
563.555	1	5
564.744	1	2
565.934	1	-3
567.123	1	8
568.313	1	-3
569.502	1	1
570.692	1	15
571.881	1	4
573.070	1	4
574.260	1	1
575.449	1	1
576.638	1	3
577.827	1	-15
579.016	1	0
580.205	1	-2
581.394	1	6
582.583	1	1
583.772	1	3
584.961	1	0
586.150	1	-3
587.339	1	5
588.528	1	4
589.717	1	-1
590.905	1	6
592.094	1	8
593.283	1	-7
594.471	1	9
595.660	1	3
596.848	1	1
598.037	1	4
599.225	1	8
600.413	1	12
601.602	1	11
602.790	1	0
603.978	1	-1
605.166	1	6
606.355	1	15
607.543	1	-1
608.731	1	0
609.919	1	11
611.107	1	4
612.295	1	8
613.483	1	-5
614.671	1	9
615.858	1	-7
617.046	1	-1
618.234	1	-3
619.422	1	5
620.609	1	-4
621.797	1	-6
622.985	1	12
624.172	1	2
625.360	1	-4
626.547	1	6
627.735	1	6
628.922	1	3
630.109	1	-6
631.297	1	8
632.484	1	-12
633.671	1	-6
634.858	1	10
636.045	1	11
637.232	1	-13
638.419	1	7
639.606	1	10
640.793	1	-13
641.980	1	-6
643.167	1	1
644.354	1	-5
645.541	1	0
646.728	1	4
647.914	1	-1
649.101	1	3
650.288	1	13
651.474	1	-2
652.661	1	0
653.847	1	4
655.034	1	-4
656.220	1	-7
657.406	1	3
658.593	1	1
659.779	1	5
660.965	1	-2
662.152	1	-1
663.338	1	-2
664.524	1	0
665.710	1	0
666.896	1	2
668.082	1	4
669.268	1	-3
670.454	1	0
671.640	1	0
672.826	1	-1
674.011	1	1
675.197	1	-6
676.383	1	10
677.569	1	1
678.754	1	7
679.940	1	-1
681.125	1	5
682.311	1	-9
683.496	1	3
684.682	1	-1
685.867	1	0
687.053	1	6
688.238	1	10
688.746	1	10