File: Data/GaN_130K_350ms/GaN_sample F_spot6_UVVIS_130 K_200um_350 ms 2x2mm1_307.txt
340.368	1	2
341.565	1	0
342.763	1	5
343.960	1	-9
345.157	1	-9
346.354	1	4
347.552	1	10
348.749	1	-1
349.946	1	6
351.143	1	7
352.340	1	19
353.537	1	7
354.734	1	-1
355.931	1	17
357.127	1	12
358.324	1	6
359.521	1	5
360.718	1	14
361.914	1	-3
363.111	1	13
364.308	1	5
365.504	1	10
366.701	1	5
367.897	1	2
369.093	1	15
370.290	1	8
371.486	1	10
372.682	1	8
373.879	1	8
375.075	1	15
376.271	1	6
377.467	1	9
378.663	1	6
379.859	1	10
381.055	1	3
382.251	1	5
383.447	1	-3
384.643	1	-1
385.839	1	10
387.035	1	18
388.230	1	-1
389.426	1	4
390.622	1	-1
391.817	1	10
393.013	1	1
394.208	1	-11
395.404	1	-6
396.599	1	10
397.795	1	-5
398.990	1	3
400.186	1	-4
401.381	1	5
402.576	1	6
403.771	1	10
404.967	1	-3
406.162	1	5
407.357	1	0
408.552	1	-1
409.747	1	-3
410.942	1	6
412.137	1	1
413.332	1	-11
414.526	1	-2
415.721	1	5
416.916	1	0
418.111	1	6
419.305	1	3
420.500	1	6
421.695	1	0
422.889	1	3
424.084	1	11
425.278	1	-1
426.472	1	6
427.667	1	4
428.861	1	-3
430.055	1	-1
431.250	1	11
432.444	1	-2
433.638	1	6
434.832	1	10
436.026	1	10
437.220	1	-3
438.414	1	1
439.608	1	10
440.802	1	-13
441.996	1	17
443.190	1	1
444.384	1	-7
445.578	1	7
446.771	1	3
447.965	1	0
449.159	1	6
450.352	1	1
451.546	1	1
452.739	1	-6
453.933	1	1
455.126	1	-11
456.320	1	-7
457.513	1	-13
458.706	1	10
459.899	1	-1
461.093	1	8
462.286	1	12
463.479	1	12
464.672	1	1
465.865	1	-4
467.058	1	2
468.251	1	5
469.444	1	7
470.637	1	9
471.830	1	1
473.023	1	3
474.215	1	4
475.408	1	5
476.601	1	-8
477.793	1	-3
478.986	1	-4
480.179	1	3
481.371	1	-1
482.564	1	0
483.756	1	7
484.948	1	5
486.141	1	-4
487.333	1	-9
488.525	1	7
489.718	1	7
490.910	1	3
492.102	1	17
493.294	1	9
494.486	1	10
495.678	1	-1
496.870	1	2
498.062	1	0
499.254	1	14
500.446	1	0
501.638	1	8
502.829	1	0
504.021	1	-2
505.213	1	6
506.404	1	2
507.596	1	-7
508.788	1	2
509.979	1	3
511.171	1	10
512.362	1	-3
513.553	1	9
514.745	1	-4
515.936	1	12
517.127	1	6
518.319	1	-2
519.510	1	1
520.701	1	3
521.892	1	12
523.083	1	6
524.274	1	3
525.465	1	-3
526.656	1	2
527.847	1	2
529.038	1	-11
530.229	1	0
531.419	1	10
532.610	1	0
533.801	1	14
534.991	1	6
536.182	1	7
537.373	1	-1
538.563	1	14
539.754	1	3
540.944	1	5
542.134	1	-11
543.325	1	6
544.515	1	0
545.705	1	6
546.896	1	4
548.086	1	-3
549.276	1	-7
550.466	1	8
551.656	1	14
552.846	1	-4
554.036	1	1
555.226	1	9
556.416	1	14
557.606	1	-1
558.796	1	16
559.986	1	10
561.175	1	1
562.365	1	10
563.555	1	12
564.744	1	11
565.934	1	-2
567.123	1	-3
568.313	1	-8
569.502	1	6
570.692	1	3
571.881	1	1
573.070	1	7
574.260	1	7
575.449	1	2
576.638	1	-4
577.827	1	-7
579.016	1	-3
580.205	1	-5
581.394	1	7
582.583	1	13
583.772	1	10
584.961	1	8
586.150	1	10
587.339	1	2
588.528	1	-3
589.717	1	-2
590.905	1	1
592.094	1	-3
593.283	1	-6
594.471	1	2
595.660	1	1
596.848	1	7
598.037	1	7
599.225	1	3
600.413	1	4
601.602	1	-4
602.790	1	1
603.978	1	-1
605.166	1	8
606.355	1	6
607.543	1	5
608.731	1	-2
609.919	1	4
611.107	1	7
612.295	1	1
613.483	1	-6
614.671	1	6
615.858	1	-1
617.046	1	3
618.234	1	7
619.422	1	-4
620.609	1	-9
621.797	1	-5
622.985	1	10
624.172	1	-7
625.360	1	-3
626.547	1	9
627.735	1	4
628.922	1	-8
630.109	1	0
631.297	1	0
632.484	1	-5
633.671	1	-2
634.858	1	12
636.045	1	12
637.232	1	-11
638.419	1	-2
639.606	1	1
640.793	1	-4
641.980	1	2
643.167	1	4
644.354	1	2
645.541	1	-1
646.728	1	6
647.914	1	-12
649.101	1	-3
650.288	1	9
651.474	1	3
652.661	1	1
653.847	1	-6
655.034	1	4
656.220	1	-7
657.406	1	12
658.593	1	-2
659.779	1	5
660.965	1	5
662.152	1	3
663.338	1	-4
664.524	1	1
665.710	1	-5
666.896	1	-3
668.082	1	1
669.268	1	0
670.454	1	5
671.640	1	-14
672.826	1	2
674.011	1	9
675.197	1	4
676.383	1	7
677.569	1	2
678.754	1	1
679.940	1	-1
681.125	1	9
682.311	1	0
683.496	1	-4
684.682	1	-8
685.867	1	1
687.053	1	-1
688.238	1	5
688.746	1	1