File: Data/GaN_130K_350ms/GaN_sample F_spot6_UVVIS_130 K_200um_350 ms 2x2mm1_123.txt
340.368	1	10
341.565	1	-3
342.763	1	3
343.960	1	-10
345.157	1	-13
346.354	1	5
347.552	1	-3
348.749	1	5
349.946	1	3
351.143	1	5
352.340	1	12
353.537	1	2
354.734	1	9
355.931	1	9
357.127	1	11
358.324	1	13
359.521	1	12
360.718	1	31
361.914	1	21
363.111	1	42
364.308	1	40
365.504	1	61
366.701	1	53
367.897	1	53
369.093	1	66
370.290	1	60
371.486	1	43
372.682	1	36
373.879	1	52
375.075	1	33
376.271	1	31
377.467	1	26
378.663	1	25
379.859	1	21
381.055	1	14
382.251	1	15
383.447	1	25
384.643	1	12
385.839	1	11
387.035	1	20
388.230	1	7
389.426	1	19
390.622	1	9
391.817	1	13
393.013	1	22
394.208	1	-3
395.404	1	5
396.599	1	23
397.795	1	4
398.990	1	8
400.186	1	7
401.381	1	8
402.576	1	4
403.771	1	11
404.967	1	6
406.162	1	14
407.357	1	7
408.552	1	8
409.747	1	3
410.942	1	15
412.137	1	-2
413.332	1	0
414.526	1	16
415.721	1	5
416.916	1	6
418.111	1	11
419.305	1	-1
420.500	1	9
421.695	1	5
422.889	1	7
424.084	1	14
425.278	1	4
426.472	1	4
427.667	1	7
428.861	1	8
430.055	1	4
431.250	1	16
432.444	1	14
433.638	1	13
434.832	1	3
436.026	1	10
437.220	1	0
438.414	1	5
439.608	1	15
440.802	1	1
441.996	1	14
443.190	1	8
444.384	1	3
445.578	1	5
446.771	1	4
447.965	1	-5
449.159	1	13
450.352	1	15
451.546	1	16
452.739	1	1
453.933	1	9
455.126	1	-2
456.320	1	4
457.513	1	2
458.706	1	6
459.899	1	10
461.093	1	12
462.286	1	6
463.479	1	11
464.672	1	19
465.865	1	-4
467.058	1	4
468.251	1	12
469.444	1	1
470.637	1	12
471.830	1	0
473.023	1	8
474.215	1	12
475.408	1	7
476.601	1	8
477.793	1	-2
478.986	1	2
480.179	1	1
481.371	1	7
482.564	1	10
483.756	1	3
484.948	1	9
486.141	1	6
487.333	1	1
488.525	1	4
489.718	1	10
490.910	1	1
492.102	1	17
493.294	1	14
494.486	1	14
495.678	1	9
496.870	1	6
498.062	1	2
499.254	1	18
500.446	1	16
501.638	1	15
502.829	1	11
504.021	1	15
505.213	1	13
506.404	1	10
507.596	1	18
508.788	1	13
509.979	1	14
511.171	1	26
512.362	1	13
513.553	1	26
514.745	1	15
515.936	1	24
517.127	1	27
518.319	1	9
519.510	1	27
520.701	1	23
521.892	1	21
523.083	1	19
524.274	1	21
525.465	1	27
526.656	1	22
527.847	1	15
529.038	1	12
530.229	1	24
531.419	1	22
532.610	1	23
533.801	1	39
534.991	1	16
536.182	1	36
537.373	1	30
538.563	1	32
539.754	1	23
540.944	1	20
542.134	1	10
543.325	1	22
544.515	1	23
545.705	1	25
546.896	1	25
548.086	1	18
549.276	1	17
550.466	1	22
551.656	1	12
552.846	1	8
554.036	1	17
555.226	1	12
556.416	1	26
557.606	1	12
558.796	1	21
559.986	1	12
561.175	1	23
562.365	1	18
563.555	1	17
564.744	1	14
565.934	1	10
567.123	1	15
568.313	1	10
569.502	1	7
570.692	1	23
571.881	1	9
573.070	1	6
574.260	1	12
575.449	1	7
576.638	1	-1
577.827	1	3
579.016	1	5
580.205	1	8
581.394	1	14
582.583	1	18
583.772	1	9
584.961	1	8
586.150	1	12
587.339	1	9
588.528	1	18
589.717	1	4
590.905	1	13
592.094	1	12
593.283	1	1
594.471	1	6
595.660	1	4
596.848	1	9
598.037	1	9
599.225	1	3
600.413	1	22
601.602	1	5
602.790	1	8
603.978	1	0
605.166	1	3
606.355	1	14
607.543	1	4
608.731	1	11
609.919	1	15
611.107	1	12
612.295	1	3
613.483	1	1
614.671	1	13
615.858	1	6
617.046	1	12
618.234	1	3
619.422	1	4
620.609	1	-3
621.797	1	1
622.985	1	6
624.172	1	0
625.360	1	5
626.547	1	4
627.735	1	-3
628.922	1	-9
630.109	1	10
631.297	1	2
632.484	1	-8
633.671	1	-3
634.858	1	10
636.045	1	18
637.232	1	-3
638.419	1	10
639.606	1	9
640.793	1	-8
641.980	1	-1
643.167	1	6
644.354	1	-5
645.541	1	6
646.728	1	10
647.914	1	2
649.101	1	2
650.288	1	2
651.474	1	4
652.661	1	2
653.847	1	-9
655.034	1	4
656.220	1	-5
657.406	1	6
658.593	1	7
659.779	1	2
660.965	1	2
662.152	1	-8
663.338	1	-3
664.524	1	3
665.710	1	7
666.896	1	9
668.082	1	11
669.268	1	-3
670.454	1	-3
671.640	1	-4
672.826	1	6
674.011	1	2
675.197	1	9
676.383	1	2
677.569	1	0
678.754	1	8
679.940	1	7
681.125	1	9
682.311	1	-6
683.496	1	-3
684.682	1	4
685.867	1	1
687.053	1	3
688.238	1	15
688.746	1	6