File: Data/GaN_130K_350ms/GaN_sample F_spot6_UVVIS_130 K_200um_350 ms 2x2mm1_158.txt
340.368	1	5
341.565	1	6
342.763	1	4
343.960	1	-11
345.157	1	-5
346.354	1	6
347.552	1	-4
348.749	1	4
349.946	1	7
351.143	1	-2
352.340	1	8
353.537	1	5
354.734	1	0
355.931	1	7
357.127	1	4
358.324	1	10
359.521	1	7
360.718	1	11
361.914	1	14
363.111	1	19
364.308	1	39
365.504	1	28
366.701	1	26
367.897	1	28
369.093	1	36
370.290	1	31
371.486	1	33
372.682	1	18
373.879	1	13
375.075	1	26
376.271	1	13
377.467	1	16
378.663	1	11
379.859	1	5
381.055	1	16
382.251	1	10
383.447	1	10
384.643	1	7
385.839	1	10
387.035	1	16
388.230	1	4
389.426	1	21
390.622	1	15
391.817	1	11
393.013	1	15
394.208	1	8
395.404	1	-6
396.599	1	10
397.795	1	-4
398.990	1	12
400.186	1	-6
401.381	1	9
402.576	1	4
403.771	1	14
404.967	1	11
406.162	1	12
407.357	1	9
408.552	1	5
409.747	1	5
410.942	1	3
412.137	1	-4
413.332	1	4
414.526	1	11
415.721	1	4
416.916	1	13
418.111	1	5
419.305	1	3
420.500	1	16
421.695	1	9
422.889	1	6
424.084	1	17
425.278	1	8
426.472	1	8
427.667	1	2
428.861	1	7
430.055	1	5
431.250	1	8
432.444	1	3
433.638	1	14
434.832	1	1
436.026	1	11
437.220	1	6
438.414	1	-4
439.608	1	7
440.802	1	4
441.996	1	12
443.190	1	8
444.384	1	-3
445.578	1	3
446.771	1	7
447.965	1	6
449.159	1	3
450.352	1	-1
451.546	1	12
452.739	1	8
453.933	1	5
455.126	1	1
456.320	1	8
457.513	1	1
458.706	1	3
459.899	1	2
461.093	1	6
462.286	1	3
463.479	1	16
464.672	1	12
465.865	1	-3
467.058	1	9
468.251	1	11
469.444	1	3
470.637	1	3
471.830	1	6
473.023	1	6
474.215	1	-1
475.408	1	0
476.601	1	2
477.793	1	-1
478.986	1	5
480.179	1	-6
481.371	1	9
482.564	1	-1
483.756	1	-8
484.948	1	-3
486.141	1	2
487.333	1	-2
488.525	1	10
489.718	1	9
490.910	1	-3
492.102	1	4
493.294	1	12
494.486	1	14
495.678	1	-1
496.870	1	2
498.062	1	0
499.254	1	12
500.446	1	6
501.638	1	8
502.829	1	5
504.021	1	4
505.213	1	8
506.404	1	10
507.596	1	0
508.788	1	8
509.979	1	6
511.171	1	12
512.362	1	0
513.553	1	8
514.745	1	8
515.936	1	21
517.127	1	17
518.319	1	8
519.510	1	7
520.701	1	4
521.892	1	19
523.083	1	14
524.274	1	-3
525.465	1	13
526.656	1	8
527.847	1	6
529.038	1	4
530.229	1	24
531.419	1	16
532.610	1	4
533.801	1	23
534.991	1	10
536.182	1	15
537.373	1	7
538.563	1	19
539.754	1	11
540.944	1	15
542.134	1	9
543.325	1	5
544.515	1	13
545.705	1	2
546.896	1	6
548.086	1	7
549.276	1	4
550.466	1	17
551.656	1	12
552.846	1	1
554.036	1	16
555.226	1	16
556.416	1	14
557.606	1	0
558.796	1	17
559.986	1	11
561.175	1	13
562.365	1	6
563.555	1	9
564.744	1	9
565.934	1	5
567.123	1	8
568.313	1	-1
569.502	1	6
570.692	1	22
571.881	1	6
573.070	1	2
574.260	1	4
575.449	1	14
576.638	1	-4
577.827	1	2
579.016	1	3
580.205	1	-6
581.394	1	12
582.583	1	14
583.772	1	12
584.961	1	0
586.150	1	12
587.339	1	6
588.528	1	9
589.717	1	8
590.905	1	12
592.094	1	1
593.283	1	2
594.471	1	0
595.660	1	12
596.848	1	12
598.037	1	-2
599.225	1	4
600.413	1	14
601.602	1	1
602.790	1	-6
603.978	1	-1
605.166	1	10
606.355	1	7
607.543	1	4
608.731	1	10
609.919	1	8
611.107	1	7
612.295	1	10
613.483	1	-1
614.671	1	13
615.858	1	-11
617.046	1	6
618.234	1	-1
619.422	1	5
620.609	1	-9
621.797	1	7
622.985	1	4
624.172	1	6
625.360	1	3
626.547	1	1
627.735	1	17
628.922	1	-6
630.109	1	10
631.297	1	3
632.484	1	-6
633.671	1	-5
634.858	1	8
636.045	1	10
637.232	1	0
638.419	1	3
639.606	1	0
640.793	1	-10
641.980	1	4
643.167	1	-1
644.354	1	2
645.541	1	-1
646.728	1	0
647.914	1	-7
649.101	1	-7
650.288	1	15
651.474	1	-5
652.661	1	6
653.847	1	-2
655.034	1	-4
656.220	1	3
657.406	1	5
658.593	1	-2
659.779	1	0
660.965	1	-1
662.152	1	3
663.338	1	5
664.524	1	-4
665.710	1	2
666.896	1	8
668.082	1	1
669.268	1	1
670.454	1	-2
671.640	1	-11
672.826	1	10
674.011	1	5
675.197	1	3
676.383	1	3
677.569	1	4
678.754	1	-3
679.940	1	1
681.125	1	8
682.311	1	-6
683.496	1	-2
684.682	1	7
685.867	1	7
687.053	1	-9
688.238	1	6
688.746	1	5