File: Data/GaN_130K_350ms/GaN_sample F_spot6_UVVIS_130 K_200um_350 ms 2x2mm1_20.txt
340.368	1	4
341.565	1	0
342.763	1	-2
343.960	1	-5
345.157	1	-6
346.354	1	13
347.552	1	-2
348.749	1	-7
349.946	1	7
351.143	1	-1
352.340	1	0
353.537	1	4
354.734	1	-6
355.931	1	-4
357.127	1	7
358.324	1	0
359.521	1	4
360.718	1	-1
361.914	1	3
363.111	1	4
364.308	1	9
365.504	1	2
366.701	1	1
367.897	1	2
369.093	1	4
370.290	1	6
371.486	1	6
372.682	1	2
373.879	1	8
375.075	1	4
376.271	1	11
377.467	1	15
378.663	1	-7
379.859	1	5
381.055	1	4
382.251	1	8
383.447	1	2
384.643	1	1
385.839	1	4
387.035	1	7
388.230	1	0
389.426	1	6
390.622	1	6
391.817	1	1
393.013	1	3
394.208	1	-4
395.404	1	-5
396.599	1	3
397.795	1	-4
398.990	1	-8
400.186	1	-4
401.381	1	-3
402.576	1	3
403.771	1	6
404.967	1	-2
406.162	1	-3
407.357	1	-10
408.552	1	1
409.747	1	-5
410.942	1	2
412.137	1	-5
413.332	1	-1
414.526	1	8
415.721	1	0
416.916	1	-3
418.111	1	1
419.305	1	1
420.500	1	-5
421.695	1	-1
422.889	1	-7
424.084	1	11
425.278	1	-6
426.472	1	-9
427.667	1	-3
428.861	1	3
430.055	1	-4
431.250	1	2
432.444	1	-2
433.638	1	4
434.832	1	-7
436.026	1	1
437.220	1	-6
438.414	1	-3
439.608	1	11
440.802	1	-16
441.996	1	1
443.190	1	0
444.384	1	-10
445.578	1	-4
446.771	1	4
447.965	1	-1
449.159	1	2
450.352	1	5
451.546	1	12
452.739	1	0
453.933	1	5
455.126	1	3
456.320	1	-4
457.513	1	-14
458.706	1	1
459.899	1	1
461.093	1	15
462.286	1	3
463.479	1	15
464.672	1	12
465.865	1	-18
467.058	1	-6
468.251	1	0
469.444	1	2
470.637	1	2
471.830	1	-1
473.023	1	1
474.215	1	0
475.408	1	5
476.601	1	2
477.793	1	-5
478.986	1	2
480.179	1	-7
481.371	1	10
482.564	1	5
483.756	1	0
484.948	1	0
486.141	1	-7
487.333	1	-1
488.525	1	3
489.718	1	5
490.910	1	-4
492.102	1	8
493.294	1	-2
494.486	1	9
495.678	1	-1
496.870	1	-3
498.062	1	-10
499.254	1	2
500.446	1	8
501.638	1	-3
502.829	1	-5
504.021	1	-7
505.213	1	3
506.404	1	0
507.596	1	-2
508.788	1	3
509.979	1	-7
511.171	1	7
512.362	1	-9
513.553	1	2
514.745	1	-3
515.936	1	16
517.127	1	-2
518.319	1	-2
519.510	1	-7
520.701	1	-3
521.892	1	-2
523.083	1	-3
524.274	1	-9
525.465	1	0
526.656	1	1
527.847	1	-8
529.038	1	-3
530.229	1	4
531.419	1	2
532.610	1	-2
533.801	1	8
534.991	1	1
536.182	1	0
537.373	1	5
538.563	1	13
539.754	1	-4
540.944	1	5
542.134	1	3
543.325	1	-3
544.515	1	3
545.705	1	-1
546.896	1	-3
548.086	1	-6
549.276	1	-6
550.466	1	3
551.656	1	-1
552.846	1	2
554.036	1	2
555.226	1	0
556.416	1	5
557.606	1	3
558.796	1	9
559.986	1	-4
561.175	1	3
562.365	1	1
563.555	1	4
564.744	1	-1
565.934	1	5
567.123	1	1
568.313	1	-3
569.502	1	1
570.692	1	9
571.881	1	-2
573.070	1	1
574.260	1	1
575.449	1	-3
576.638	1	-12
577.827	1	-1
579.016	1	0
580.205	1	3
581.394	1	2
582.583	1	6
583.772	1	6
584.961	1	-5
586.150	1	7
587.339	1	2
588.528	1	8
589.717	1	-7
590.905	1	1
592.094	1	3
593.283	1	-3
594.471	1	0
595.660	1	-2
596.848	1	10
598.037	1	2
599.225	1	9
600.413	1	2
601.602	1	-2
602.790	1	-9
603.978	1	5
605.166	1	8
606.355	1	5
607.543	1	3
608.731	1	0
609.919	1	4
611.107	1	7
612.295	1	12
613.483	1	0
614.671	1	4
615.858	1	-4
617.046	1	14
618.234	1	4
619.422	1	0
620.609	1	-11
621.797	1	0
622.985	1	8
624.172	1	3
625.360	1	2
626.547	1	10
627.735	1	7
628.922	1	-3
630.109	1	10
631.297	1	2
632.484	1	-5
633.671	1	-4
634.858	1	-3
636.045	1	10
637.232	1	2
638.419	1	5
639.606	1	6
640.793	1	-9
641.980	1	0
643.167	1	1
644.354	1	-11
645.541	1	-5
646.728	1	4
647.914	1	-3
649.101	1	-5
650.288	1	15
651.474	1	-12
652.661	1	-11
653.847	1	-8
655.034	1	-2
656.220	1	4
657.406	1	-3
658.593	1	6
659.779	1	-1
660.965	1	-2
662.152	1	-3
663.338	1	-5
664.524	1	-4
665.710	1	-4
666.896	1	4
668.082	1	2
669.268	1	2
670.454	1	1
671.640	1	-8
672.826	1	-1
674.011	1	-4
675.197	1	4
676.383	1	7
677.569	1	1
678.754	1	4
679.940	1	-2
681.125	1	8
682.311	1	-9
683.496	1	-1
684.682	1	1
685.867	1	-7
687.053	1	-1
688.238	1	9
688.746	1	5