File: Data/GaN_130K_350ms/GaN_sample F_spot6_UVVIS_130 K_200um_350 ms 2x2mm1_131.txt
340.368	1	-2
341.565	1	2
342.763	1	11
343.960	1	-10
345.157	1	-10
346.354	1	6
347.552	1	1
348.749	1	6
349.946	1	4
351.143	1	6
352.340	1	12
353.537	1	9
354.734	1	-1
355.931	1	5
357.127	1	15
358.324	1	11
359.521	1	7
360.718	1	26
361.914	1	15
363.111	1	32
364.308	1	44
365.504	1	52
366.701	1	58
367.897	1	57
369.093	1	51
370.290	1	48
371.486	1	38
372.682	1	43
373.879	1	38
375.075	1	38
376.271	1	27
377.467	1	30
378.663	1	16
379.859	1	22
381.055	1	26
382.251	1	17
383.447	1	21
384.643	1	19
385.839	1	18
387.035	1	15
388.230	1	11
389.426	1	21
390.622	1	12
391.817	1	7
393.013	1	12
394.208	1	6
395.404	1	8
396.599	1	17
397.795	1	1
398.990	1	8
400.186	1	0
401.381	1	10
402.576	1	3
403.771	1	14
404.967	1	1
406.162	1	8
407.357	1	10
408.552	1	5
409.747	1	6
410.942	1	9
412.137	1	-3
413.332	1	12
414.526	1	17
415.721	1	6
416.916	1	7
418.111	1	10
419.305	1	13
420.500	1	8
421.695	1	2
422.889	1	9
424.084	1	8
425.278	1	4
426.472	1	7
427.667	1	8
428.861	1	6
430.055	1	1
431.250	1	12
432.444	1	16
433.638	1	12
434.832	1	7
436.026	1	9
437.220	1	-2
438.414	1	6
439.608	1	11
440.802	1	-1
441.996	1	15
443.190	1	-2
444.384	1	3
445.578	1	3
446.771	1	4
447.965	1	6
449.159	1	1
450.352	1	13
451.546	1	7
452.739	1	4
453.933	1	3
455.126	1	-4
456.320	1	8
457.513	1	2
458.706	1	9
459.899	1	0
461.093	1	2
462.286	1	13
463.479	1	13
464.672	1	5
465.865	1	-3
467.058	1	1
468.251	1	-2
469.444	1	6
470.637	1	11
471.830	1	6
473.023	1	7
474.215	1	6
475.408	1	11
476.601	1	1
477.793	1	-5
478.986	1	-2
480.179	1	-5
481.371	1	9
482.564	1	-1
483.756	1	2
484.948	1	3
486.141	1	6
487.333	1	-1
488.525	1	11
489.718	1	11
490.910	1	3
492.102	1	20
493.294	1	15
494.486	1	19
495.678	1	9
496.870	1	4
498.062	1	3
499.254	1	13
500.446	1	10
501.638	1	15
502.829	1	11
504.021	1	15
505.213	1	13
506.404	1	18
507.596	1	14
508.788	1	16
509.979	1	3
511.171	1	24
512.362	1	7
513.553	1	25
514.745	1	15
515.936	1	26
517.127	1	17
518.319	1	16
519.510	1	9
520.701	1	23
521.892	1	14
523.083	1	17
524.274	1	14
525.465	1	25
526.656	1	17
527.847	1	17
529.038	1	15
530.229	1	23
531.419	1	24
532.610	1	21
533.801	1	36
534.991	1	19
536.182	1	30
537.373	1	17
538.563	1	29
539.754	1	19
540.944	1	9
542.134	1	13
543.325	1	28
544.515	1	24
545.705	1	13
546.896	1	15
548.086	1	14
549.276	1	7
550.466	1	19
551.656	1	23
552.846	1	13
554.036	1	14
555.226	1	14
556.416	1	18
557.606	1	10
558.796	1	21
559.986	1	13
561.175	1	18
562.365	1	19
563.555	1	17
564.744	1	21
565.934	1	16
567.123	1	9
568.313	1	4
569.502	1	13
570.692	1	15
571.881	1	7
573.070	1	2
574.260	1	12
575.449	1	1
576.638	1	-1
577.827	1	-6
579.016	1	9
580.205	1	3
581.394	1	14
582.583	1	17
583.772	1	10
584.961	1	2
586.150	1	9
587.339	1	9
588.528	1	12
589.717	1	5
590.905	1	16
592.094	1	10
593.283	1	0
594.471	1	7
595.660	1	3
596.848	1	9
598.037	1	8
599.225	1	-1
600.413	1	13
601.602	1	1
602.790	1	11
603.978	1	9
605.166	1	21
606.355	1	7
607.543	1	6
608.731	1	10
609.919	1	10
611.107	1	12
612.295	1	3
613.483	1	7
614.671	1	6
615.858	1	5
617.046	1	11
618.234	1	10
619.422	1	5
620.609	1	-2
621.797	1	-1
622.985	1	3
624.172	1	5
625.360	1	6
626.547	1	2
627.735	1	6
628.922	1	-3
630.109	1	4
631.297	1	-1
632.484	1	-7
633.671	1	3
634.858	1	7
636.045	1	15
637.232	1	-8
638.419	1	5
639.606	1	4
640.793	1	-11
641.980	1	2
643.167	1	15
644.354	1	-1
645.541	1	-2
646.728	1	16
647.914	1	1
649.101	1	-1
650.288	1	6
651.474	1	-6
652.661	1	0
653.847	1	8
655.034	1	2
656.220	1	3
657.406	1	13
658.593	1	-6
659.779	1	1
660.965	1	3
662.152	1	11
663.338	1	4
664.524	1	1
665.710	1	13
666.896	1	12
668.082	1	10
669.268	1	6
670.454	1	3
671.640	1	-3
672.826	1	5
674.011	1	3
675.197	1	0
676.383	1	9
677.569	1	8
678.754	1	11
679.940	1	-3
681.125	1	4
682.311	1	-7
683.496	1	-2
684.682	1	-1
685.867	1	6
687.053	1	21
688.238	1	20
688.746	1	2