File: Data/GaN_130K_350ms/GaN_sample F_spot6_UVVIS_130 K_200um_350 ms 2x2mm1_299.txt
340.368	1	-2
341.565	1	-4
342.763	1	4
343.960	1	-15
345.157	1	-13
346.354	1	-3
347.552	1	6
348.749	1	5
349.946	1	3
351.143	1	8
352.340	1	17
353.537	1	-8
354.734	1	0
355.931	1	3
357.127	1	9
358.324	1	-5
359.521	1	-4
360.718	1	15
361.914	1	-2
363.111	1	11
364.308	1	14
365.504	1	6
366.701	1	9
367.897	1	4
369.093	1	-2
370.290	1	9
371.486	1	12
372.682	1	9
373.879	1	2
375.075	1	13
376.271	1	9
377.467	1	5
378.663	1	-1
379.859	1	1
381.055	1	9
382.251	1	-1
383.447	1	5
384.643	1	7
385.839	1	3
387.035	1	12
388.230	1	-8
389.426	1	8
390.622	1	-4
391.817	1	8
393.013	1	4
394.208	1	-1
395.404	1	-9
396.599	1	15
397.795	1	-9
398.990	1	8
400.186	1	1
401.381	1	7
402.576	1	11
403.771	1	15
404.967	1	7
406.162	1	-6
407.357	1	2
408.552	1	-4
409.747	1	3
410.942	1	2
412.137	1	-9
413.332	1	5
414.526	1	9
415.721	1	-1
416.916	1	-1
418.111	1	9
419.305	1	6
420.500	1	2
421.695	1	-2
422.889	1	-4
424.084	1	6
425.278	1	-2
426.472	1	0
427.667	1	18
428.861	1	1
430.055	1	2
431.250	1	14
432.444	1	6
433.638	1	0
434.832	1	0
436.026	1	5
437.220	1	-4
438.414	1	-4
439.608	1	9
440.802	1	-12
441.996	1	8
443.190	1	0
444.384	1	1
445.578	1	3
446.771	1	8
447.965	1	0
449.159	1	1
450.352	1	5
451.546	1	7
452.739	1	0
453.933	1	2
455.126	1	-4
456.320	1	-6
457.513	1	-10
458.706	1	4
459.899	1	4
461.093	1	10
462.286	1	4
463.479	1	8
464.672	1	9
465.865	1	-5
467.058	1	2
468.251	1	0
469.444	1	0
470.637	1	8
471.830	1	8
473.023	1	0
474.215	1	4
475.408	1	3
476.601	1	-1
477.793	1	3
478.986	1	-4
480.179	1	-2
481.371	1	9
482.564	1	-3
483.756	1	-5
484.948	1	8
486.141	1	1
487.333	1	4
488.525	1	9
489.718	1	7
490.910	1	-11
492.102	1	8
493.294	1	3
494.486	1	15
495.678	1	4
496.870	1	3
498.062	1	1
499.254	1	3
500.446	1	5
501.638	1	2
502.829	1	2
504.021	1	2
505.213	1	8
506.404	1	-3
507.596	1	-7
508.788	1	2
509.979	1	-3
511.171	1	4
512.362	1	0
513.553	1	3
514.745	1	-6
515.936	1	23
517.127	1	6
518.319	1	-3
519.510	1	-4
520.701	1	4
521.892	1	8
523.083	1	-2
524.274	1	-7
525.465	1	8
526.656	1	1
527.847	1	9
529.038	1	-3
530.229	1	3
531.419	1	2
532.610	1	6
533.801	1	14
534.991	1	-2
536.182	1	9
537.373	1	8
538.563	1	8
539.754	1	6
540.944	1	5
542.134	1	2
543.325	1	-2
544.515	1	2
545.705	1	4
546.896	1	4
548.086	1	-12
549.276	1	-7
550.466	1	15
551.656	1	-5
552.846	1	-3
554.036	1	2
555.226	1	2
556.416	1	6
557.606	1	0
558.796	1	11
559.986	1	0
561.175	1	7
562.365	1	6
563.555	1	7
564.744	1	6
565.934	1	2
567.123	1	1
568.313	1	-3
569.502	1	0
570.692	1	10
571.881	1	-2
573.070	1	1
574.260	1	3
575.449	1	6
576.638	1	-6
577.827	1	-5
579.016	1	4
580.205	1	1
581.394	1	-2
582.583	1	8
583.772	1	6
584.961	1	-5
586.150	1	6
587.339	1	5
588.528	1	12
589.717	1	-7
590.905	1	3
592.094	1	-9
593.283	1	-7
594.471	1	1
595.660	1	-2
596.848	1	4
598.037	1	2
599.225	1	4
600.413	1	1
601.602	1	-1
602.790	1	0
603.978	1	6
605.166	1	11
606.355	1	14
607.543	1	-1
608.731	1	4
609.919	1	3
611.107	1	1
612.295	1	3
613.483	1	4
614.671	1	-2
615.858	1	-7
617.046	1	9
618.234	1	2
619.422	1	2
620.609	1	-5
621.797	1	2
622.985	1	-3
624.172	1	-4
625.360	1	-6
626.547	1	0
627.735	1	12
628.922	1	-18
630.109	1	5
631.297	1	-3
632.484	1	-10
633.671	1	-1
634.858	1	0
636.045	1	13
637.232	1	-1
638.419	1	3
639.606	1	1
640.793	1	-8
641.980	1	0
643.167	1	9
644.354	1	-1
645.541	1	-1
646.728	1	1
647.914	1	-5
649.101	1	-2
650.288	1	8
651.474	1	0
652.661	1	-12
653.847	1	5
655.034	1	4
656.220	1	-4
657.406	1	1
658.593	1	4
659.779	1	-1
660.965	1	1
662.152	1	7
663.338	1	5
664.524	1	-3
665.710	1	-2
666.896	1	1
668.082	1	-1
669.268	1	3
670.454	1	-5
671.640	1	-12
672.826	1	-3
674.011	1	2
675.197	1	-2
676.383	1	5
677.569	1	2
678.754	1	4
679.940	1	-3
681.125	1	3
682.311	1	-9
683.496	1	-7
684.682	1	-8
685.867	1	-7
687.053	1	-2
688.238	1	8
688.746	1	7