File: Data/GaN_130K_350ms/GaN_sample F_spot6_UVVIS_130 K_200um_350 ms 2x2mm1_231.txt
340.368	1	8
341.565	1	-3
342.763	1	3
343.960	1	-18
345.157	1	-9
346.354	1	4
347.552	1	2
348.749	1	9
349.946	1	6
351.143	1	1
352.340	1	9
353.537	1	1
354.734	1	-1
355.931	1	0
357.127	1	5
358.324	1	-1
359.521	1	0
360.718	1	5
361.914	1	7
363.111	1	11
364.308	1	14
365.504	1	8
366.701	1	11
367.897	1	12
369.093	1	11
370.290	1	15
371.486	1	9
372.682	1	14
373.879	1	8
375.075	1	13
376.271	1	9
377.467	1	13
378.663	1	7
379.859	1	2
381.055	1	-5
382.251	1	6
383.447	1	4
384.643	1	3
385.839	1	6
387.035	1	19
388.230	1	2
389.426	1	10
390.622	1	6
391.817	1	11
393.013	1	0
394.208	1	-1
395.404	1	-6
396.599	1	14
397.795	1	-6
398.990	1	2
400.186	1	2
401.381	1	14
402.576	1	8
403.771	1	9
404.967	1	6
406.162	1	-2
407.357	1	-3
408.552	1	9
409.747	1	3
410.942	1	2
412.137	1	-2
413.332	1	0
414.526	1	12
415.721	1	-1
416.916	1	-2
418.111	1	7
419.305	1	3
420.500	1	-3
421.695	1	0
422.889	1	0
424.084	1	4
425.278	1	1
426.472	1	-4
427.667	1	8
428.861	1	0
430.055	1	3
431.250	1	11
432.444	1	15
433.638	1	8
434.832	1	0
436.026	1	7
437.220	1	2
438.414	1	-2
439.608	1	4
440.802	1	-8
441.996	1	20
443.190	1	0
444.384	1	-11
445.578	1	-2
446.771	1	5
447.965	1	7
449.159	1	10
450.352	1	4
451.546	1	19
452.739	1	3
453.933	1	-4
455.126	1	-1
456.320	1	4
457.513	1	7
458.706	1	5
459.899	1	4
461.093	1	13
462.286	1	10
463.479	1	8
464.672	1	5
465.865	1	-2
467.058	1	3
468.251	1	9
469.444	1	-2
470.637	1	4
471.830	1	4
473.023	1	10
474.215	1	4
475.408	1	12
476.601	1	3
477.793	1	4
478.986	1	-2
480.179	1	-3
481.371	1	7
482.564	1	4
483.756	1	3
484.948	1	4
486.141	1	-3
487.333	1	-3
488.525	1	7
489.718	1	7
490.910	1	-7
492.102	1	12
493.294	1	7
494.486	1	12
495.678	1	-1
496.870	1	7
498.062	1	-6
499.254	1	7
500.446	1	8
501.638	1	1
502.829	1	1
504.021	1	4
505.213	1	0
506.404	1	7
507.596	1	0
508.788	1	8
509.979	1	3
511.171	1	17
512.362	1	4
513.553	1	4
514.745	1	1
515.936	1	17
517.127	1	-6
518.319	1	1
519.510	1	-2
520.701	1	-1
521.892	1	6
523.083	1	6
524.274	1	1
525.465	1	10
526.656	1	4
527.847	1	2
529.038	1	0
530.229	1	5
531.419	1	3
532.610	1	5
533.801	1	12
534.991	1	5
536.182	1	18
537.373	1	8
538.563	1	8
539.754	1	-1
540.944	1	4
542.134	1	8
543.325	1	5
544.515	1	0
545.705	1	0
546.896	1	1
548.086	1	1
549.276	1	-5
550.466	1	17
551.656	1	5
552.846	1	-3
554.036	1	8
555.226	1	10
556.416	1	10
557.606	1	-4
558.796	1	8
559.986	1	10
561.175	1	-4
562.365	1	8
563.555	1	12
564.744	1	5
565.934	1	-12
567.123	1	-2
568.313	1	1
569.502	1	9
570.692	1	10
571.881	1	1
573.070	1	3
574.260	1	13
575.449	1	4
576.638	1	-6
577.827	1	0
579.016	1	-1
580.205	1	-3
581.394	1	0
582.583	1	13
583.772	1	5
584.961	1	0
586.150	1	6
587.339	1	8
588.528	1	9
589.717	1	-2
590.905	1	-1
592.094	1	3
593.283	1	2
594.471	1	6
595.660	1	1
596.848	1	8
598.037	1	10
599.225	1	7
600.413	1	7
601.602	1	3
602.790	1	-2
603.978	1	7
605.166	1	4
606.355	1	8
607.543	1	0
608.731	1	-1
609.919	1	8
611.107	1	1
612.295	1	12
613.483	1	1
614.671	1	5
615.858	1	-1
617.046	1	2
618.234	1	6
619.422	1	0
620.609	1	-3
621.797	1	-10
622.985	1	-2
624.172	1	5
625.360	1	-2
626.547	1	3
627.735	1	11
628.922	1	-4
630.109	1	3
631.297	1	5
632.484	1	-5
633.671	1	-7
634.858	1	12
636.045	1	10
637.232	1	-5
638.419	1	10
639.606	1	1
640.793	1	-6
641.980	1	0
643.167	1	4
644.354	1	-7
645.541	1	6
646.728	1	7
647.914	1	-7
649.101	1	0
650.288	1	7
651.474	1	2
652.661	1	-1
653.847	1	1
655.034	1	-5
656.220	1	-5
657.406	1	5
658.593	1	-3
659.779	1	10
660.965	1	0
662.152	1	1
663.338	1	-5
664.524	1	-8
665.710	1	4
666.896	1	10
668.082	1	9
669.268	1	6
670.454	1	-3
671.640	1	-7
672.826	1	3
674.011	1	-2
675.197	1	4
676.383	1	-1
677.569	1	-2
678.754	1	5
679.940	1	2
681.125	1	5
682.311	1	-7
683.496	1	5
684.682	1	4
685.867	1	-2
687.053	1	1
688.238	1	3
688.746	1	6