File: Data/GaN_130K_350ms/GaN_sample F_spot6_UVVIS_130 K_200um_350 ms 2x2mm1_221.txt
340.368	1	2
341.565	1	-6
342.763	1	10
343.960	1	-5
345.157	1	-2
346.354	1	-4
347.552	1	2
348.749	1	11
349.946	1	4
351.143	1	8
352.340	1	13
353.537	1	2
354.734	1	-1
355.931	1	13
357.127	1	9
358.324	1	5
359.521	1	-7
360.718	1	11
361.914	1	6
363.111	1	17
364.308	1	16
365.504	1	11
366.701	1	20
367.897	1	7
369.093	1	17
370.290	1	25
371.486	1	15
372.682	1	12
373.879	1	11
375.075	1	19
376.271	1	10
377.467	1	16
378.663	1	13
379.859	1	9
381.055	1	11
382.251	1	10
383.447	1	5
384.643	1	2
385.839	1	4
387.035	1	10
388.230	1	1
389.426	1	13
390.622	1	-4
391.817	1	9
393.013	1	2
394.208	1	-4
395.404	1	0
396.599	1	2
397.795	1	-5
398.990	1	4
400.186	1	-4
401.381	1	4
402.576	1	-1
403.771	1	4
404.967	1	4
406.162	1	2
407.357	1	4
408.552	1	2
409.747	1	3
410.942	1	7
412.137	1	-6
413.332	1	1
414.526	1	2
415.721	1	3
416.916	1	-1
418.111	1	13
419.305	1	7
420.500	1	0
421.695	1	0
422.889	1	6
424.084	1	8
425.278	1	-1
426.472	1	4
427.667	1	14
428.861	1	7
430.055	1	2
431.250	1	11
432.444	1	9
433.638	1	5
434.832	1	-2
436.026	1	11
437.220	1	-5
438.414	1	-7
439.608	1	16
440.802	1	-2
441.996	1	18
443.190	1	0
444.384	1	-11
445.578	1	0
446.771	1	3
447.965	1	4
449.159	1	10
450.352	1	13
451.546	1	13
452.739	1	7
453.933	1	4
455.126	1	-2
456.320	1	-4
457.513	1	-3
458.706	1	11
459.899	1	3
461.093	1	6
462.286	1	-2
463.479	1	13
464.672	1	3
465.865	1	-6
467.058	1	5
468.251	1	2
469.444	1	9
470.637	1	7
471.830	1	5
473.023	1	6
474.215	1	8
475.408	1	-1
476.601	1	0
477.793	1	3
478.986	1	-1
480.179	1	-6
481.371	1	7
482.564	1	2
483.756	1	-8
484.948	1	5
486.141	1	5
487.333	1	-8
488.525	1	1
489.718	1	11
490.910	1	-4
492.102	1	1
493.294	1	10
494.486	1	22
495.678	1	-6
496.870	1	9
498.062	1	5
499.254	1	6
500.446	1	5
501.638	1	2
502.829	1	-2
504.021	1	6
505.213	1	-1
506.404	1	4
507.596	1	-1
508.788	1	1
509.979	1	3
511.171	1	13
512.362	1	1
513.553	1	4
514.745	1	3
515.936	1	20
517.127	1	7
518.319	1	-3
519.510	1	7
520.701	1	6
521.892	1	8
523.083	1	11
524.274	1	3
525.465	1	3
526.656	1	8
527.847	1	6
529.038	1	-4
530.229	1	8
531.419	1	17
532.610	1	1
533.801	1	10
534.991	1	7
536.182	1	10
537.373	1	9
538.563	1	10
539.754	1	1
540.944	1	0
542.134	1	8
543.325	1	5
544.515	1	6
545.705	1	-1
546.896	1	1
548.086	1	-8
549.276	1	-2
550.466	1	15
551.656	1	2
552.846	1	5
554.036	1	7
555.226	1	9
556.416	1	14
557.606	1	0
558.796	1	4
559.986	1	10
561.175	1	9
562.365	1	9
563.555	1	12
564.744	1	7
565.934	1	-4
567.123	1	10
568.313	1	1
569.502	1	7
570.692	1	13
571.881	1	1
573.070	1	-5
574.260	1	3
575.449	1	9
576.638	1	-2
577.827	1	-1
579.016	1	1
580.205	1	1
581.394	1	2
582.583	1	12
583.772	1	3
584.961	1	-5
586.150	1	16
587.339	1	-7
588.528	1	15
589.717	1	6
590.905	1	12
592.094	1	7
593.283	1	-7
594.471	1	5
595.660	1	8
596.848	1	2
598.037	1	8
599.225	1	6
600.413	1	30
601.602	1	-1
602.790	1	-2
603.978	1	-2
605.166	1	8
606.355	1	11
607.543	1	5
608.731	1	2
609.919	1	6
611.107	1	2
612.295	1	8
613.483	1	-1
614.671	1	8
615.858	1	-3
617.046	1	8
618.234	1	-2
619.422	1	5
620.609	1	-2
621.797	1	-3
622.985	1	8
624.172	1	-4
625.360	1	7
626.547	1	4
627.735	1	6
628.922	1	-3
630.109	1	6
631.297	1	-5
632.484	1	-7
633.671	1	-7
634.858	1	5
636.045	1	8
637.232	1	-4
638.419	1	7
639.606	1	6
640.793	1	-10
641.980	1	2
643.167	1	6
644.354	1	-4
645.541	1	3
646.728	1	10
647.914	1	-5
649.101	1	-7
650.288	1	5
651.474	1	4
652.661	1	-1
653.847	1	3
655.034	1	4
656.220	1	-6
657.406	1	7
658.593	1	-1
659.779	1	0
660.965	1	0
662.152	1	-1
663.338	1	3
664.524	1	0
665.710	1	6
666.896	1	7
668.082	1	4
669.268	1	4
670.454	1	6
671.640	1	-9
672.826	1	-3
674.011	1	-1
675.197	1	1
676.383	1	12
677.569	1	-6
678.754	1	2
679.940	1	-2
681.125	1	16
682.311	1	-7
683.496	1	0
684.682	1	-6
685.867	1	1
687.053	1	0
688.238	1	17
688.746	1	1