File: Data/GaN_130K_350ms/GaN_sample F_spot6_UVVIS_130 K_200um_350 ms 2x2mm1_160.txt
340.368	1	5
341.565	1	3
342.763	1	-3
343.960	1	-11
345.157	1	-4
346.354	1	3
347.552	1	8
348.749	1	7
349.946	1	6
351.143	1	-6
352.340	1	18
353.537	1	9
354.734	1	-3
355.931	1	8
357.127	1	13
358.324	1	14
359.521	1	-2
360.718	1	20
361.914	1	19
363.111	1	22
364.308	1	30
365.504	1	27
366.701	1	26
367.897	1	23
369.093	1	30
370.290	1	36
371.486	1	18
372.682	1	16
373.879	1	27
375.075	1	18
376.271	1	15
377.467	1	26
378.663	1	13
379.859	1	11
381.055	1	11
382.251	1	-2
383.447	1	10
384.643	1	17
385.839	1	9
387.035	1	22
388.230	1	8
389.426	1	13
390.622	1	11
391.817	1	3
393.013	1	10
394.208	1	-3
395.404	1	-9
396.599	1	11
397.795	1	2
398.990	1	2
400.186	1	3
401.381	1	11
402.576	1	5
403.771	1	4
404.967	1	5
406.162	1	-6
407.357	1	3
408.552	1	-6
409.747	1	8
410.942	1	13
412.137	1	-1
413.332	1	-1
414.526	1	-3
415.721	1	9
416.916	1	-5
418.111	1	7
419.305	1	6
420.500	1	9
421.695	1	4
422.889	1	-1
424.084	1	9
425.278	1	-7
426.472	1	5
427.667	1	6
428.861	1	-2
430.055	1	2
431.250	1	8
432.444	1	17
433.638	1	8
434.832	1	-5
436.026	1	9
437.220	1	4
438.414	1	-1
439.608	1	16
440.802	1	6
441.996	1	8
443.190	1	0
444.384	1	-1
445.578	1	7
446.771	1	4
447.965	1	7
449.159	1	8
450.352	1	9
451.546	1	14
452.739	1	9
453.933	1	2
455.126	1	1
456.320	1	-1
457.513	1	-8
458.706	1	2
459.899	1	4
461.093	1	8
462.286	1	9
463.479	1	10
464.672	1	6
465.865	1	4
467.058	1	1
468.251	1	3
469.444	1	1
470.637	1	6
471.830	1	8
473.023	1	6
474.215	1	-1
475.408	1	1
476.601	1	7
477.793	1	4
478.986	1	-5
480.179	1	2
481.371	1	8
482.564	1	9
483.756	1	2
484.948	1	2
486.141	1	7
487.333	1	0
488.525	1	10
489.718	1	-1
490.910	1	-8
492.102	1	8
493.294	1	16
494.486	1	16
495.678	1	4
496.870	1	14
498.062	1	3
499.254	1	2
500.446	1	13
501.638	1	7
502.829	1	1
504.021	1	10
505.213	1	8
506.404	1	2
507.596	1	9
508.788	1	6
509.979	1	4
511.171	1	20
512.362	1	7
513.553	1	10
514.745	1	14
515.936	1	14
517.127	1	14
518.319	1	4
519.510	1	9
520.701	1	9
521.892	1	10
523.083	1	12
524.274	1	14
525.465	1	16
526.656	1	26
527.847	1	15
529.038	1	5
530.229	1	15
531.419	1	15
532.610	1	4
533.801	1	14
534.991	1	9
536.182	1	12
537.373	1	10
538.563	1	4
539.754	1	6
540.944	1	9
542.134	1	3
543.325	1	13
544.515	1	12
545.705	1	-3
546.896	1	4
548.086	1	3
549.276	1	4
550.466	1	17
551.656	1	5
552.846	1	6
554.036	1	4
555.226	1	15
556.416	1	11
557.606	1	-1
558.796	1	14
559.986	1	3
561.175	1	16
562.365	1	15
563.555	1	9
564.744	1	5
565.934	1	7
567.123	1	7
568.313	1	2
569.502	1	6
570.692	1	14
571.881	1	5
573.070	1	-4
574.260	1	8
575.449	1	13
576.638	1	-5
577.827	1	1
579.016	1	7
580.205	1	5
581.394	1	13
582.583	1	7
583.772	1	7
584.961	1	4
586.150	1	7
587.339	1	1
588.528	1	11
589.717	1	2
590.905	1	9
592.094	1	-4
593.283	1	1
594.471	1	7
595.660	1	-4
596.848	1	7
598.037	1	5
599.225	1	5
600.413	1	18
601.602	1	-4
602.790	1	3
603.978	1	8
605.166	1	9
606.355	1	15
607.543	1	4
608.731	1	7
609.919	1	11
611.107	1	8
612.295	1	11
613.483	1	-8
614.671	1	7
615.858	1	-1
617.046	1	10
618.234	1	8
619.422	1	5
620.609	1	-4
621.797	1	0
622.985	1	1
624.172	1	4
625.360	1	7
626.547	1	7
627.735	1	12
628.922	1	2
630.109	1	10
631.297	1	0
632.484	1	-1
633.671	1	6
634.858	1	10
636.045	1	19
637.232	1	-3
638.419	1	6
639.606	1	7
640.793	1	-6
641.980	1	-4
643.167	1	14
644.354	1	-8
645.541	1	9
646.728	1	11
647.914	1	0
649.101	1	-1
650.288	1	7
651.474	1	3
652.661	1	-2
653.847	1	-3
655.034	1	0
656.220	1	15
657.406	1	5
658.593	1	1
659.779	1	10
660.965	1	9
662.152	1	4
663.338	1	-4
664.524	1	5
665.710	1	-3
666.896	1	2
668.082	1	1
669.268	1	7
670.454	1	-3
671.640	1	-11
672.826	1	0
674.011	1	2
675.197	1	1
676.383	1	3
677.569	1	-2
678.754	1	6
679.940	1	-4
681.125	1	10
682.311	1	-3
683.496	1	-3
684.682	1	-8
685.867	1	-1
687.053	1	-4
688.238	1	11
688.746	1	9