File: Data/GaN_130K_350ms/GaN_sample F_spot6_UVVIS_130 K_200um_350 ms 2x2mm1_235.txt
340.368	1	8
341.565	1	1
342.763	1	-2
343.960	1	-5
345.157	1	-11
346.354	1	-11
347.552	1	0
348.749	1	9
349.946	1	5
351.143	1	4
352.340	1	18
353.537	1	-5
354.734	1	-1
355.931	1	2
357.127	1	5
358.324	1	4
359.521	1	0
360.718	1	4
361.914	1	10
363.111	1	12
364.308	1	10
365.504	1	11
366.701	1	16
367.897	1	8
369.093	1	13
370.290	1	14
371.486	1	12
372.682	1	13
373.879	1	17
375.075	1	22
376.271	1	14
377.467	1	11
378.663	1	8
379.859	1	9
381.055	1	5
382.251	1	5
383.447	1	8
384.643	1	8
385.839	1	4
387.035	1	10
388.230	1	-2
389.426	1	9
390.622	1	1
391.817	1	8
393.013	1	7
394.208	1	-4
395.404	1	-7
396.599	1	13
397.795	1	-2
398.990	1	7
400.186	1	8
401.381	1	12
402.576	1	8
403.771	1	10
404.967	1	-4
406.162	1	-5
407.357	1	-4
408.552	1	-2
409.747	1	-3
410.942	1	0
412.137	1	-2
413.332	1	-1
414.526	1	9
415.721	1	4
416.916	1	-8
418.111	1	9
419.305	1	1
420.500	1	4
421.695	1	3
422.889	1	-5
424.084	1	10
425.278	1	5
426.472	1	-1
427.667	1	9
428.861	1	-3
430.055	1	3
431.250	1	16
432.444	1	9
433.638	1	2
434.832	1	3
436.026	1	0
437.220	1	5
438.414	1	9
439.608	1	17
440.802	1	-6
441.996	1	13
443.190	1	8
444.384	1	-6
445.578	1	4
446.771	1	8
447.965	1	-1
449.159	1	6
450.352	1	7
451.546	1	16
452.739	1	6
453.933	1	8
455.126	1	1
456.320	1	7
457.513	1	2
458.706	1	1
459.899	1	7
461.093	1	10
462.286	1	9
463.479	1	10
464.672	1	2
465.865	1	4
467.058	1	7
468.251	1	6
469.444	1	-2
470.637	1	14
471.830	1	5
473.023	1	2
474.215	1	2
475.408	1	10
476.601	1	2
477.793	1	-7
478.986	1	-1
480.179	1	-7
481.371	1	6
482.564	1	2
483.756	1	-2
484.948	1	4
486.141	1	5
487.333	1	-4
488.525	1	6
489.718	1	7
490.910	1	0
492.102	1	10
493.294	1	1
494.486	1	12
495.678	1	-2
496.870	1	-6
498.062	1	1
499.254	1	7
500.446	1	8
501.638	1	2
502.829	1	-6
504.021	1	-1
505.213	1	0
506.404	1	3
507.596	1	4
508.788	1	4
509.979	1	-6
511.171	1	21
512.362	1	-2
513.553	1	9
514.745	1	0
515.936	1	15
517.127	1	14
518.319	1	1
519.510	1	-5
520.701	1	8
521.892	1	10
523.083	1	0
524.274	1	-3
525.465	1	3
526.656	1	9
527.847	1	9
529.038	1	-2
530.229	1	7
531.419	1	12
532.610	1	7
533.801	1	15
534.991	1	-2
536.182	1	2
537.373	1	7
538.563	1	12
539.754	1	-3
540.944	1	9
542.134	1	0
543.325	1	4
544.515	1	12
545.705	1	5
546.896	1	2
548.086	1	-4
549.276	1	-7
550.466	1	12
551.656	1	7
552.846	1	2
554.036	1	-5
555.226	1	2
556.416	1	9
557.606	1	3
558.796	1	11
559.986	1	0
561.175	1	10
562.365	1	11
563.555	1	4
564.744	1	1
565.934	1	3
567.123	1	6
568.313	1	-12
569.502	1	-6
570.692	1	8
571.881	1	-1
573.070	1	-2
574.260	1	5
575.449	1	13
576.638	1	-4
577.827	1	8
579.016	1	5
580.205	1	-5
581.394	1	2
582.583	1	7
583.772	1	12
584.961	1	8
586.150	1	14
587.339	1	-4
588.528	1	11
589.717	1	-1
590.905	1	10
592.094	1	0
593.283	1	-4
594.471	1	6
595.660	1	0
596.848	1	4
598.037	1	11
599.225	1	10
600.413	1	4
601.602	1	-1
602.790	1	0
603.978	1	7
605.166	1	9
606.355	1	9
607.543	1	-2
608.731	1	2
609.919	1	7
611.107	1	1
612.295	1	5
613.483	1	-5
614.671	1	5
615.858	1	0
617.046	1	13
618.234	1	5
619.422	1	1
620.609	1	-8
621.797	1	-5
622.985	1	8
624.172	1	10
625.360	1	4
626.547	1	9
627.735	1	6
628.922	1	-3
630.109	1	11
631.297	1	-1
632.484	1	1
633.671	1	-5
634.858	1	8
636.045	1	19
637.232	1	-8
638.419	1	18
639.606	1	5
640.793	1	3
641.980	1	4
643.167	1	8
644.354	1	-4
645.541	1	5
646.728	1	10
647.914	1	-11
649.101	1	-7
650.288	1	12
651.474	1	5
652.661	1	-1
653.847	1	-1
655.034	1	-4
656.220	1	-3
657.406	1	4
658.593	1	8
659.779	1	2
660.965	1	8
662.152	1	2
663.338	1	6
664.524	1	-2
665.710	1	5
666.896	1	9
668.082	1	4
669.268	1	3
670.454	1	-3
671.640	1	-1
672.826	1	-2
674.011	1	7
675.197	1	4
676.383	1	3
677.569	1	-1
678.754	1	8
679.940	1	-2
681.125	1	8
682.311	1	-12
683.496	1	5
684.682	1	-8
685.867	1	2
687.053	1	3
688.238	1	10
688.746	1	14