File: Data/GaN_130K_350ms/GaN_sample F_spot6_UVVIS_130 K_200um_350 ms 2x2mm1_170.txt
340.368	1	6
341.565	1	3
342.763	1	5
343.960	1	-14
345.157	1	-15
346.354	1	10
347.552	1	4
348.749	1	4
349.946	1	8
351.143	1	3
352.340	1	17
353.537	1	5
354.734	1	-1
355.931	1	0
357.127	1	15
358.324	1	-6
359.521	1	-1
360.718	1	12
361.914	1	12
363.111	1	17
364.308	1	28
365.504	1	22
366.701	1	29
367.897	1	29
369.093	1	50
370.290	1	39
371.486	1	20
372.682	1	20
373.879	1	23
375.075	1	17
376.271	1	17
377.467	1	20
378.663	1	14
379.859	1	10
381.055	1	7
382.251	1	10
383.447	1	6
384.643	1	14
385.839	1	9
387.035	1	26
388.230	1	3
389.426	1	19
390.622	1	9
391.817	1	14
393.013	1	4
394.208	1	-2
395.404	1	5
396.599	1	6
397.795	1	8
398.990	1	4
400.186	1	-7
401.381	1	11
402.576	1	3
403.771	1	8
404.967	1	1
406.162	1	-1
407.357	1	8
408.552	1	-8
409.747	1	1
410.942	1	11
412.137	1	-2
413.332	1	-7
414.526	1	2
415.721	1	3
416.916	1	-2
418.111	1	9
419.305	1	10
420.500	1	9
421.695	1	4
422.889	1	11
424.084	1	7
425.278	1	-1
426.472	1	2
427.667	1	6
428.861	1	7
430.055	1	5
431.250	1	5
432.444	1	7
433.638	1	4
434.832	1	0
436.026	1	0
437.220	1	4
438.414	1	4
439.608	1	19
440.802	1	-3
441.996	1	17
443.190	1	2
444.384	1	-3
445.578	1	2
446.771	1	3
447.965	1	5
449.159	1	16
450.352	1	1
451.546	1	9
452.739	1	10
453.933	1	2
455.126	1	1
456.320	1	3
457.513	1	-2
458.706	1	10
459.899	1	5
461.093	1	4
462.286	1	9
463.479	1	17
464.672	1	5
465.865	1	3
467.058	1	8
468.251	1	3
469.444	1	-3
470.637	1	14
471.830	1	9
473.023	1	16
474.215	1	6
475.408	1	6
476.601	1	-2
477.793	1	5
478.986	1	-5
480.179	1	-3
481.371	1	12
482.564	1	1
483.756	1	-2
484.948	1	8
486.141	1	5
487.333	1	2
488.525	1	10
489.718	1	4
490.910	1	-6
492.102	1	7
493.294	1	9
494.486	1	15
495.678	1	5
496.870	1	6
498.062	1	5
499.254	1	10
500.446	1	7
501.638	1	3
502.829	1	-3
504.021	1	0
505.213	1	2
506.404	1	8
507.596	1	-3
508.788	1	1
509.979	1	10
511.171	1	18
512.362	1	6
513.553	1	17
514.745	1	7
515.936	1	25
517.127	1	10
518.319	1	2
519.510	1	3
520.701	1	6
521.892	1	18
523.083	1	8
524.274	1	15
525.465	1	16
526.656	1	12
527.847	1	10
529.038	1	8
530.229	1	18
531.419	1	14
532.610	1	2
533.801	1	19
534.991	1	7
536.182	1	19
537.373	1	16
538.563	1	22
539.754	1	7
540.944	1	18
542.134	1	2
543.325	1	8
544.515	1	9
545.705	1	6
546.896	1	10
548.086	1	2
549.276	1	-1
550.466	1	14
551.656	1	4
552.846	1	2
554.036	1	9
555.226	1	4
556.416	1	13
557.606	1	-1
558.796	1	23
559.986	1	5
561.175	1	18
562.365	1	14
563.555	1	15
564.744	1	10
565.934	1	3
567.123	1	4
568.313	1	1
569.502	1	12
570.692	1	9
571.881	1	14
573.070	1	2
574.260	1	6
575.449	1	12
576.638	1	3
577.827	1	2
579.016	1	3
580.205	1	4
581.394	1	7
582.583	1	16
583.772	1	7
584.961	1	-1
586.150	1	8
587.339	1	0
588.528	1	12
589.717	1	0
590.905	1	8
592.094	1	6
593.283	1	2
594.471	1	6
595.660	1	1
596.848	1	13
598.037	1	2
599.225	1	12
600.413	1	16
601.602	1	-2
602.790	1	7
603.978	1	12
605.166	1	17
606.355	1	7
607.543	1	3
608.731	1	8
609.919	1	7
611.107	1	1
612.295	1	-4
613.483	1	-8
614.671	1	3
615.858	1	-4
617.046	1	5
618.234	1	-3
619.422	1	3
620.609	1	-5
621.797	1	-4
622.985	1	1
624.172	1	5
625.360	1	1
626.547	1	6
627.735	1	7
628.922	1	-7
630.109	1	9
631.297	1	8
632.484	1	-4
633.671	1	-1
634.858	1	5
636.045	1	13
637.232	1	-8
638.419	1	8
639.606	1	3
640.793	1	-11
641.980	1	4
643.167	1	1
644.354	1	-3
645.541	1	1
646.728	1	4
647.914	1	2
649.101	1	-2
650.288	1	12
651.474	1	4
652.661	1	2
653.847	1	0
655.034	1	-1
656.220	1	-1
657.406	1	4
658.593	1	8
659.779	1	-1
660.965	1	0
662.152	1	3
663.338	1	-3
664.524	1	-13
665.710	1	-1
666.896	1	17
668.082	1	3
669.268	1	-8
670.454	1	6
671.640	1	-7
672.826	1	0
674.011	1	3
675.197	1	1
676.383	1	2
677.569	1	7
678.754	1	6
679.940	1	3
681.125	1	14
682.311	1	-11
683.496	1	0
684.682	1	7
685.867	1	1
687.053	1	-1
688.238	1	11
688.746	1	2