File: Data/GaN_130K_350ms/GaN_sample F_spot6_UVVIS_130 K_200um_350 ms 2x2mm1_194.txt
340.368	1	-2
341.565	1	11
342.763	1	11
343.960	1	-9
345.157	1	-7
346.354	1	2
347.552	1	-1
348.749	1	0
349.946	1	1
351.143	1	0
352.340	1	12
353.537	1	3
354.734	1	-7
355.931	1	9
357.127	1	12
358.324	1	6
359.521	1	4
360.718	1	11
361.914	1	6
363.111	1	21
364.308	1	17
365.504	1	8
366.701	1	29
367.897	1	21
369.093	1	8
370.290	1	20
371.486	1	13
372.682	1	9
373.879	1	20
375.075	1	16
376.271	1	14
377.467	1	18
378.663	1	12
379.859	1	9
381.055	1	3
382.251	1	9
383.447	1	0
384.643	1	14
385.839	1	16
387.035	1	22
388.230	1	4
389.426	1	20
390.622	1	3
391.817	1	10
393.013	1	-1
394.208	1	4
395.404	1	-8
396.599	1	7
397.795	1	-7
398.990	1	0
400.186	1	-1
401.381	1	0
402.576	1	8
403.771	1	10
404.967	1	8
406.162	1	-1
407.357	1	1
408.552	1	-3
409.747	1	3
410.942	1	7
412.137	1	4
413.332	1	5
414.526	1	3
415.721	1	2
416.916	1	-2
418.111	1	1
419.305	1	1
420.500	1	4
421.695	1	7
422.889	1	13
424.084	1	7
425.278	1	-4
426.472	1	5
427.667	1	16
428.861	1	2
430.055	1	3
431.250	1	8
432.444	1	15
433.638	1	5
434.832	1	12
436.026	1	1
437.220	1	-2
438.414	1	3
439.608	1	8
440.802	1	1
441.996	1	10
443.190	1	5
444.384	1	-6
445.578	1	-3
446.771	1	3
447.965	1	6
449.159	1	10
450.352	1	16
451.546	1	3
452.739	1	3
453.933	1	3
455.126	1	-10
456.320	1	4
457.513	1	-5
458.706	1	6
459.899	1	0
461.093	1	13
462.286	1	6
463.479	1	6
464.672	1	9
465.865	1	2
467.058	1	8
468.251	1	0
469.444	1	-3
470.637	1	14
471.830	1	6
473.023	1	5
474.215	1	2
475.408	1	4
476.601	1	-2
477.793	1	-4
478.986	1	1
480.179	1	0
481.371	1	13
482.564	1	-7
483.756	1	2
484.948	1	7
486.141	1	6
487.333	1	7
488.525	1	16
489.718	1	10
490.910	1	-8
492.102	1	4
493.294	1	6
494.486	1	16
495.678	1	2
496.870	1	11
498.062	1	0
499.254	1	3
500.446	1	5
501.638	1	8
502.829	1	12
504.021	1	4
505.213	1	1
506.404	1	3
507.596	1	-3
508.788	1	0
509.979	1	-1
511.171	1	14
512.362	1	5
513.553	1	14
514.745	1	3
515.936	1	14
517.127	1	13
518.319	1	-4
519.510	1	1
520.701	1	4
521.892	1	9
523.083	1	13
524.274	1	-3
525.465	1	11
526.656	1	16
527.847	1	11
529.038	1	-2
530.229	1	13
531.419	1	2
532.610	1	3
533.801	1	9
534.991	1	2
536.182	1	11
537.373	1	6
538.563	1	13
539.754	1	2
540.944	1	-1
542.134	1	3
543.325	1	4
544.515	1	1
545.705	1	7
546.896	1	18
548.086	1	-5
549.276	1	-2
550.466	1	13
551.656	1	7
552.846	1	-1
554.036	1	8
555.226	1	8
556.416	1	15
557.606	1	-3
558.796	1	12
559.986	1	4
561.175	1	1
562.365	1	11
563.555	1	5
564.744	1	7
565.934	1	2
567.123	1	4
568.313	1	7
569.502	1	-1
570.692	1	12
571.881	1	1
573.070	1	4
574.260	1	8
575.449	1	12
576.638	1	0
577.827	1	4
579.016	1	2
580.205	1	-3
581.394	1	9
582.583	1	10
583.772	1	1
584.961	1	0
586.150	1	6
587.339	1	0
588.528	1	12
589.717	1	1
590.905	1	7
592.094	1	4
593.283	1	-8
594.471	1	5
595.660	1	2
596.848	1	7
598.037	1	7
599.225	1	-1
600.413	1	4
601.602	1	1
602.790	1	6
603.978	1	2
605.166	1	5
606.355	1	10
607.543	1	5
608.731	1	8
609.919	1	6
611.107	1	9
612.295	1	9
613.483	1	-4
614.671	1	3
615.858	1	-1
617.046	1	8
618.234	1	3
619.422	1	2
620.609	1	-5
621.797	1	6
622.985	1	10
624.172	1	1
625.360	1	-1
626.547	1	12
627.735	1	10
628.922	1	0
630.109	1	10
631.297	1	8
632.484	1	-5
633.671	1	-6
634.858	1	10
636.045	1	13
637.232	1	-9
638.419	1	1
639.606	1	9
640.793	1	-3
641.980	1	5
643.167	1	6
644.354	1	-2
645.541	1	5
646.728	1	5
647.914	1	-5
649.101	1	0
650.288	1	12
651.474	1	4
652.661	1	-6
653.847	1	3
655.034	1	4
656.220	1	0
657.406	1	6
658.593	1	-4
659.779	1	7
660.965	1	2
662.152	1	0
663.338	1	1
664.524	1	5
665.710	1	2
666.896	1	2
668.082	1	9
669.268	1	-3
670.454	1	5
671.640	1	-6
672.826	1	-1
674.011	1	3
675.197	1	2
676.383	1	3
677.569	1	-5
678.754	1	4
679.940	1	5
681.125	1	7
682.311	1	-4
683.496	1	0
684.682	1	5
685.867	1	2
687.053	1	5
688.238	1	14
688.746	1	12