File: Data/GaN_130K_350ms/GaN_sample F_spot6_UVVIS_130 K_200um_350 ms 2x2mm1_244.txt
340.368	1	1
341.565	1	-11
342.763	1	3
343.960	1	0
345.157	1	-18
346.354	1	0
347.552	1	-6
348.749	1	3
349.946	1	7
351.143	1	-2
352.340	1	-1
353.537	1	-1
354.734	1	9
355.931	1	13
357.127	1	9
358.324	1	0
359.521	1	-2
360.718	1	6
361.914	1	0
363.111	1	22
364.308	1	15
365.504	1	14
366.701	1	12
367.897	1	6
369.093	1	18
370.290	1	13
371.486	1	13
372.682	1	5
373.879	1	12
375.075	1	17
376.271	1	15
377.467	1	9
378.663	1	2
379.859	1	11
381.055	1	1
382.251	1	4
383.447	1	9
384.643	1	3
385.839	1	8
387.035	1	11
388.230	1	8
389.426	1	17
390.622	1	6
391.817	1	18
393.013	1	4
394.208	1	-2
395.404	1	-9
396.599	1	7
397.795	1	5
398.990	1	2
400.186	1	2
401.381	1	11
402.576	1	1
403.771	1	11
404.967	1	4
406.162	1	1
407.357	1	9
408.552	1	-7
409.747	1	-6
410.942	1	1
412.137	1	3
413.332	1	-6
414.526	1	8
415.721	1	5
416.916	1	-1
418.111	1	12
419.305	1	7
420.500	1	4
421.695	1	-5
422.889	1	13
424.084	1	5
425.278	1	4
426.472	1	4
427.667	1	15
428.861	1	-4
430.055	1	-2
431.250	1	14
432.444	1	11
433.638	1	14
434.832	1	-2
436.026	1	13
437.220	1	-2
438.414	1	-1
439.608	1	16
440.802	1	0
441.996	1	11
443.190	1	11
444.384	1	-5
445.578	1	-6
446.771	1	-4
447.965	1	0
449.159	1	2
450.352	1	7
451.546	1	15
452.739	1	6
453.933	1	1
455.126	1	-6
456.320	1	0
457.513	1	-3
458.706	1	4
459.899	1	-1
461.093	1	12
462.286	1	0
463.479	1	9
464.672	1	3
465.865	1	-8
467.058	1	10
468.251	1	5
469.444	1	3
470.637	1	7
471.830	1	9
473.023	1	8
474.215	1	3
475.408	1	13
476.601	1	0
477.793	1	-3
478.986	1	-12
480.179	1	-4
481.371	1	12
482.564	1	-8
483.756	1	3
484.948	1	0
486.141	1	0
487.333	1	2
488.525	1	1
489.718	1	10
490.910	1	-3
492.102	1	7
493.294	1	4
494.486	1	9
495.678	1	-1
496.870	1	2
498.062	1	-4
499.254	1	5
500.446	1	4
501.638	1	1
502.829	1	3
504.021	1	1
505.213	1	5
506.404	1	4
507.596	1	1
508.788	1	-8
509.979	1	-5
511.171	1	18
512.362	1	2
513.553	1	11
514.745	1	-1
515.936	1	16
517.127	1	6
518.319	1	0
519.510	1	2
520.701	1	-2
521.892	1	6
523.083	1	3
524.274	1	2
525.465	1	5
526.656	1	5
527.847	1	2
529.038	1	-4
530.229	1	6
531.419	1	21
532.610	1	-5
533.801	1	14
534.991	1	7
536.182	1	14
537.373	1	0
538.563	1	9
539.754	1	0
540.944	1	9
542.134	1	3
543.325	1	1
544.515	1	8
545.705	1	3
546.896	1	11
548.086	1	-4
549.276	1	-2
550.466	1	14
551.656	1	4
552.846	1	-5
554.036	1	7
555.226	1	9
556.416	1	4
557.606	1	6
558.796	1	8
559.986	1	2
561.175	1	-1
562.365	1	12
563.555	1	11
564.744	1	0
565.934	1	-1
567.123	1	-2
568.313	1	-3
569.502	1	0
570.692	1	7
571.881	1	0
573.070	1	-10
574.260	1	5
575.449	1	7
576.638	1	3
577.827	1	-7
579.016	1	3
580.205	1	0
581.394	1	3
582.583	1	14
583.772	1	7
584.961	1	0
586.150	1	10
587.339	1	-2
588.528	1	8
589.717	1	1
590.905	1	17
592.094	1	-1
593.283	1	-8
594.471	1	-3
595.660	1	8
596.848	1	2
598.037	1	6
599.225	1	6
600.413	1	6
601.602	1	-1
602.790	1	1
603.978	1	6
605.166	1	10
606.355	1	10
607.543	1	-2
608.731	1	0
609.919	1	9
611.107	1	6
612.295	1	11
613.483	1	0
614.671	1	4
615.858	1	-7
617.046	1	5
618.234	1	3
619.422	1	-1
620.609	1	-4
621.797	1	4
622.985	1	6
624.172	1	-6
625.360	1	-3
626.547	1	10
627.735	1	16
628.922	1	-9
630.109	1	11
631.297	1	7
632.484	1	-4
633.671	1	-8
634.858	1	1
636.045	1	13
637.232	1	1
638.419	1	5
639.606	1	7
640.793	1	-4
641.980	1	4
643.167	1	8
644.354	1	-2
645.541	1	1
646.728	1	5
647.914	1	-9
649.101	1	2
650.288	1	13
651.474	1	-8
652.661	1	2
653.847	1	-5
655.034	1	-5
656.220	1	1
657.406	1	-4
658.593	1	4
659.779	1	8
660.965	1	3
662.152	1	-2
663.338	1	-3
664.524	1	1
665.710	1	-5
666.896	1	1
668.082	1	1
669.268	1	-1
670.454	1	-3
671.640	1	-6
672.826	1	-5
674.011	1	-5
675.197	1	-4
676.383	1	5
677.569	1	2
678.754	1	6
679.940	1	3
681.125	1	12
682.311	1	-11
683.496	1	-3
684.682	1	-3
685.867	1	-2
687.053	1	5
688.238	1	4
688.746	1	7