File: Data/GaN_200K_800ms/GaN_sample F_spot 12_UVVIS_200 K_200um_800 ms 2x2mm1_69.txt
340.368	1	3
341.565	1	-2
342.763	1	3
343.960	1	9
345.157	1	-7
346.354	1	4
347.552	1	-5
348.749	1	1
349.946	1	1
351.143	1	13
352.340	1	13
353.537	1	9
354.734	1	19
355.931	1	9
357.127	1	12
358.324	1	16
359.521	1	25
360.718	1	37
361.914	1	57
363.111	1	66
364.308	1	79
365.504	1	110
366.701	1	151
367.897	1	180
369.093	1	189
370.290	1	210
371.486	1	199
372.682	1	163
373.879	1	142
375.075	1	121
376.271	1	97
377.467	1	90
378.663	1	61
379.859	1	66
381.055	1	59
382.251	1	46
383.447	1	29
384.643	1	43
385.839	1	29
387.035	1	40
388.230	1	32
389.426	1	16
390.622	1	11
391.817	1	9
393.013	1	18
394.208	1	9
395.404	1	8
396.599	1	5
397.795	1	15
398.990	1	8
400.186	1	10
401.381	1	11
402.576	1	3
403.771	1	6
404.967	1	6
406.162	1	6
407.357	1	-4
408.552	1	5
409.747	1	1
410.942	1	5
412.137	1	10
413.332	1	5
414.526	1	1
415.721	1	7
416.916	1	2
418.111	1	4
419.305	1	15
420.500	1	-1
421.695	1	-4
422.889	1	-14
424.084	1	4
425.278	1	12
426.472	1	-1
427.667	1	18
428.861	1	6
430.055	1	8
431.250	1	9
432.444	1	2
433.638	1	8
434.832	1	5
436.026	1	7
437.220	1	12
438.414	1	-5
439.608	1	-7
440.802	1	1
441.996	1	2
443.190	1	6
444.384	1	-12
445.578	1	-9
446.771	1	11
447.965	1	-4
449.159	1	-6
450.352	1	5
451.546	1	4
452.739	1	4
453.933	1	7
455.126	1	0
456.320	1	7
457.513	1	10
458.706	1	-2
459.899	1	-4
461.093	1	-1
462.286	1	8
463.479	1	3
464.672	1	4
465.865	1	0
467.058	1	-1
468.251	1	4
469.444	1	-1
470.637	1	8
471.830	1	-3
473.023	1	3
474.215	1	10
475.408	1	8
476.601	1	0
477.793	1	13
478.986	1	7
480.179	1	-3
481.371	1	12
482.564	1	7
483.756	1	10
484.948	1	0
486.141	1	9
487.333	1	6
488.525	1	6
489.718	1	0
490.910	1	-4
492.102	1	5
493.294	1	5
494.486	1	8
495.678	1	17
496.870	1	20
498.062	1	6
499.254	1	13
500.446	1	-3
501.638	1	4
502.829	1	8
504.021	1	9
505.213	1	7
506.404	1	7
507.596	1	11
508.788	1	25
509.979	1	10
511.171	1	1
512.362	1	6
513.553	1	3
514.745	1	8
515.936	1	7
517.127	1	11
518.319	1	10
519.510	1	8
520.701	1	24
521.892	1	18
523.083	1	4
524.274	1	7
525.465	1	21
526.656	1	26
527.847	1	19
529.038	1	12
530.229	1	16
531.419	1	21
532.610	1	18
533.801	1	26
534.991	1	26
536.182	1	19
537.373	1	14
538.563	1	15
539.754	1	21
540.944	1	13
542.134	1	19
543.325	1	18
544.515	1	12
545.705	1	24
546.896	1	20
548.086	1	20
549.276	1	14
550.466	1	23
551.656	1	34
552.846	1	19
554.036	1	20
555.226	1	7
556.416	1	6
557.606	1	24
558.796	1	25
559.986	1	22
561.175	1	22
562.365	1	21
563.555	1	12
564.744	1	22
565.934	1	24
567.123	1	30
568.313	1	20
569.502	1	21
570.692	1	29
571.881	1	31
573.070	1	13
574.260	1	27
575.449	1	6
576.638	1	11
577.827	1	12
579.016	1	25
580.205	1	25
581.394	1	20
582.583	1	24
583.772	1	29
584.961	1	27
586.150	1	11
587.339	1	22
588.528	1	18
589.717	1	19
590.905	1	10
592.094	1	13
593.283	1	13
594.471	1	30
595.660	1	15
596.848	1	10
598.037	1	9
599.225	1	1
600.413	1	27
601.602	1	15
602.790	1	15
603.978	1	14
605.166	1	24
606.355	1	16
607.543	1	14
608.731	1	16
609.919	1	21
611.107	1	11
612.295	1	16
613.483	1	14
614.671	1	13
615.858	1	5
617.046	1	11
618.234	1	10
619.422	1	0
620.609	1	16
621.797	1	15
622.985	1	15
624.172	1	10
625.360	1	6
626.547	1	16
627.735	1	16
628.922	1	19
630.109	1	3
631.297	1	16
632.484	1	9
633.671	1	8
634.858	1	7
636.045	1	26
637.232	1	10
638.419	1	3
639.606	1	14
640.793	1	16
641.980	1	21
643.167	1	0
644.354	1	15
645.541	1	10
646.728	1	13
647.914	1	0
649.101	1	17
650.288	1	19
651.474	1	0
652.661	1	6
653.847	1	8
655.034	1	5
656.220	1	-9
657.406	1	7
658.593	1	7
659.779	1	5
660.965	1	12
662.152	1	12
663.338	1	18
664.524	1	12
665.710	1	3
666.896	1	-4
668.082	1	4
669.268	1	5
670.454	1	14
671.640	1	11
672.826	1	9
674.011	1	14
675.197	1	-5
676.383	1	11
677.569	1	-1
678.754	1	4
679.940	1	6
681.125	1	13
682.311	1	7
683.496	1	14
684.682	1	4
685.867	1	8
687.053	1	12
688.238	1	14
688.746	1	19