File: Data/GaN_200K_800ms/GaN_sample F_spot 12_UVVIS_200 K_200um_800 ms 2x2mm1_479.txt
340.368	1	2
341.565	1	-12
342.763	1	6
343.960	1	-3
345.157	1	-3
346.354	1	-1
347.552	1	-11
348.749	1	-4
349.946	1	-7
351.143	1	0
352.340	1	2
353.537	1	4
354.734	1	-1
355.931	1	1
357.127	1	-6
358.324	1	1
359.521	1	3
360.718	1	3
361.914	1	10
363.111	1	-9
364.308	1	3
365.504	1	9
366.701	1	17
367.897	1	7
369.093	1	4
370.290	1	8
371.486	1	14
372.682	1	3
373.879	1	9
375.075	1	7
376.271	1	1
377.467	1	4
378.663	1	-2
379.859	1	0
381.055	1	10
382.251	1	-4
383.447	1	-5
384.643	1	12
385.839	1	-4
387.035	1	0
388.230	1	2
389.426	1	-2
390.622	1	-4
391.817	1	4
393.013	1	-5
394.208	1	5
395.404	1	-7
396.599	1	-3
397.795	1	1
398.990	1	-1
400.186	1	6
401.381	1	-11
402.576	1	-4
403.771	1	12
404.967	1	3
406.162	1	7
407.357	1	-12
408.552	1	-9
409.747	1	-2
410.942	1	3
412.137	1	4
413.332	1	7
414.526	1	-9
415.721	1	-10
416.916	1	-5
418.111	1	1
419.305	1	0
420.500	1	-6
421.695	1	-8
422.889	1	-13
424.084	1	-3
425.278	1	7
426.472	1	-7
427.667	1	8
428.861	1	12
430.055	1	2
431.250	1	1
432.444	1	6
433.638	1	2
434.832	1	7
436.026	1	4
437.220	1	0
438.414	1	-8
439.608	1	-16
440.802	1	-5
441.996	1	4
443.190	1	5
444.384	1	-10
445.578	1	-12
446.771	1	11
447.965	1	-5
449.159	1	-16
450.352	1	-2
451.546	1	-2
452.739	1	5
453.933	1	-12
455.126	1	-1
456.320	1	2
457.513	1	0
458.706	1	-5
459.899	1	-1
461.093	1	3
462.286	1	4
463.479	1	7
464.672	1	-2
465.865	1	-3
467.058	1	1
468.251	1	5
469.444	1	-9
470.637	1	2
471.830	1	-5
473.023	1	0
474.215	1	12
475.408	1	4
476.601	1	-2
477.793	1	-9
478.986	1	-7
480.179	1	3
481.371	1	-3
482.564	1	-4
483.756	1	2
484.948	1	-8
486.141	1	-5
487.333	1	4
488.525	1	-5
489.718	1	2
490.910	1	0
492.102	1	-10
493.294	1	2
494.486	1	13
495.678	1	-1
496.870	1	11
498.062	1	-2
499.254	1	-1
500.446	1	-14
501.638	1	-4
502.829	1	-2
504.021	1	-2
505.213	1	15
506.404	1	11
507.596	1	0
508.788	1	11
509.979	1	-3
511.171	1	-3
512.362	1	-9
513.553	1	-2
514.745	1	-12
515.936	1	1
517.127	1	-6
518.319	1	5
519.510	1	-3
520.701	1	-5
521.892	1	-2
523.083	1	2
524.274	1	-2
525.465	1	6
526.656	1	-2
527.847	1	2
529.038	1	-2
530.229	1	1
531.419	1	2
532.610	1	-8
533.801	1	9
534.991	1	2
536.182	1	-3
537.373	1	4
538.563	1	7
539.754	1	-3
540.944	1	1
542.134	1	7
543.325	1	-9
544.515	1	3
545.705	1	-2
546.896	1	0
548.086	1	-2
549.276	1	-15
550.466	1	2
551.656	1	-1
552.846	1	2
554.036	1	0
555.226	1	-6
556.416	1	-5
557.606	1	2
558.796	1	2
559.986	1	-4
561.175	1	4
562.365	1	0
563.555	1	2
564.744	1	1
565.934	1	9
567.123	1	1
568.313	1	5
569.502	1	-1
570.692	1	-3
571.881	1	9
573.070	1	7
574.260	1	19
575.449	1	-4
576.638	1	-3
577.827	1	-7
579.016	1	0
580.205	1	-8
581.394	1	-13
582.583	1	20
583.772	1	7
584.961	1	0
586.150	1	-7
587.339	1	5
588.528	1	-1
589.717	1	4
590.905	1	-1
592.094	1	-8
593.283	1	-4
594.471	1	5
595.660	1	2
596.848	1	4
598.037	1	0
599.225	1	-3
600.413	1	7
601.602	1	9
602.790	1	1
603.978	1	-5
605.166	1	7
606.355	1	3
607.543	1	-5
608.731	1	0
609.919	1	13
611.107	1	0
612.295	1	-2
613.483	1	0
614.671	1	-4
615.858	1	2
617.046	1	0
618.234	1	1
619.422	1	-17
620.609	1	4
621.797	1	-4
622.985	1	-3
624.172	1	-9
625.360	1	4
626.547	1	5
627.735	1	-7
628.922	1	10
630.109	1	-5
631.297	1	-7
632.484	1	-10
633.671	1	-12
634.858	1	-5
636.045	1	3
637.232	1	2
638.419	1	-2
639.606	1	-2
640.793	1	3
641.980	1	8
643.167	1	-4
644.354	1	-2
645.541	1	-3
646.728	1	-3
647.914	1	-3
649.101	1	-4
650.288	1	5
651.474	1	-10
652.661	1	-4
653.847	1	6
655.034	1	3
656.220	1	-11
657.406	1	1
658.593	1	3
659.779	1	-2
660.965	1	7
662.152	1	5
663.338	1	7
664.524	1	-7
665.710	1	3
666.896	1	-6
668.082	1	-3
669.268	1	-5
670.454	1	-3
671.640	1	5
672.826	1	1
674.011	1	-6
675.197	1	-10
676.383	1	-3
677.569	1	3
678.754	1	-4
679.940	1	-8
681.125	1	2
682.311	1	12
683.496	1	1
684.682	1	-6
685.867	1	-11
687.053	1	1
688.238	1	4
688.746	1	-2