File: Data/GaN_200K_800ms/GaN_sample F_spot 12_UVVIS_200 K_200um_800 ms 2x2mm1_38.txt
340.368	1	4
341.565	1	0
342.763	1	15
343.960	1	12
345.157	1	5
346.354	1	10
347.552	1	18
348.749	1	17
349.946	1	13
351.143	1	19
352.340	1	27
353.537	1	23
354.734	1	45
355.931	1	57
357.127	1	60
358.324	1	81
359.521	1	110
360.718	1	154
361.914	1	244
363.111	1	371
364.308	1	595
365.504	1	987
366.701	1	1480
367.897	1	2140
369.093	1	2571
370.290	1	2661
371.486	1	2369
372.682	1	1828
373.879	1	1429
375.075	1	1222
376.271	1	995
377.467	1	787
378.663	1	632
379.859	1	496
381.055	1	402
382.251	1	332
383.447	1	294
384.643	1	297
385.839	1	252
387.035	1	217
388.230	1	197
389.426	1	149
390.622	1	133
391.817	1	137
393.013	1	115
394.208	1	110
395.404	1	79
396.599	1	88
397.795	1	94
398.990	1	78
400.186	1	74
401.381	1	66
402.576	1	58
403.771	1	49
404.967	1	51
406.162	1	57
407.357	1	47
408.552	1	42
409.747	1	44
410.942	1	46
412.137	1	41
413.332	1	35
414.526	1	26
415.721	1	30
416.916	1	32
418.111	1	40
419.305	1	28
420.500	1	29
421.695	1	24
422.889	1	16
424.084	1	20
425.278	1	32
426.472	1	32
427.667	1	25
428.861	1	15
430.055	1	25
431.250	1	26
432.444	1	18
433.638	1	15
434.832	1	25
436.026	1	25
437.220	1	31
438.414	1	7
439.608	1	8
440.802	1	13
441.996	1	8
443.190	1	16
444.384	1	3
445.578	1	4
446.771	1	31
447.965	1	23
449.159	1	14
450.352	1	10
451.546	1	14
452.739	1	18
453.933	1	6
455.126	1	2
456.320	1	23
457.513	1	28
458.706	1	12
459.899	1	17
461.093	1	25
462.286	1	13
463.479	1	21
464.672	1	15
465.865	1	17
467.058	1	20
468.251	1	18
469.444	1	13
470.637	1	26
471.830	1	19
473.023	1	22
474.215	1	23
475.408	1	30
476.601	1	14
477.793	1	33
478.986	1	14
480.179	1	32
481.371	1	33
482.564	1	34
483.756	1	34
484.948	1	17
486.141	1	36
487.333	1	47
488.525	1	42
489.718	1	49
490.910	1	54
492.102	1	61
493.294	1	57
494.486	1	68
495.678	1	57
496.870	1	77
498.062	1	72
499.254	1	75
500.446	1	78
501.638	1	87
502.829	1	92
504.021	1	109
505.213	1	127
506.404	1	122
507.596	1	128
508.788	1	140
509.979	1	123
511.171	1	133
512.362	1	133
513.553	1	130
514.745	1	161
515.936	1	157
517.127	1	180
518.319	1	194
519.510	1	198
520.701	1	199
521.892	1	210
523.083	1	197
524.274	1	205
525.465	1	222
526.656	1	214
527.847	1	250
529.038	1	241
530.229	1	263
531.419	1	285
532.610	1	285
533.801	1	310
534.991	1	290
536.182	1	307
537.373	1	293
538.563	1	292
539.754	1	301
540.944	1	293
542.134	1	299
543.325	1	283
544.515	1	313
545.705	1	314
546.896	1	330
548.086	1	344
549.276	1	363
550.466	1	375
551.656	1	385
552.846	1	391
554.036	1	383
555.226	1	358
556.416	1	390
557.606	1	371
558.796	1	370
559.986	1	354
561.175	1	371
562.365	1	379
563.555	1	364
564.744	1	351
565.934	1	368
567.123	1	370
568.313	1	380
569.502	1	369
570.692	1	391
571.881	1	391
573.070	1	346
574.260	1	365
575.449	1	355
576.638	1	346
577.827	1	355
579.016	1	352
580.205	1	347
581.394	1	348
582.583	1	366
583.772	1	363
584.961	1	358
586.150	1	348
587.339	1	349
588.528	1	344
589.717	1	341
590.905	1	333
592.094	1	311
593.283	1	311
594.471	1	316
595.660	1	293
596.848	1	288
598.037	1	273
599.225	1	266
600.413	1	272
601.602	1	300
602.790	1	263
603.978	1	282
605.166	1	299
606.355	1	292
607.543	1	301
608.731	1	281
609.919	1	269
611.107	1	274
612.295	1	250
613.483	1	265
614.671	1	242
615.858	1	234
617.046	1	232
618.234	1	222
619.422	1	208
620.609	1	226
621.797	1	198
622.985	1	212
624.172	1	194
625.360	1	200
626.547	1	188
627.735	1	202
628.922	1	201
630.109	1	169
631.297	1	186
632.484	1	181
633.671	1	160
634.858	1	171
636.045	1	167
637.232	1	150
638.419	1	161
639.606	1	161
640.793	1	155
641.980	1	145
643.167	1	140
644.354	1	150
645.541	1	140
646.728	1	134
647.914	1	127
649.101	1	121
650.288	1	132
651.474	1	113
652.661	1	116
653.847	1	127
655.034	1	121
656.220	1	107
657.406	1	99
658.593	1	112
659.779	1	99
660.965	1	98
662.152	1	94
663.338	1	100
664.524	1	81
665.710	1	93
666.896	1	77
668.082	1	79
669.268	1	82
670.454	1	77
671.640	1	80
672.826	1	73
674.011	1	85
675.197	1	77
676.383	1	81
677.569	1	73
678.754	1	76
679.940	1	66
681.125	1	75
682.311	1	82
683.496	1	77
684.682	1	60
685.867	1	68
687.053	1	69
688.238	1	75
688.746	1	67