File: Data/GaN_200K_800ms/GaN_sample F_spot 12_UVVIS_200 K_200um_800 ms 2x2mm1_102.txt
340.368	1	11
341.565	1	-6
342.763	1	9
343.960	1	4
345.157	1	-1
346.354	1	3
347.552	1	-4
348.749	1	1
349.946	1	-2
351.143	1	6
352.340	1	16
353.537	1	-4
354.734	1	17
355.931	1	7
357.127	1	4
358.324	1	12
359.521	1	21
360.718	1	22
361.914	1	26
363.111	1	22
364.308	1	36
365.504	1	56
366.701	1	70
367.897	1	93
369.093	1	96
370.290	1	86
371.486	1	94
372.682	1	87
373.879	1	64
375.075	1	54
376.271	1	48
377.467	1	39
378.663	1	30
379.859	1	32
381.055	1	34
382.251	1	16
383.447	1	28
384.643	1	27
385.839	1	15
387.035	1	12
388.230	1	13
389.426	1	9
390.622	1	5
391.817	1	3
393.013	1	11
394.208	1	5
395.404	1	2
396.599	1	3
397.795	1	16
398.990	1	2
400.186	1	4
401.381	1	2
402.576	1	-2
403.771	1	13
404.967	1	5
406.162	1	15
407.357	1	1
408.552	1	6
409.747	1	8
410.942	1	8
412.137	1	2
413.332	1	4
414.526	1	0
415.721	1	10
416.916	1	1
418.111	1	4
419.305	1	8
420.500	1	-6
421.695	1	-5
422.889	1	-6
424.084	1	-1
425.278	1	8
426.472	1	11
427.667	1	9
428.861	1	-8
430.055	1	7
431.250	1	2
432.444	1	8
433.638	1	-5
434.832	1	3
436.026	1	9
437.220	1	-2
438.414	1	-6
439.608	1	-4
440.802	1	-2
441.996	1	6
443.190	1	0
444.384	1	10
445.578	1	-4
446.771	1	18
447.965	1	1
449.159	1	-3
450.352	1	1
451.546	1	-3
452.739	1	15
453.933	1	2
455.126	1	-5
456.320	1	3
457.513	1	6
458.706	1	2
459.899	1	-2
461.093	1	7
462.286	1	7
463.479	1	3
464.672	1	-2
465.865	1	7
467.058	1	-1
468.251	1	3
469.444	1	-7
470.637	1	-7
471.830	1	4
473.023	1	1
474.215	1	12
475.408	1	7
476.601	1	0
477.793	1	8
478.986	1	-5
480.179	1	2
481.371	1	-1
482.564	1	10
483.756	1	14
484.948	1	-4
486.141	1	-1
487.333	1	-3
488.525	1	12
489.718	1	2
490.910	1	-4
492.102	1	6
493.294	1	2
494.486	1	19
495.678	1	8
496.870	1	8
498.062	1	2
499.254	1	9
500.446	1	-3
501.638	1	-4
502.829	1	8
504.021	1	6
505.213	1	10
506.404	1	5
507.596	1	9
508.788	1	14
509.979	1	13
511.171	1	9
512.362	1	6
513.553	1	-2
514.745	1	2
515.936	1	5
517.127	1	3
518.319	1	3
519.510	1	4
520.701	1	9
521.892	1	6
523.083	1	7
524.274	1	9
525.465	1	10
526.656	1	9
527.847	1	9
529.038	1	11
530.229	1	10
531.419	1	16
532.610	1	2
533.801	1	10
534.991	1	13
536.182	1	11
537.373	1	9
538.563	1	23
539.754	1	8
540.944	1	-1
542.134	1	15
543.325	1	10
544.515	1	8
545.705	1	11
546.896	1	11
548.086	1	15
549.276	1	9
550.466	1	5
551.656	1	20
552.846	1	10
554.036	1	11
555.226	1	4
556.416	1	8
557.606	1	19
558.796	1	11
559.986	1	3
561.175	1	7
562.365	1	17
563.555	1	1
564.744	1	16
565.934	1	17
567.123	1	16
568.313	1	7
569.502	1	9
570.692	1	14
571.881	1	28
573.070	1	11
574.260	1	21
575.449	1	10
576.638	1	6
577.827	1	8
579.016	1	16
580.205	1	3
581.394	1	7
582.583	1	12
583.772	1	15
584.961	1	14
586.150	1	13
587.339	1	16
588.528	1	9
589.717	1	11
590.905	1	2
592.094	1	9
593.283	1	6
594.471	1	21
595.660	1	13
596.848	1	11
598.037	1	8
599.225	1	-10
600.413	1	17
601.602	1	18
602.790	1	3
603.978	1	12
605.166	1	21
606.355	1	15
607.543	1	1
608.731	1	5
609.919	1	10
611.107	1	13
612.295	1	5
613.483	1	4
614.671	1	14
615.858	1	7
617.046	1	9
618.234	1	3
619.422	1	-4
620.609	1	15
621.797	1	-5
622.985	1	4
624.172	1	11
625.360	1	6
626.547	1	15
627.735	1	5
628.922	1	12
630.109	1	-3
631.297	1	3
632.484	1	6
633.671	1	7
634.858	1	1
636.045	1	10
637.232	1	-1
638.419	1	0
639.606	1	12
640.793	1	9
641.980	1	7
643.167	1	-1
644.354	1	6
645.541	1	11
646.728	1	-1
647.914	1	7
649.101	1	9
650.288	1	12
651.474	1	6
652.661	1	0
653.847	1	5
655.034	1	12
656.220	1	-4
657.406	1	3
658.593	1	8
659.779	1	11
660.965	1	8
662.152	1	11
663.338	1	9
664.524	1	1
665.710	1	-1
666.896	1	0
668.082	1	5
669.268	1	5
670.454	1	6
671.640	1	8
672.826	1	3
674.011	1	4
675.197	1	1
676.383	1	7
677.569	1	6
678.754	1	1
679.940	1	6
681.125	1	5
682.311	1	14
683.496	1	10
684.682	1	7
685.867	1	12
687.053	1	13
688.238	1	5
688.746	1	4