File: Data/GaN_200K_800ms/GaN_sample F_spot 12_UVVIS_200 K_200um_800 ms 2x2mm1_281.txt
340.368	1	13
341.565	1	8
342.763	1	-2
343.960	1	2
345.157	1	2
346.354	1	-8
347.552	1	-4
348.749	1	-4
349.946	1	-4
351.143	1	-3
352.340	1	8
353.537	1	3
354.734	1	-1
355.931	1	8
357.127	1	8
358.324	1	1
359.521	1	7
360.718	1	6
361.914	1	9
363.111	1	5
364.308	1	3
365.504	1	9
366.701	1	15
367.897	1	23
369.093	1	16
370.290	1	15
371.486	1	26
372.682	1	13
373.879	1	13
375.075	1	8
376.271	1	14
377.467	1	5
378.663	1	2
379.859	1	9
381.055	1	15
382.251	1	-5
383.447	1	1
384.643	1	11
385.839	1	1
387.035	1	7
388.230	1	9
389.426	1	-5
390.622	1	3
391.817	1	0
393.013	1	3
394.208	1	4
395.404	1	-4
396.599	1	3
397.795	1	-3
398.990	1	1
400.186	1	-4
401.381	1	-11
402.576	1	-5
403.771	1	7
404.967	1	5
406.162	1	13
407.357	1	-19
408.552	1	-3
409.747	1	-11
410.942	1	6
412.137	1	1
413.332	1	-5
414.526	1	-5
415.721	1	-2
416.916	1	-5
418.111	1	-1
419.305	1	9
420.500	1	3
421.695	1	-5
422.889	1	-1
424.084	1	-5
425.278	1	19
426.472	1	-10
427.667	1	8
428.861	1	0
430.055	1	7
431.250	1	-4
432.444	1	-2
433.638	1	-2
434.832	1	-1
436.026	1	-2
437.220	1	-1
438.414	1	-3
439.608	1	-3
440.802	1	-18
441.996	1	0
443.190	1	10
444.384	1	-14
445.578	1	-14
446.771	1	10
447.965	1	-3
449.159	1	-2
450.352	1	-3
451.546	1	-1
452.739	1	-3
453.933	1	-1
455.126	1	-9
456.320	1	-12
457.513	1	8
458.706	1	-4
459.899	1	3
461.093	1	4
462.286	1	-1
463.479	1	-5
464.672	1	3
465.865	1	4
467.058	1	-2
468.251	1	6
469.444	1	-5
470.637	1	-3
471.830	1	-1
473.023	1	8
474.215	1	8
475.408	1	-4
476.601	1	3
477.793	1	-1
478.986	1	-5
480.179	1	-1
481.371	1	3
482.564	1	2
483.756	1	6
484.948	1	-8
486.141	1	-7
487.333	1	6
488.525	1	-3
489.718	1	-3
490.910	1	4
492.102	1	-5
493.294	1	-2
494.486	1	1
495.678	1	-1
496.870	1	2
498.062	1	3
499.254	1	9
500.446	1	-7
501.638	1	-2
502.829	1	1
504.021	1	6
505.213	1	3
506.404	1	2
507.596	1	3
508.788	1	12
509.979	1	6
511.171	1	-7
512.362	1	-7
513.553	1	-15
514.745	1	-5
515.936	1	-3
517.127	1	-7
518.319	1	-4
519.510	1	-1
520.701	1	-4
521.892	1	10
523.083	1	-5
524.274	1	5
525.465	1	2
526.656	1	0
527.847	1	6
529.038	1	3
530.229	1	7
531.419	1	6
532.610	1	-4
533.801	1	14
534.991	1	-4
536.182	1	1
537.373	1	2
538.563	1	11
539.754	1	4
540.944	1	-3
542.134	1	3
543.325	1	-6
544.515	1	9
545.705	1	-2
546.896	1	3
548.086	1	7
549.276	1	6
550.466	1	2
551.656	1	2
552.846	1	6
554.036	1	-3
555.226	1	-4
556.416	1	3
557.606	1	-4
558.796	1	-1
559.986	1	-4
561.175	1	12
562.365	1	7
563.555	1	-8
564.744	1	6
565.934	1	4
567.123	1	10
568.313	1	11
569.502	1	-4
570.692	1	0
571.881	1	7
573.070	1	-4
574.260	1	13
575.449	1	-3
576.638	1	0
577.827	1	-2
579.016	1	11
580.205	1	9
581.394	1	0
582.583	1	15
583.772	1	10
584.961	1	7
586.150	1	-2
587.339	1	4
588.528	1	1
589.717	1	-3
590.905	1	1
592.094	1	2
593.283	1	1
594.471	1	3
595.660	1	6
596.848	1	6
598.037	1	-3
599.225	1	-2
600.413	1	12
601.602	1	11
602.790	1	-1
603.978	1	-9
605.166	1	4
606.355	1	-3
607.543	1	-1
608.731	1	-1
609.919	1	5
611.107	1	-6
612.295	1	-2
613.483	1	-3
614.671	1	10
615.858	1	12
617.046	1	-2
618.234	1	-9
619.422	1	-8
620.609	1	-5
621.797	1	-7
622.985	1	-4
624.172	1	-1
625.360	1	6
626.547	1	-1
627.735	1	5
628.922	1	4
630.109	1	-6
631.297	1	1
632.484	1	1
633.671	1	3
634.858	1	-9
636.045	1	16
637.232	1	2
638.419	1	-1
639.606	1	0
640.793	1	14
641.980	1	-3
643.167	1	-6
644.354	1	9
645.541	1	0
646.728	1	1
647.914	1	-8
649.101	1	8
650.288	1	8
651.474	1	-4
652.661	1	-4
653.847	1	5
655.034	1	8
656.220	1	-4
657.406	1	-1
658.593	1	11
659.779	1	7
660.965	1	11
662.152	1	8
663.338	1	9
664.524	1	-4
665.710	1	-1
666.896	1	-5
668.082	1	-1
669.268	1	-3
670.454	1	-5
671.640	1	1
672.826	1	-3
674.011	1	-6
675.197	1	-9
676.383	1	-7
677.569	1	3
678.754	1	-1
679.940	1	5
681.125	1	0
682.311	1	14
683.496	1	5
684.682	1	-15
685.867	1	3
687.053	1	4
688.238	1	0
688.746	1	4