File: Data/GaN_200K_800ms/GaN_sample F_spot 12_UVVIS_200 K_200um_800 ms 2x2mm1_210.txt
340.368	1	5
341.565	1	-12
342.763	1	6
343.960	1	6
345.157	1	-4
346.354	1	3
347.552	1	-4
348.749	1	-6
349.946	1	-8
351.143	1	4
352.340	1	16
353.537	1	3
354.734	1	-1
355.931	1	-3
357.127	1	-1
358.324	1	2
359.521	1	9
360.718	1	6
361.914	1	13
363.111	1	8
364.308	1	13
365.504	1	28
366.701	1	17
367.897	1	25
369.093	1	29
370.290	1	29
371.486	1	30
372.682	1	33
373.879	1	20
375.075	1	23
376.271	1	14
377.467	1	11
378.663	1	9
379.859	1	17
381.055	1	18
382.251	1	2
383.447	1	1
384.643	1	14
385.839	1	-5
387.035	1	-1
388.230	1	6
389.426	1	-2
390.622	1	3
391.817	1	9
393.013	1	-11
394.208	1	3
395.404	1	2
396.599	1	-2
397.795	1	6
398.990	1	5
400.186	1	9
401.381	1	7
402.576	1	4
403.771	1	9
404.967	1	1
406.162	1	7
407.357	1	1
408.552	1	-8
409.747	1	-7
410.942	1	3
412.137	1	8
413.332	1	0
414.526	1	-2
415.721	1	13
416.916	1	-2
418.111	1	-2
419.305	1	7
420.500	1	-1
421.695	1	1
422.889	1	-8
424.084	1	-3
425.278	1	10
426.472	1	3
427.667	1	7
428.861	1	-4
430.055	1	7
431.250	1	-4
432.444	1	16
433.638	1	-6
434.832	1	0
436.026	1	-1
437.220	1	7
438.414	1	-4
439.608	1	-18
440.802	1	-2
441.996	1	7
443.190	1	-2
444.384	1	-1
445.578	1	-4
446.771	1	9
447.965	1	2
449.159	1	-6
450.352	1	-3
451.546	1	3
452.739	1	0
453.933	1	-1
455.126	1	-2
456.320	1	-5
457.513	1	6
458.706	1	-1
459.899	1	-4
461.093	1	-4
462.286	1	-3
463.479	1	-7
464.672	1	0
465.865	1	0
467.058	1	-8
468.251	1	-7
469.444	1	-1
470.637	1	-3
471.830	1	4
473.023	1	4
474.215	1	9
475.408	1	-1
476.601	1	4
477.793	1	-7
478.986	1	-7
480.179	1	-6
481.371	1	1
482.564	1	4
483.756	1	10
484.948	1	-8
486.141	1	-4
487.333	1	3
488.525	1	2
489.718	1	-2
490.910	1	6
492.102	1	0
493.294	1	-5
494.486	1	2
495.678	1	3
496.870	1	1
498.062	1	3
499.254	1	2
500.446	1	-3
501.638	1	-4
502.829	1	5
504.021	1	4
505.213	1	9
506.404	1	8
507.596	1	2
508.788	1	11
509.979	1	4
511.171	1	-10
512.362	1	-3
513.553	1	-7
514.745	1	-3
515.936	1	2
517.127	1	0
518.319	1	-7
519.510	1	0
520.701	1	4
521.892	1	7
523.083	1	4
524.274	1	3
525.465	1	13
526.656	1	-3
527.847	1	6
529.038	1	2
530.229	1	10
531.419	1	10
532.610	1	3
533.801	1	14
534.991	1	5
536.182	1	7
537.373	1	12
538.563	1	7
539.754	1	1
540.944	1	-1
542.134	1	3
543.325	1	-3
544.515	1	-2
545.705	1	-4
546.896	1	7
548.086	1	5
549.276	1	5
550.466	1	6
551.656	1	4
552.846	1	10
554.036	1	1
555.226	1	-9
556.416	1	4
557.606	1	4
558.796	1	1
559.986	1	-7
561.175	1	5
562.365	1	7
563.555	1	8
564.744	1	5
565.934	1	15
567.123	1	3
568.313	1	9
569.502	1	-2
570.692	1	11
571.881	1	15
573.070	1	-2
574.260	1	13
575.449	1	-4
576.638	1	-5
577.827	1	4
579.016	1	9
580.205	1	12
581.394	1	4
582.583	1	14
583.772	1	9
584.961	1	4
586.150	1	-2
587.339	1	10
588.528	1	8
589.717	1	7
590.905	1	8
592.094	1	1
593.283	1	7
594.471	1	20
595.660	1	7
596.848	1	13
598.037	1	-1
599.225	1	-1
600.413	1	10
601.602	1	17
602.790	1	7
603.978	1	0
605.166	1	5
606.355	1	5
607.543	1	7
608.731	1	-1
609.919	1	13
611.107	1	11
612.295	1	-4
613.483	1	5
614.671	1	18
615.858	1	-4
617.046	1	9
618.234	1	-7
619.422	1	-9
620.609	1	5
621.797	1	10
622.985	1	0
624.172	1	4
625.360	1	11
626.547	1	9
627.735	1	4
628.922	1	8
630.109	1	-10
631.297	1	8
632.484	1	-2
633.671	1	2
634.858	1	-1
636.045	1	16
637.232	1	-5
638.419	1	-3
639.606	1	5
640.793	1	11
641.980	1	4
643.167	1	-1
644.354	1	-3
645.541	1	-4
646.728	1	5
647.914	1	-11
649.101	1	2
650.288	1	2
651.474	1	3
652.661	1	-8
653.847	1	16
655.034	1	-1
656.220	1	-5
657.406	1	8
658.593	1	9
659.779	1	-1
660.965	1	-2
662.152	1	-3
663.338	1	12
664.524	1	-3
665.710	1	-3
666.896	1	-4
668.082	1	7
669.268	1	-1
670.454	1	4
671.640	1	5
672.826	1	-4
674.011	1	-1
675.197	1	-3
676.383	1	-3
677.569	1	-12
678.754	1	10
679.940	1	4
681.125	1	7
682.311	1	7
683.496	1	4
684.682	1	-7
685.867	1	-1
687.053	1	-5
688.238	1	6
688.746	1	-1