File: Data/GaN_200K_800ms/GaN_sample F_spot 12_UVVIS_200 K_200um_800 ms 2x2mm1_72.txt
340.368	1	3
341.565	1	-11
342.763	1	13
343.960	1	5
345.157	1	1
346.354	1	14
347.552	1	0
348.749	1	-4
349.946	1	0
351.143	1	4
352.340	1	13
353.537	1	7
354.734	1	15
355.931	1	10
357.127	1	12
358.324	1	18
359.521	1	36
360.718	1	39
361.914	1	50
363.111	1	61
364.308	1	73
365.504	1	110
366.701	1	132
367.897	1	155
369.093	1	174
370.290	1	189
371.486	1	172
372.682	1	145
373.879	1	120
375.075	1	103
376.271	1	94
377.467	1	78
378.663	1	60
379.859	1	67
381.055	1	60
382.251	1	35
383.447	1	35
384.643	1	42
385.839	1	34
387.035	1	35
388.230	1	38
389.426	1	25
390.622	1	15
391.817	1	21
393.013	1	4
394.208	1	-1
395.404	1	-1
396.599	1	7
397.795	1	2
398.990	1	14
400.186	1	4
401.381	1	10
402.576	1	13
403.771	1	8
404.967	1	11
406.162	1	14
407.357	1	-2
408.552	1	0
409.747	1	3
410.942	1	8
412.137	1	15
413.332	1	10
414.526	1	12
415.721	1	6
416.916	1	0
418.111	1	-1
419.305	1	5
420.500	1	3
421.695	1	7
422.889	1	-8
424.084	1	3
425.278	1	9
426.472	1	1
427.667	1	9
428.861	1	1
430.055	1	4
431.250	1	5
432.444	1	5
433.638	1	1
434.832	1	5
436.026	1	8
437.220	1	11
438.414	1	-5
439.608	1	-11
440.802	1	-1
441.996	1	10
443.190	1	2
444.384	1	-7
445.578	1	-1
446.771	1	14
447.965	1	1
449.159	1	-7
450.352	1	0
451.546	1	9
452.739	1	10
453.933	1	-1
455.126	1	-8
456.320	1	10
457.513	1	8
458.706	1	3
459.899	1	8
461.093	1	7
462.286	1	13
463.479	1	2
464.672	1	1
465.865	1	-2
467.058	1	7
468.251	1	2
469.444	1	4
470.637	1	9
471.830	1	5
473.023	1	7
474.215	1	6
475.408	1	5
476.601	1	0
477.793	1	3
478.986	1	-1
480.179	1	5
481.371	1	8
482.564	1	7
483.756	1	10
484.948	1	-5
486.141	1	4
487.333	1	-6
488.525	1	5
489.718	1	14
490.910	1	4
492.102	1	3
493.294	1	-2
494.486	1	1
495.678	1	-1
496.870	1	11
498.062	1	9
499.254	1	7
500.446	1	-2
501.638	1	2
502.829	1	12
504.021	1	4
505.213	1	18
506.404	1	6
507.596	1	8
508.788	1	15
509.979	1	10
511.171	1	3
512.362	1	18
513.553	1	5
514.745	1	20
515.936	1	10
517.127	1	14
518.319	1	12
519.510	1	17
520.701	1	16
521.892	1	6
523.083	1	12
524.274	1	9
525.465	1	16
526.656	1	20
527.847	1	28
529.038	1	26
530.229	1	17
531.419	1	29
532.610	1	10
533.801	1	42
534.991	1	18
536.182	1	11
537.373	1	17
538.563	1	18
539.754	1	22
540.944	1	6
542.134	1	19
543.325	1	16
544.515	1	17
545.705	1	20
546.896	1	12
548.086	1	18
549.276	1	13
550.466	1	18
551.656	1	29
552.846	1	14
554.036	1	25
555.226	1	13
556.416	1	24
557.606	1	19
558.796	1	10
559.986	1	20
561.175	1	23
562.365	1	19
563.555	1	16
564.744	1	25
565.934	1	27
567.123	1	18
568.313	1	18
569.502	1	6
570.692	1	28
571.881	1	28
573.070	1	19
574.260	1	39
575.449	1	12
576.638	1	10
577.827	1	18
579.016	1	25
580.205	1	9
581.394	1	6
582.583	1	28
583.772	1	19
584.961	1	27
586.150	1	21
587.339	1	19
588.528	1	22
589.717	1	6
590.905	1	16
592.094	1	14
593.283	1	15
594.471	1	22
595.660	1	14
596.848	1	15
598.037	1	24
599.225	1	5
600.413	1	17
601.602	1	16
602.790	1	14
603.978	1	18
605.166	1	14
606.355	1	8
607.543	1	9
608.731	1	11
609.919	1	18
611.107	1	18
612.295	1	13
613.483	1	18
614.671	1	19
615.858	1	27
617.046	1	21
618.234	1	-4
619.422	1	9
620.609	1	22
621.797	1	9
622.985	1	6
624.172	1	7
625.360	1	14
626.547	1	11
627.735	1	14
628.922	1	17
630.109	1	7
631.297	1	6
632.484	1	11
633.671	1	7
634.858	1	9
636.045	1	17
637.232	1	6
638.419	1	-3
639.606	1	9
640.793	1	16
641.980	1	17
643.167	1	7
644.354	1	8
645.541	1	7
646.728	1	5
647.914	1	6
649.101	1	3
650.288	1	8
651.474	1	6
652.661	1	1
653.847	1	17
655.034	1	15
656.220	1	10
657.406	1	7
658.593	1	19
659.779	1	14
660.965	1	11
662.152	1	4
663.338	1	16
664.524	1	10
665.710	1	-3
666.896	1	6
668.082	1	12
669.268	1	9
670.454	1	16
671.640	1	20
672.826	1	10
674.011	1	5
675.197	1	7
676.383	1	16
677.569	1	10
678.754	1	6
679.940	1	1
681.125	1	12
682.311	1	13
683.496	1	14
684.682	1	-1
685.867	1	8
687.053	1	7
688.238	1	-1
688.746	1	14