File: Data/GaN_200K_800ms/GaN_sample F_spot 12_UVVIS_200 K_200um_800 ms 2x2mm1_296.txt
340.368	1	0
341.565	1	-4
342.763	1	4
343.960	1	-6
345.157	1	-12
346.354	1	2
347.552	1	-2
348.749	1	-7
349.946	1	-8
351.143	1	-1
352.340	1	-1
353.537	1	-1
354.734	1	-3
355.931	1	3
357.127	1	0
358.324	1	-2
359.521	1	7
360.718	1	3
361.914	1	9
363.111	1	6
364.308	1	7
365.504	1	16
366.701	1	8
367.897	1	21
369.093	1	5
370.290	1	23
371.486	1	21
372.682	1	24
373.879	1	4
375.075	1	-2
376.271	1	17
377.467	1	8
378.663	1	5
379.859	1	7
381.055	1	13
382.251	1	-10
383.447	1	5
384.643	1	6
385.839	1	0
387.035	1	3
388.230	1	11
389.426	1	-3
390.622	1	-7
391.817	1	-4
393.013	1	2
394.208	1	2
395.404	1	1
396.599	1	-1
397.795	1	-5
398.990	1	-11
400.186	1	1
401.381	1	-2
402.576	1	0
403.771	1	-1
404.967	1	-2
406.162	1	9
407.357	1	-7
408.552	1	-4
409.747	1	5
410.942	1	4
412.137	1	10
413.332	1	0
414.526	1	0
415.721	1	-3
416.916	1	-2
418.111	1	-2
419.305	1	-2
420.500	1	-8
421.695	1	-1
422.889	1	-10
424.084	1	1
425.278	1	11
426.472	1	-4
427.667	1	0
428.861	1	4
430.055	1	0
431.250	1	1
432.444	1	6
433.638	1	2
434.832	1	0
436.026	1	8
437.220	1	6
438.414	1	-7
439.608	1	-13
440.802	1	-7
441.996	1	10
443.190	1	3
444.384	1	-7
445.578	1	-10
446.771	1	5
447.965	1	-3
449.159	1	-1
450.352	1	-9
451.546	1	-3
452.739	1	2
453.933	1	6
455.126	1	-10
456.320	1	6
457.513	1	5
458.706	1	-4
459.899	1	7
461.093	1	-4
462.286	1	7
463.479	1	-6
464.672	1	-5
465.865	1	-3
467.058	1	-5
468.251	1	1
469.444	1	0
470.637	1	-5
471.830	1	6
473.023	1	-2
474.215	1	7
475.408	1	5
476.601	1	-3
477.793	1	-5
478.986	1	-6
480.179	1	-1
481.371	1	5
482.564	1	-1
483.756	1	6
484.948	1	-6
486.141	1	-8
487.333	1	0
488.525	1	-2
489.718	1	-3
490.910	1	3
492.102	1	-3
493.294	1	-7
494.486	1	10
495.678	1	-1
496.870	1	8
498.062	1	1
499.254	1	-6
500.446	1	-15
501.638	1	1
502.829	1	-2
504.021	1	5
505.213	1	9
506.404	1	3
507.596	1	1
508.788	1	16
509.979	1	-9
511.171	1	0
512.362	1	-15
513.553	1	0
514.745	1	0
515.936	1	6
517.127	1	6
518.319	1	2
519.510	1	-1
520.701	1	-6
521.892	1	8
523.083	1	5
524.274	1	-2
525.465	1	12
526.656	1	-3
527.847	1	0
529.038	1	1
530.229	1	1
531.419	1	2
532.610	1	-11
533.801	1	4
534.991	1	3
536.182	1	3
537.373	1	5
538.563	1	6
539.754	1	5
540.944	1	-4
542.134	1	4
543.325	1	-7
544.515	1	-1
545.705	1	2
546.896	1	0
548.086	1	7
549.276	1	-7
550.466	1	1
551.656	1	4
552.846	1	0
554.036	1	-1
555.226	1	-16
556.416	1	-3
557.606	1	4
558.796	1	3
559.986	1	2
561.175	1	6
562.365	1	-1
563.555	1	-6
564.744	1	3
565.934	1	9
567.123	1	9
568.313	1	13
569.502	1	3
570.692	1	3
571.881	1	12
573.070	1	3
574.260	1	9
575.449	1	6
576.638	1	2
577.827	1	-8
579.016	1	12
580.205	1	-6
581.394	1	4
582.583	1	2
583.772	1	12
584.961	1	3
586.150	1	-8
587.339	1	10
588.528	1	0
589.717	1	4
590.905	1	-1
592.094	1	-1
593.283	1	5
594.471	1	9
595.660	1	-3
596.848	1	-1
598.037	1	-4
599.225	1	-11
600.413	1	11
601.602	1	18
602.790	1	-3
603.978	1	6
605.166	1	8
606.355	1	7
607.543	1	-7
608.731	1	5
609.919	1	15
611.107	1	0
612.295	1	-10
613.483	1	4
614.671	1	9
615.858	1	5
617.046	1	2
618.234	1	-6
619.422	1	1
620.609	1	7
621.797	1	5
622.985	1	1
624.172	1	-4
625.360	1	3
626.547	1	6
627.735	1	6
628.922	1	5
630.109	1	-8
631.297	1	1
632.484	1	-5
633.671	1	-4
634.858	1	-2
636.045	1	21
637.232	1	-7
638.419	1	-3
639.606	1	5
640.793	1	8
641.980	1	11
643.167	1	-3
644.354	1	5
645.541	1	-4
646.728	1	-5
647.914	1	-5
649.101	1	-3
650.288	1	1
651.474	1	-3
652.661	1	-6
653.847	1	4
655.034	1	4
656.220	1	-6
657.406	1	3
658.593	1	8
659.779	1	0
660.965	1	11
662.152	1	3
663.338	1	5
664.524	1	-2
665.710	1	1
666.896	1	7
668.082	1	11
669.268	1	3
670.454	1	2
671.640	1	0
672.826	1	0
674.011	1	-4
675.197	1	-4
676.383	1	0
677.569	1	-5
678.754	1	-4
679.940	1	-2
681.125	1	7
682.311	1	6
683.496	1	-3
684.682	1	-4
685.867	1	0
687.053	1	5
688.238	1	8
688.746	1	-4