File: Data/GaN_200K_800ms/GaN_sample F_spot 12_UVVIS_200 K_200um_800 ms 2x2mm1_379.txt
340.368	1	-8
341.565	1	-13
342.763	1	11
343.960	1	2
345.157	1	0
346.354	1	-4
347.552	1	-1
348.749	1	-1
349.946	1	2
351.143	1	4
352.340	1	12
353.537	1	-5
354.734	1	5
355.931	1	-6
357.127	1	-9
358.324	1	1
359.521	1	-1
360.718	1	-6
361.914	1	-4
363.111	1	3
364.308	1	-4
365.504	1	10
366.701	1	5
367.897	1	7
369.093	1	5
370.290	1	4
371.486	1	19
372.682	1	9
373.879	1	2
375.075	1	3
376.271	1	16
377.467	1	1
378.663	1	-3
379.859	1	3
381.055	1	8
382.251	1	-13
383.447	1	0
384.643	1	12
385.839	1	5
387.035	1	1
388.230	1	15
389.426	1	0
390.622	1	-5
391.817	1	3
393.013	1	-9
394.208	1	4
395.404	1	-5
396.599	1	-6
397.795	1	11
398.990	1	-11
400.186	1	-1
401.381	1	-1
402.576	1	-5
403.771	1	6
404.967	1	5
406.162	1	0
407.357	1	0
408.552	1	-1
409.747	1	-4
410.942	1	0
412.137	1	-2
413.332	1	-2
414.526	1	-3
415.721	1	0
416.916	1	-15
418.111	1	-8
419.305	1	2
420.500	1	-4
421.695	1	-10
422.889	1	-8
424.084	1	2
425.278	1	0
426.472	1	2
427.667	1	13
428.861	1	-5
430.055	1	3
431.250	1	-5
432.444	1	8
433.638	1	-1
434.832	1	-1
436.026	1	8
437.220	1	10
438.414	1	-14
439.608	1	1
440.802	1	-8
441.996	1	0
443.190	1	2
444.384	1	-19
445.578	1	-7
446.771	1	11
447.965	1	-3
449.159	1	-14
450.352	1	-1
451.546	1	6
452.739	1	5
453.933	1	-2
455.126	1	-14
456.320	1	2
457.513	1	4
458.706	1	-4
459.899	1	-1
461.093	1	1
462.286	1	1
463.479	1	-4
464.672	1	-4
465.865	1	2
467.058	1	-7
468.251	1	-3
469.444	1	-5
470.637	1	0
471.830	1	3
473.023	1	3
474.215	1	6
475.408	1	-2
476.601	1	-2
477.793	1	-1
478.986	1	-11
480.179	1	-2
481.371	1	-3
482.564	1	-2
483.756	1	-1
484.948	1	-2
486.141	1	-8
487.333	1	2
488.525	1	2
489.718	1	5
490.910	1	3
492.102	1	-6
493.294	1	11
494.486	1	1
495.678	1	1
496.870	1	0
498.062	1	-1
499.254	1	6
500.446	1	-13
501.638	1	-11
502.829	1	5
504.021	1	-5
505.213	1	6
506.404	1	-5
507.596	1	-2
508.788	1	9
509.979	1	-9
511.171	1	-6
512.362	1	-5
513.553	1	-12
514.745	1	2
515.936	1	-8
517.127	1	-1
518.319	1	-5
519.510	1	6
520.701	1	6
521.892	1	1
523.083	1	1
524.274	1	3
525.465	1	1
526.656	1	5
527.847	1	1
529.038	1	-6
530.229	1	-7
531.419	1	5
532.610	1	-7
533.801	1	11
534.991	1	2
536.182	1	3
537.373	1	5
538.563	1	4
539.754	1	3
540.944	1	-2
542.134	1	3
543.325	1	2
544.515	1	6
545.705	1	-2
546.896	1	1
548.086	1	3
549.276	1	-1
550.466	1	2
551.656	1	-7
552.846	1	-7
554.036	1	0
555.226	1	-12
556.416	1	-5
557.606	1	7
558.796	1	-5
559.986	1	-10
561.175	1	-2
562.365	1	0
563.555	1	3
564.744	1	6
565.934	1	3
567.123	1	-2
568.313	1	-3
569.502	1	-10
570.692	1	2
571.881	1	8
573.070	1	3
574.260	1	11
575.449	1	-4
576.638	1	-12
577.827	1	0
579.016	1	11
580.205	1	-3
581.394	1	5
582.583	1	10
583.772	1	11
584.961	1	12
586.150	1	-6
587.339	1	3
588.528	1	10
589.717	1	4
590.905	1	0
592.094	1	-5
593.283	1	-3
594.471	1	7
595.660	1	2
596.848	1	-5
598.037	1	-6
599.225	1	-8
600.413	1	11
601.602	1	14
602.790	1	-6
603.978	1	-2
605.166	1	7
606.355	1	3
607.543	1	1
608.731	1	2
609.919	1	14
611.107	1	-2
612.295	1	-7
613.483	1	1
614.671	1	6
615.858	1	5
617.046	1	1
618.234	1	-3
619.422	1	-13
620.609	1	2
621.797	1	-3
622.985	1	2
624.172	1	-1
625.360	1	7
626.547	1	-3
627.735	1	6
628.922	1	3
630.109	1	-11
631.297	1	-2
632.484	1	-1
633.671	1	-4
634.858	1	-6
636.045	1	3
637.232	1	-6
638.419	1	-12
639.606	1	7
640.793	1	3
641.980	1	8
643.167	1	-11
644.354	1	0
645.541	1	4
646.728	1	-6
647.914	1	-2
649.101	1	-2
650.288	1	2
651.474	1	-4
652.661	1	-4
653.847	1	1
655.034	1	4
656.220	1	1
657.406	1	5
658.593	1	-1
659.779	1	4
660.965	1	8
662.152	1	7
663.338	1	9
664.524	1	-3
665.710	1	-7
666.896	1	0
668.082	1	9
669.268	1	0
670.454	1	2
671.640	1	6
672.826	1	1
674.011	1	2
675.197	1	-13
676.383	1	3
677.569	1	0
678.754	1	7
679.940	1	-2
681.125	1	-1
682.311	1	11
683.496	1	-3
684.682	1	-10
685.867	1	4
687.053	1	3
688.238	1	2
688.746	1	-1