File: Data/GaN_200K_800ms/GaN_sample F_spot 12_UVVIS_200 K_200um_800 ms 2x2mm1_99.txt
340.368	1	-2
341.565	1	-2
342.763	1	9
343.960	1	-2
345.157	1	-6
346.354	1	8
347.552	1	5
348.749	1	-6
349.946	1	-7
351.143	1	7
352.340	1	6
353.537	1	1
354.734	1	5
355.931	1	8
357.127	1	15
358.324	1	6
359.521	1	23
360.718	1	20
361.914	1	28
363.111	1	34
364.308	1	32
365.504	1	68
366.701	1	67
367.897	1	78
369.093	1	87
370.290	1	85
371.486	1	95
372.682	1	88
373.879	1	59
375.075	1	54
376.271	1	64
377.467	1	41
378.663	1	35
379.859	1	37
381.055	1	41
382.251	1	21
383.447	1	16
384.643	1	29
385.839	1	21
387.035	1	22
388.230	1	19
389.426	1	6
390.622	1	12
391.817	1	13
393.013	1	8
394.208	1	9
395.404	1	2
396.599	1	3
397.795	1	1
398.990	1	3
400.186	1	7
401.381	1	-1
402.576	1	4
403.771	1	4
404.967	1	7
406.162	1	7
407.357	1	-6
408.552	1	1
409.747	1	1
410.942	1	12
412.137	1	10
413.332	1	8
414.526	1	-6
415.721	1	3
416.916	1	-1
418.111	1	9
419.305	1	3
420.500	1	-1
421.695	1	-4
422.889	1	-6
424.084	1	-1
425.278	1	7
426.472	1	4
427.667	1	5
428.861	1	3
430.055	1	6
431.250	1	10
432.444	1	4
433.638	1	3
434.832	1	3
436.026	1	5
437.220	1	12
438.414	1	-1
439.608	1	-7
440.802	1	-7
441.996	1	4
443.190	1	4
444.384	1	-1
445.578	1	1
446.771	1	11
447.965	1	9
449.159	1	1
450.352	1	4
451.546	1	6
452.739	1	13
453.933	1	3
455.126	1	-6
456.320	1	2
457.513	1	1
458.706	1	1
459.899	1	6
461.093	1	2
462.286	1	-4
463.479	1	5
464.672	1	-2
465.865	1	4
467.058	1	-1
468.251	1	1
469.444	1	-9
470.637	1	0
471.830	1	12
473.023	1	9
474.215	1	8
475.408	1	1
476.601	1	-1
477.793	1	0
478.986	1	1
480.179	1	5
481.371	1	3
482.564	1	7
483.756	1	7
484.948	1	-2
486.141	1	4
487.333	1	6
488.525	1	1
489.718	1	3
490.910	1	14
492.102	1	0
493.294	1	2
494.486	1	3
495.678	1	8
496.870	1	-2
498.062	1	3
499.254	1	-1
500.446	1	-3
501.638	1	3
502.829	1	7
504.021	1	8
505.213	1	11
506.404	1	8
507.596	1	11
508.788	1	21
509.979	1	-2
511.171	1	-4
512.362	1	6
513.553	1	-9
514.745	1	7
515.936	1	8
517.127	1	11
518.319	1	13
519.510	1	8
520.701	1	3
521.892	1	9
523.083	1	6
524.274	1	14
525.465	1	20
526.656	1	9
527.847	1	8
529.038	1	12
530.229	1	15
531.419	1	14
532.610	1	13
533.801	1	23
534.991	1	2
536.182	1	12
537.373	1	18
538.563	1	17
539.754	1	17
540.944	1	1
542.134	1	17
543.325	1	14
544.515	1	8
545.705	1	8
546.896	1	8
548.086	1	10
549.276	1	2
550.466	1	12
551.656	1	26
552.846	1	15
554.036	1	14
555.226	1	4
556.416	1	8
557.606	1	13
558.796	1	7
559.986	1	9
561.175	1	15
562.365	1	9
563.555	1	12
564.744	1	10
565.934	1	15
567.123	1	14
568.313	1	15
569.502	1	6
570.692	1	7
571.881	1	14
573.070	1	16
574.260	1	14
575.449	1	10
576.638	1	2
577.827	1	10
579.016	1	21
580.205	1	6
581.394	1	9
582.583	1	23
583.772	1	15
584.961	1	24
586.150	1	11
587.339	1	12
588.528	1	11
589.717	1	18
590.905	1	11
592.094	1	13
593.283	1	11
594.471	1	24
595.660	1	12
596.848	1	6
598.037	1	10
599.225	1	-2
600.413	1	21
601.602	1	17
602.790	1	14
603.978	1	10
605.166	1	10
606.355	1	15
607.543	1	13
608.731	1	13
609.919	1	25
611.107	1	4
612.295	1	10
613.483	1	8
614.671	1	10
615.858	1	16
617.046	1	2
618.234	1	7
619.422	1	3
620.609	1	10
621.797	1	3
622.985	1	7
624.172	1	8
625.360	1	7
626.547	1	9
627.735	1	13
628.922	1	12
630.109	1	-4
631.297	1	5
632.484	1	7
633.671	1	7
634.858	1	10
636.045	1	20
637.232	1	13
638.419	1	2
639.606	1	12
640.793	1	11
641.980	1	12
643.167	1	6
644.354	1	3
645.541	1	4
646.728	1	4
647.914	1	-1
649.101	1	-1
650.288	1	3
651.474	1	1
652.661	1	7
653.847	1	13
655.034	1	-1
656.220	1	-7
657.406	1	11
658.593	1	15
659.779	1	5
660.965	1	15
662.152	1	2
663.338	1	12
664.524	1	-5
665.710	1	15
666.896	1	5
668.082	1	2
669.268	1	9
670.454	1	3
671.640	1	3
672.826	1	9
674.011	1	3
675.197	1	-1
676.383	1	8
677.569	1	-3
678.754	1	2
679.940	1	1
681.125	1	5
682.311	1	19
683.496	1	2
684.682	1	-3
685.867	1	3
687.053	1	3
688.238	1	10
688.746	1	0