File: Data/GaN_200K_800ms/GaN_sample F_spot 12_UVVIS_200 K_200um_800 ms 2x2mm1_84.txt
340.368	1	5
341.565	1	-7
342.763	1	9
343.960	1	12
345.157	1	3
346.354	1	3
347.552	1	-6
348.749	1	3
349.946	1	4
351.143	1	-6
352.340	1	11
353.537	1	14
354.734	1	6
355.931	1	3
357.127	1	13
358.324	1	6
359.521	1	19
360.718	1	38
361.914	1	42
363.111	1	50
364.308	1	63
365.504	1	82
366.701	1	101
367.897	1	131
369.093	1	137
370.290	1	131
371.486	1	128
372.682	1	110
373.879	1	87
375.075	1	79
376.271	1	73
377.467	1	60
378.663	1	51
379.859	1	40
381.055	1	45
382.251	1	26
383.447	1	32
384.643	1	34
385.839	1	20
387.035	1	29
388.230	1	28
389.426	1	9
390.622	1	8
391.817	1	16
393.013	1	12
394.208	1	14
395.404	1	8
396.599	1	1
397.795	1	15
398.990	1	11
400.186	1	9
401.381	1	-1
402.576	1	7
403.771	1	4
404.967	1	7
406.162	1	10
407.357	1	3
408.552	1	5
409.747	1	6
410.942	1	12
412.137	1	5
413.332	1	13
414.526	1	0
415.721	1	-4
416.916	1	-4
418.111	1	1
419.305	1	4
420.500	1	3
421.695	1	2
422.889	1	-6
424.084	1	-2
425.278	1	10
426.472	1	4
427.667	1	15
428.861	1	4
430.055	1	1
431.250	1	-14
432.444	1	9
433.638	1	0
434.832	1	4
436.026	1	7
437.220	1	3
438.414	1	-6
439.608	1	-11
440.802	1	-4
441.996	1	8
443.190	1	4
444.384	1	0
445.578	1	-4
446.771	1	12
447.965	1	-1
449.159	1	-2
450.352	1	3
451.546	1	-1
452.739	1	12
453.933	1	1
455.126	1	5
456.320	1	0
457.513	1	7
458.706	1	10
459.899	1	3
461.093	1	5
462.286	1	7
463.479	1	3
464.672	1	6
465.865	1	-1
467.058	1	-5
468.251	1	0
469.444	1	-1
470.637	1	2
471.830	1	4
473.023	1	0
474.215	1	16
475.408	1	4
476.601	1	9
477.793	1	8
478.986	1	-5
480.179	1	2
481.371	1	7
482.564	1	5
483.756	1	13
484.948	1	-6
486.141	1	2
487.333	1	2
488.525	1	-2
489.718	1	8
490.910	1	0
492.102	1	-4
493.294	1	8
494.486	1	4
495.678	1	4
496.870	1	4
498.062	1	14
499.254	1	8
500.446	1	-2
501.638	1	-1
502.829	1	10
504.021	1	5
505.213	1	9
506.404	1	10
507.596	1	2
508.788	1	25
509.979	1	3
511.171	1	3
512.362	1	4
513.553	1	-3
514.745	1	11
515.936	1	2
517.127	1	12
518.319	1	16
519.510	1	16
520.701	1	13
521.892	1	4
523.083	1	7
524.274	1	11
525.465	1	17
526.656	1	22
527.847	1	11
529.038	1	14
530.229	1	16
531.419	1	19
532.610	1	4
533.801	1	21
534.991	1	15
536.182	1	6
537.373	1	17
538.563	1	17
539.754	1	12
540.944	1	15
542.134	1	15
543.325	1	18
544.515	1	6
545.705	1	8
546.896	1	11
548.086	1	12
549.276	1	9
550.466	1	15
551.656	1	18
552.846	1	21
554.036	1	20
555.226	1	0
556.416	1	7
557.606	1	24
558.796	1	8
559.986	1	6
561.175	1	15
562.365	1	26
563.555	1	16
564.744	1	16
565.934	1	20
567.123	1	17
568.313	1	19
569.502	1	16
570.692	1	17
571.881	1	14
573.070	1	8
574.260	1	30
575.449	1	16
576.638	1	12
577.827	1	18
579.016	1	24
580.205	1	15
581.394	1	18
582.583	1	14
583.772	1	30
584.961	1	14
586.150	1	17
587.339	1	12
588.528	1	30
589.717	1	18
590.905	1	11
592.094	1	16
593.283	1	14
594.471	1	24
595.660	1	15
596.848	1	13
598.037	1	12
599.225	1	3
600.413	1	24
601.602	1	21
602.790	1	9
603.978	1	12
605.166	1	14
606.355	1	12
607.543	1	15
608.731	1	10
609.919	1	22
611.107	1	16
612.295	1	8
613.483	1	12
614.671	1	14
615.858	1	11
617.046	1	6
618.234	1	10
619.422	1	-3
620.609	1	18
621.797	1	12
622.985	1	16
624.172	1	13
625.360	1	14
626.547	1	7
627.735	1	27
628.922	1	2
630.109	1	5
631.297	1	11
632.484	1	12
633.671	1	11
634.858	1	4
636.045	1	16
637.232	1	4
638.419	1	3
639.606	1	10
640.793	1	9
641.980	1	9
643.167	1	6
644.354	1	10
645.541	1	9
646.728	1	4
647.914	1	5
649.101	1	10
650.288	1	23
651.474	1	7
652.661	1	4
653.847	1	5
655.034	1	6
656.220	1	-1
657.406	1	14
658.593	1	7
659.779	1	8
660.965	1	9
662.152	1	5
663.338	1	10
664.524	1	9
665.710	1	11
666.896	1	5
668.082	1	4
669.268	1	-3
670.454	1	7
671.640	1	1
672.826	1	11
674.011	1	8
675.197	1	-1
676.383	1	5
677.569	1	1
678.754	1	0
679.940	1	4
681.125	1	3
682.311	1	21
683.496	1	6
684.682	1	2
685.867	1	-2
687.053	1	13
688.238	1	12
688.746	1	-1