File: Data/GaN_200K_800ms/GaN_sample F_spot 12_UVVIS_200 K_200um_800 ms 2x2mm1_93.txt
340.368	1	6
341.565	1	-5
342.763	1	6
343.960	1	-3
345.157	1	-2
346.354	1	7
347.552	1	-2
348.749	1	-6
349.946	1	-1
351.143	1	-8
352.340	1	20
353.537	1	10
354.734	1	8
355.931	1	14
357.127	1	9
358.324	1	13
359.521	1	22
360.718	1	21
361.914	1	34
363.111	1	36
364.308	1	51
365.504	1	73
366.701	1	88
367.897	1	98
369.093	1	108
370.290	1	100
371.486	1	104
372.682	1	100
373.879	1	82
375.075	1	67
376.271	1	71
377.467	1	39
378.663	1	42
379.859	1	37
381.055	1	40
382.251	1	33
383.447	1	23
384.643	1	37
385.839	1	15
387.035	1	17
388.230	1	22
389.426	1	8
390.622	1	16
391.817	1	12
393.013	1	13
394.208	1	12
395.404	1	2
396.599	1	2
397.795	1	13
398.990	1	11
400.186	1	0
401.381	1	7
402.576	1	0
403.771	1	16
404.967	1	-6
406.162	1	12
407.357	1	5
408.552	1	4
409.747	1	1
410.942	1	8
412.137	1	13
413.332	1	5
414.526	1	6
415.721	1	4
416.916	1	-7
418.111	1	1
419.305	1	12
420.500	1	-7
421.695	1	3
422.889	1	0
424.084	1	5
425.278	1	9
426.472	1	3
427.667	1	10
428.861	1	4
430.055	1	6
431.250	1	3
432.444	1	9
433.638	1	-6
434.832	1	8
436.026	1	7
437.220	1	0
438.414	1	-2
439.608	1	-1
440.802	1	5
441.996	1	7
443.190	1	4
444.384	1	0
445.578	1	-1
446.771	1	13
447.965	1	7
449.159	1	-7
450.352	1	1
451.546	1	2
452.739	1	2
453.933	1	2
455.126	1	-9
456.320	1	2
457.513	1	9
458.706	1	7
459.899	1	9
461.093	1	8
462.286	1	1
463.479	1	3
464.672	1	0
465.865	1	-5
467.058	1	3
468.251	1	-4
469.444	1	-5
470.637	1	3
471.830	1	1
473.023	1	-2
474.215	1	4
475.408	1	4
476.601	1	4
477.793	1	-7
478.986	1	4
480.179	1	2
481.371	1	-2
482.564	1	10
483.756	1	14
484.948	1	-7
486.141	1	2
487.333	1	18
488.525	1	-3
489.718	1	-1
490.910	1	12
492.102	1	-5
493.294	1	-2
494.486	1	8
495.678	1	6
496.870	1	6
498.062	1	9
499.254	1	11
500.446	1	0
501.638	1	3
502.829	1	6
504.021	1	10
505.213	1	15
506.404	1	4
507.596	1	6
508.788	1	16
509.979	1	5
511.171	1	3
512.362	1	5
513.553	1	5
514.745	1	6
515.936	1	7
517.127	1	12
518.319	1	5
519.510	1	0
520.701	1	7
521.892	1	4
523.083	1	9
524.274	1	15
525.465	1	22
526.656	1	9
527.847	1	-3
529.038	1	6
530.229	1	10
531.419	1	16
532.610	1	6
533.801	1	22
534.991	1	9
536.182	1	7
537.373	1	17
538.563	1	8
539.754	1	11
540.944	1	14
542.134	1	16
543.325	1	18
544.515	1	16
545.705	1	6
546.896	1	12
548.086	1	13
549.276	1	4
550.466	1	10
551.656	1	12
552.846	1	15
554.036	1	4
555.226	1	9
556.416	1	9
557.606	1	10
558.796	1	21
559.986	1	7
561.175	1	9
562.365	1	9
563.555	1	6
564.744	1	12
565.934	1	19
567.123	1	7
568.313	1	19
569.502	1	6
570.692	1	15
571.881	1	25
573.070	1	17
574.260	1	19
575.449	1	20
576.638	1	10
577.827	1	11
579.016	1	23
580.205	1	9
581.394	1	18
582.583	1	23
583.772	1	15
584.961	1	14
586.150	1	9
587.339	1	18
588.528	1	17
589.717	1	12
590.905	1	12
592.094	1	8
593.283	1	14
594.471	1	26
595.660	1	9
596.848	1	0
598.037	1	0
599.225	1	8
600.413	1	23
601.602	1	19
602.790	1	11
603.978	1	11
605.166	1	20
606.355	1	14
607.543	1	7
608.731	1	16
609.919	1	23
611.107	1	14
612.295	1	10
613.483	1	14
614.671	1	15
615.858	1	7
617.046	1	14
618.234	1	11
619.422	1	-1
620.609	1	22
621.797	1	0
622.985	1	8
624.172	1	6
625.360	1	15
626.547	1	13
627.735	1	16
628.922	1	9
630.109	1	5
631.297	1	12
632.484	1	6
633.671	1	3
634.858	1	4
636.045	1	16
637.232	1	3
638.419	1	6
639.606	1	15
640.793	1	12
641.980	1	13
643.167	1	6
644.354	1	12
645.541	1	10
646.728	1	3
647.914	1	6
649.101	1	11
650.288	1	12
651.474	1	-7
652.661	1	-1
653.847	1	16
655.034	1	11
656.220	1	1
657.406	1	14
658.593	1	5
659.779	1	9
660.965	1	17
662.152	1	6
663.338	1	12
664.524	1	-1
665.710	1	2
666.896	1	-4
668.082	1	4
669.268	1	2
670.454	1	9
671.640	1	15
672.826	1	-3
674.011	1	-5
675.197	1	0
676.383	1	14
677.569	1	3
678.754	1	-3
679.940	1	6
681.125	1	17
682.311	1	13
683.496	1	11
684.682	1	-2
685.867	1	10
687.053	1	5
688.238	1	7
688.746	1	6