File: Data/GaN_200K_800ms/GaN_sample F_spot 12_UVVIS_200 K_200um_800 ms 2x2mm1_231.txt
340.368	1	2
341.565	1	-7
342.763	1	5
343.960	1	1
345.157	1	-7
346.354	1	-10
347.552	1	-3
348.749	1	-4
349.946	1	4
351.143	1	9
352.340	1	-1
353.537	1	-1
354.734	1	11
355.931	1	4
357.127	1	2
358.324	1	4
359.521	1	15
360.718	1	17
361.914	1	11
363.111	1	6
364.308	1	9
365.504	1	19
366.701	1	12
367.897	1	29
369.093	1	27
370.290	1	36
371.486	1	29
372.682	1	27
373.879	1	9
375.075	1	13
376.271	1	23
377.467	1	7
378.663	1	1
379.859	1	7
381.055	1	14
382.251	1	5
383.447	1	5
384.643	1	13
385.839	1	4
387.035	1	14
388.230	1	11
389.426	1	4
390.622	1	-4
391.817	1	0
393.013	1	6
394.208	1	2
395.404	1	-4
396.599	1	4
397.795	1	5
398.990	1	-5
400.186	1	2
401.381	1	-12
402.576	1	-4
403.771	1	0
404.967	1	5
406.162	1	11
407.357	1	-1
408.552	1	-3
409.747	1	-3
410.942	1	17
412.137	1	11
413.332	1	9
414.526	1	-1
415.721	1	-5
416.916	1	-5
418.111	1	4
419.305	1	-5
420.500	1	-10
421.695	1	0
422.889	1	-6
424.084	1	3
425.278	1	12
426.472	1	1
427.667	1	7
428.861	1	-1
430.055	1	-1
431.250	1	0
432.444	1	9
433.638	1	-3
434.832	1	8
436.026	1	3
437.220	1	5
438.414	1	-16
439.608	1	-2
440.802	1	9
441.996	1	4
443.190	1	2
444.384	1	-6
445.578	1	-5
446.771	1	12
447.965	1	8
449.159	1	-3
450.352	1	-7
451.546	1	2
452.739	1	8
453.933	1	-2
455.126	1	1
456.320	1	-12
457.513	1	11
458.706	1	5
459.899	1	0
461.093	1	7
462.286	1	2
463.479	1	-4
464.672	1	-1
465.865	1	3
467.058	1	-2
468.251	1	-4
469.444	1	-6
470.637	1	-2
471.830	1	1
473.023	1	-1
474.215	1	7
475.408	1	1
476.601	1	1
477.793	1	7
478.986	1	1
480.179	1	4
481.371	1	-1
482.564	1	0
483.756	1	8
484.948	1	-8
486.141	1	-1
487.333	1	-4
488.525	1	0
489.718	1	6
490.910	1	-1
492.102	1	-10
493.294	1	-4
494.486	1	0
495.678	1	0
496.870	1	2
498.062	1	7
499.254	1	7
500.446	1	-1
501.638	1	-2
502.829	1	2
504.021	1	2
505.213	1	2
506.404	1	-9
507.596	1	1
508.788	1	9
509.979	1	-2
511.171	1	-4
512.362	1	-10
513.553	1	-16
514.745	1	2
515.936	1	-7
517.127	1	-1
518.319	1	0
519.510	1	2
520.701	1	10
521.892	1	1
523.083	1	6
524.274	1	7
525.465	1	8
526.656	1	4
527.847	1	5
529.038	1	5
530.229	1	7
531.419	1	10
532.610	1	2
533.801	1	15
534.991	1	5
536.182	1	-8
537.373	1	10
538.563	1	4
539.754	1	0
540.944	1	0
542.134	1	5
543.325	1	-2
544.515	1	-1
545.705	1	3
546.896	1	8
548.086	1	0
549.276	1	3
550.466	1	9
551.656	1	7
552.846	1	11
554.036	1	2
555.226	1	-6
556.416	1	1
557.606	1	1
558.796	1	8
559.986	1	-7
561.175	1	7
562.365	1	0
563.555	1	-3
564.744	1	5
565.934	1	9
567.123	1	9
568.313	1	14
569.502	1	3
570.692	1	15
571.881	1	19
573.070	1	-3
574.260	1	15
575.449	1	1
576.638	1	-3
577.827	1	5
579.016	1	5
580.205	1	0
581.394	1	4
582.583	1	7
583.772	1	6
584.961	1	4
586.150	1	4
587.339	1	7
588.528	1	13
589.717	1	1
590.905	1	3
592.094	1	-4
593.283	1	0
594.471	1	13
595.660	1	-5
596.848	1	2
598.037	1	2
599.225	1	-6
600.413	1	5
601.602	1	12
602.790	1	6
603.978	1	3
605.166	1	3
606.355	1	1
607.543	1	1
608.731	1	0
609.919	1	13
611.107	1	-2
612.295	1	-3
613.483	1	5
614.671	1	2
615.858	1	3
617.046	1	7
618.234	1	2
619.422	1	-8
620.609	1	5
621.797	1	2
622.985	1	0
624.172	1	6
625.360	1	-3
626.547	1	2
627.735	1	6
628.922	1	0
630.109	1	-15
631.297	1	-2
632.484	1	-2
633.671	1	-1
634.858	1	-1
636.045	1	13
637.232	1	0
638.419	1	-2
639.606	1	-2
640.793	1	11
641.980	1	8
643.167	1	-4
644.354	1	3
645.541	1	6
646.728	1	4
647.914	1	-5
649.101	1	1
650.288	1	2
651.474	1	-5
652.661	1	-3
653.847	1	11
655.034	1	0
656.220	1	-1
657.406	1	-4
658.593	1	11
659.779	1	5
660.965	1	8
662.152	1	1
663.338	1	7
664.524	1	-13
665.710	1	-6
666.896	1	1
668.082	1	3
669.268	1	5
670.454	1	2
671.640	1	2
672.826	1	-4
674.011	1	-3
675.197	1	-5
676.383	1	12
677.569	1	-4
678.754	1	5
679.940	1	0
681.125	1	1
682.311	1	1
683.496	1	-7
684.682	1	3
685.867	1	-2
687.053	1	-3
688.238	1	9
688.746	1	-2