File: Data/GaN_200K_800ms/GaN_sample F_spot 12_UVVIS_200 K_200um_800 ms 2x2mm1_90.txt
340.368	1	11
341.565	1	-3
342.763	1	17
343.960	1	1
345.157	1	-1
346.354	1	2
347.552	1	8
348.749	1	5
349.946	1	4
351.143	1	6
352.340	1	7
353.537	1	8
354.734	1	13
355.931	1	10
357.127	1	10
358.324	1	12
359.521	1	27
360.718	1	19
361.914	1	32
363.111	1	44
364.308	1	51
365.504	1	75
366.701	1	88
367.897	1	104
369.093	1	100
370.290	1	116
371.486	1	119
372.682	1	106
373.879	1	77
375.075	1	60
376.271	1	68
377.467	1	51
378.663	1	43
379.859	1	32
381.055	1	29
382.251	1	30
383.447	1	31
384.643	1	30
385.839	1	21
387.035	1	21
388.230	1	17
389.426	1	15
390.622	1	7
391.817	1	9
393.013	1	15
394.208	1	11
395.404	1	3
396.599	1	4
397.795	1	14
398.990	1	8
400.186	1	7
401.381	1	2
402.576	1	15
403.771	1	11
404.967	1	6
406.162	1	16
407.357	1	-4
408.552	1	-1
409.747	1	4
410.942	1	10
412.137	1	7
413.332	1	6
414.526	1	5
415.721	1	3
416.916	1	-1
418.111	1	2
419.305	1	9
420.500	1	4
421.695	1	2
422.889	1	-6
424.084	1	-2
425.278	1	6
426.472	1	7
427.667	1	3
428.861	1	9
430.055	1	6
431.250	1	-2
432.444	1	6
433.638	1	-4
434.832	1	2
436.026	1	7
437.220	1	6
438.414	1	0
439.608	1	-12
440.802	1	-5
441.996	1	10
443.190	1	-3
444.384	1	-2
445.578	1	-2
446.771	1	10
447.965	1	8
449.159	1	0
450.352	1	0
451.546	1	10
452.739	1	-2
453.933	1	-2
455.126	1	-6
456.320	1	4
457.513	1	10
458.706	1	6
459.899	1	4
461.093	1	0
462.286	1	2
463.479	1	-5
464.672	1	4
465.865	1	4
467.058	1	4
468.251	1	4
469.444	1	-2
470.637	1	5
471.830	1	0
473.023	1	3
474.215	1	16
475.408	1	6
476.601	1	1
477.793	1	5
478.986	1	-1
480.179	1	-5
481.371	1	2
482.564	1	8
483.756	1	11
484.948	1	0
486.141	1	0
487.333	1	2
488.525	1	4
489.718	1	4
490.910	1	2
492.102	1	-6
493.294	1	5
494.486	1	13
495.678	1	-1
496.870	1	10
498.062	1	-1
499.254	1	3
500.446	1	-6
501.638	1	2
502.829	1	12
504.021	1	10
505.213	1	15
506.404	1	15
507.596	1	9
508.788	1	15
509.979	1	9
511.171	1	-7
512.362	1	0
513.553	1	3
514.745	1	14
515.936	1	3
517.127	1	2
518.319	1	9
519.510	1	1
520.701	1	15
521.892	1	8
523.083	1	5
524.274	1	7
525.465	1	18
526.656	1	3
527.847	1	9
529.038	1	13
530.229	1	13
531.419	1	9
532.610	1	3
533.801	1	15
534.991	1	13
536.182	1	10
537.373	1	13
538.563	1	14
539.754	1	17
540.944	1	8
542.134	1	14
543.325	1	9
544.515	1	8
545.705	1	9
546.896	1	12
548.086	1	14
549.276	1	12
550.466	1	16
551.656	1	22
552.846	1	7
554.036	1	14
555.226	1	4
556.416	1	-4
557.606	1	16
558.796	1	9
559.986	1	10
561.175	1	12
562.365	1	6
563.555	1	14
564.744	1	14
565.934	1	19
567.123	1	18
568.313	1	13
569.502	1	11
570.692	1	12
571.881	1	25
573.070	1	13
574.260	1	16
575.449	1	4
576.638	1	5
577.827	1	15
579.016	1	14
580.205	1	7
581.394	1	14
582.583	1	17
583.772	1	15
584.961	1	15
586.150	1	7
587.339	1	14
588.528	1	14
589.717	1	16
590.905	1	9
592.094	1	4
593.283	1	5
594.471	1	20
595.660	1	10
596.848	1	4
598.037	1	6
599.225	1	5
600.413	1	19
601.602	1	20
602.790	1	7
603.978	1	18
605.166	1	17
606.355	1	4
607.543	1	10
608.731	1	12
609.919	1	20
611.107	1	13
612.295	1	2
613.483	1	20
614.671	1	13
615.858	1	7
617.046	1	1
618.234	1	4
619.422	1	2
620.609	1	9
621.797	1	8
622.985	1	4
624.172	1	5
625.360	1	7
626.547	1	2
627.735	1	9
628.922	1	8
630.109	1	-1
631.297	1	2
632.484	1	-1
633.671	1	7
634.858	1	7
636.045	1	12
637.232	1	8
638.419	1	11
639.606	1	9
640.793	1	13
641.980	1	13
643.167	1	-10
644.354	1	3
645.541	1	14
646.728	1	0
647.914	1	4
649.101	1	5
650.288	1	10
651.474	1	3
652.661	1	8
653.847	1	20
655.034	1	0
656.220	1	-4
657.406	1	9
658.593	1	11
659.779	1	-2
660.965	1	15
662.152	1	7
663.338	1	18
664.524	1	12
665.710	1	3
666.896	1	1
668.082	1	6
669.268	1	4
670.454	1	13
671.640	1	-1
672.826	1	2
674.011	1	2
675.197	1	8
676.383	1	4
677.569	1	2
678.754	1	0
679.940	1	-3
681.125	1	11
682.311	1	10
683.496	1	10
684.682	1	3
685.867	1	6
687.053	1	10
688.238	1	4
688.746	1	7