File: Data/GaN_200K_800ms/GaN_sample F_spot 12_UVVIS_200 K_200um_800 ms 2x2mm1_83.txt
340.368	1	8
341.565	1	6
342.763	1	10
343.960	1	7
345.157	1	-8
346.354	1	3
347.552	1	5
348.749	1	-1
349.946	1	-2
351.143	1	5
352.340	1	8
353.537	1	8
354.734	1	8
355.931	1	3
357.127	1	24
358.324	1	17
359.521	1	32
360.718	1	35
361.914	1	40
363.111	1	48
364.308	1	61
365.504	1	83
366.701	1	106
367.897	1	130
369.093	1	136
370.290	1	129
371.486	1	127
372.682	1	117
373.879	1	90
375.075	1	76
376.271	1	68
377.467	1	51
378.663	1	42
379.859	1	45
381.055	1	46
382.251	1	34
383.447	1	29
384.643	1	32
385.839	1	20
387.035	1	20
388.230	1	25
389.426	1	6
390.622	1	8
391.817	1	13
393.013	1	0
394.208	1	12
395.404	1	5
396.599	1	-1
397.795	1	7
398.990	1	3
400.186	1	8
401.381	1	4
402.576	1	2
403.771	1	9
404.967	1	17
406.162	1	15
407.357	1	1
408.552	1	-2
409.747	1	2
410.942	1	13
412.137	1	8
413.332	1	3
414.526	1	1
415.721	1	11
416.916	1	1
418.111	1	1
419.305	1	3
420.500	1	4
421.695	1	4
422.889	1	-4
424.084	1	6
425.278	1	13
426.472	1	-1
427.667	1	8
428.861	1	-6
430.055	1	8
431.250	1	1
432.444	1	9
433.638	1	4
434.832	1	10
436.026	1	0
437.220	1	11
438.414	1	-3
439.608	1	-14
440.802	1	-8
441.996	1	3
443.190	1	3
444.384	1	-8
445.578	1	-9
446.771	1	2
447.965	1	1
449.159	1	-1
450.352	1	2
451.546	1	9
452.739	1	13
453.933	1	2
455.126	1	-15
456.320	1	5
457.513	1	13
458.706	1	8
459.899	1	4
461.093	1	7
462.286	1	-2
463.479	1	0
464.672	1	1
465.865	1	-1
467.058	1	3
468.251	1	2
469.444	1	2
470.637	1	0
471.830	1	0
473.023	1	7
474.215	1	15
475.408	1	7
476.601	1	-1
477.793	1	-1
478.986	1	1
480.179	1	7
481.371	1	8
482.564	1	4
483.756	1	14
484.948	1	3
486.141	1	-3
487.333	1	9
488.525	1	-3
489.718	1	1
490.910	1	3
492.102	1	-1
493.294	1	-1
494.486	1	5
495.678	1	10
496.870	1	9
498.062	1	5
499.254	1	13
500.446	1	-2
501.638	1	5
502.829	1	4
504.021	1	3
505.213	1	12
506.404	1	11
507.596	1	3
508.788	1	23
509.979	1	13
511.171	1	-2
512.362	1	13
513.553	1	-5
514.745	1	17
515.936	1	11
517.127	1	5
518.319	1	12
519.510	1	3
520.701	1	6
521.892	1	7
523.083	1	16
524.274	1	16
525.465	1	20
526.656	1	7
527.847	1	13
529.038	1	16
530.229	1	18
531.419	1	20
532.610	1	2
533.801	1	18
534.991	1	13
536.182	1	8
537.373	1	20
538.563	1	27
539.754	1	20
540.944	1	4
542.134	1	12
543.325	1	14
544.515	1	16
545.705	1	13
546.896	1	9
548.086	1	16
549.276	1	22
550.466	1	8
551.656	1	25
552.846	1	6
554.036	1	6
555.226	1	8
556.416	1	12
557.606	1	19
558.796	1	14
559.986	1	13
561.175	1	24
562.365	1	23
563.555	1	11
564.744	1	11
565.934	1	21
567.123	1	10
568.313	1	21
569.502	1	8
570.692	1	21
571.881	1	23
573.070	1	18
574.260	1	20
575.449	1	17
576.638	1	13
577.827	1	18
579.016	1	23
580.205	1	19
581.394	1	8
582.583	1	21
583.772	1	23
584.961	1	20
586.150	1	18
587.339	1	14
588.528	1	20
589.717	1	14
590.905	1	21
592.094	1	9
593.283	1	9
594.471	1	27
595.660	1	15
596.848	1	10
598.037	1	12
599.225	1	8
600.413	1	16
601.602	1	21
602.790	1	12
603.978	1	15
605.166	1	18
606.355	1	18
607.543	1	4
608.731	1	5
609.919	1	12
611.107	1	15
612.295	1	5
613.483	1	11
614.671	1	14
615.858	1	12
617.046	1	13
618.234	1	16
619.422	1	6
620.609	1	6
621.797	1	8
622.985	1	1
624.172	1	8
625.360	1	15
626.547	1	8
627.735	1	9
628.922	1	10
630.109	1	-4
631.297	1	14
632.484	1	-1
633.671	1	3
634.858	1	6
636.045	1	4
637.232	1	9
638.419	1	3
639.606	1	11
640.793	1	9
641.980	1	10
643.167	1	5
644.354	1	2
645.541	1	9
646.728	1	14
647.914	1	5
649.101	1	4
650.288	1	15
651.474	1	2
652.661	1	4
653.847	1	11
655.034	1	8
656.220	1	-5
657.406	1	11
658.593	1	11
659.779	1	7
660.965	1	5
662.152	1	12
663.338	1	11
664.524	1	6
665.710	1	2
666.896	1	7
668.082	1	4
669.268	1	3
670.454	1	4
671.640	1	5
672.826	1	9
674.011	1	7
675.197	1	0
676.383	1	-1
677.569	1	3
678.754	1	5
679.940	1	0
681.125	1	0
682.311	1	17
683.496	1	6
684.682	1	2
685.867	1	9
687.053	1	4
688.238	1	5
688.746	1	0