File: Data/GaN_200K_800ms/GaN_sample F_spot 12_UVVIS_200 K_200um_800 ms 2x2mm1_111.txt
340.368	1	4
341.565	1	-9
342.763	1	9
343.960	1	0
345.157	1	-7
346.354	1	7
347.552	1	-3
348.749	1	1
349.946	1	-3
351.143	1	7
352.340	1	6
353.537	1	5
354.734	1	5
355.931	1	9
357.127	1	5
358.324	1	4
359.521	1	21
360.718	1	16
361.914	1	26
363.111	1	24
364.308	1	37
365.504	1	56
366.701	1	65
367.897	1	78
369.093	1	83
370.290	1	79
371.486	1	70
372.682	1	66
373.879	1	65
375.075	1	49
376.271	1	51
377.467	1	42
378.663	1	34
379.859	1	29
381.055	1	29
382.251	1	18
383.447	1	20
384.643	1	14
385.839	1	19
387.035	1	9
388.230	1	16
389.426	1	7
390.622	1	14
391.817	1	3
393.013	1	11
394.208	1	13
395.404	1	8
396.599	1	-8
397.795	1	9
398.990	1	3
400.186	1	5
401.381	1	-3
402.576	1	0
403.771	1	10
404.967	1	3
406.162	1	7
407.357	1	3
408.552	1	-2
409.747	1	-4
410.942	1	5
412.137	1	8
413.332	1	-1
414.526	1	2
415.721	1	3
416.916	1	-6
418.111	1	8
419.305	1	0
420.500	1	-3
421.695	1	5
422.889	1	-4
424.084	1	6
425.278	1	14
426.472	1	-2
427.667	1	3
428.861	1	2
430.055	1	0
431.250	1	2
432.444	1	4
433.638	1	3
434.832	1	9
436.026	1	7
437.220	1	10
438.414	1	-2
439.608	1	-8
440.802	1	-5
441.996	1	9
443.190	1	4
444.384	1	-11
445.578	1	-14
446.771	1	15
447.965	1	-2
449.159	1	6
450.352	1	-1
451.546	1	8
452.739	1	4
453.933	1	5
455.126	1	-4
456.320	1	4
457.513	1	3
458.706	1	9
459.899	1	0
461.093	1	11
462.286	1	3
463.479	1	0
464.672	1	5
465.865	1	6
467.058	1	3
468.251	1	-4
469.444	1	6
470.637	1	0
471.830	1	-4
473.023	1	7
474.215	1	7
475.408	1	6
476.601	1	-1
477.793	1	0
478.986	1	7
480.179	1	1
481.371	1	10
482.564	1	2
483.756	1	2
484.948	1	1
486.141	1	2
487.333	1	4
488.525	1	5
489.718	1	4
490.910	1	-5
492.102	1	3
493.294	1	-2
494.486	1	11
495.678	1	5
496.870	1	9
498.062	1	-1
499.254	1	3
500.446	1	6
501.638	1	-9
502.829	1	-2
504.021	1	1
505.213	1	5
506.404	1	8
507.596	1	7
508.788	1	29
509.979	1	1
511.171	1	-2
512.362	1	7
513.553	1	-9
514.745	1	0
515.936	1	0
517.127	1	3
518.319	1	3
519.510	1	8
520.701	1	16
521.892	1	4
523.083	1	3
524.274	1	9
525.465	1	20
526.656	1	1
527.847	1	14
529.038	1	10
530.229	1	9
531.419	1	8
532.610	1	-1
533.801	1	20
534.991	1	3
536.182	1	4
537.373	1	10
538.563	1	11
539.754	1	13
540.944	1	6
542.134	1	8
543.325	1	10
544.515	1	5
545.705	1	1
546.896	1	12
548.086	1	4
549.276	1	8
550.466	1	14
551.656	1	19
552.846	1	6
554.036	1	13
555.226	1	1
556.416	1	7
557.606	1	5
558.796	1	9
559.986	1	4
561.175	1	12
562.365	1	10
563.555	1	3
564.744	1	11
565.934	1	15
567.123	1	3
568.313	1	11
569.502	1	3
570.692	1	9
571.881	1	15
573.070	1	8
574.260	1	18
575.449	1	10
576.638	1	7
577.827	1	11
579.016	1	25
580.205	1	1
581.394	1	2
582.583	1	25
583.772	1	8
584.961	1	11
586.150	1	6
587.339	1	4
588.528	1	6
589.717	1	16
590.905	1	4
592.094	1	6
593.283	1	8
594.471	1	15
595.660	1	14
596.848	1	2
598.037	1	-3
599.225	1	-10
600.413	1	14
601.602	1	5
602.790	1	4
603.978	1	7
605.166	1	6
606.355	1	15
607.543	1	9
608.731	1	5
609.919	1	9
611.107	1	3
612.295	1	-1
613.483	1	10
614.671	1	1
615.858	1	10
617.046	1	10
618.234	1	2
619.422	1	0
620.609	1	6
621.797	1	6
622.985	1	6
624.172	1	-1
625.360	1	5
626.547	1	2
627.735	1	4
628.922	1	4
630.109	1	-15
631.297	1	10
632.484	1	7
633.671	1	-3
634.858	1	7
636.045	1	18
637.232	1	-3
638.419	1	1
639.606	1	12
640.793	1	16
641.980	1	10
643.167	1	-8
644.354	1	-4
645.541	1	4
646.728	1	12
647.914	1	0
649.101	1	8
650.288	1	7
651.474	1	13
652.661	1	-5
653.847	1	14
655.034	1	10
656.220	1	2
657.406	1	9
658.593	1	8
659.779	1	12
660.965	1	8
662.152	1	10
663.338	1	14
664.524	1	1
665.710	1	4
666.896	1	-1
668.082	1	9
669.268	1	9
670.454	1	-3
671.640	1	12
672.826	1	2
674.011	1	11
675.197	1	5
676.383	1	8
677.569	1	5
678.754	1	-2
679.940	1	-4
681.125	1	4
682.311	1	2
683.496	1	9
684.682	1	-7
685.867	1	3
687.053	1	2
688.238	1	12
688.746	1	13