File: Data/GaN_200K_800ms/GaN_sample F_spot 12_UVVIS_200 K_200um_800 ms 2x2mm1_50.txt
340.368	1	9
341.565	1	4
342.763	1	14
343.960	1	12
345.157	1	5
346.354	1	0
347.552	1	6
348.749	1	4
349.946	1	4
351.143	1	10
352.340	1	7
353.537	1	20
354.734	1	16
355.931	1	20
357.127	1	30
358.324	1	40
359.521	1	58
360.718	1	64
361.914	1	89
363.111	1	128
364.308	1	186
365.504	1	254
366.701	1	342
367.897	1	434
369.093	1	499
370.290	1	500
371.486	1	456
372.682	1	377
373.879	1	319
375.075	1	275
376.271	1	221
377.467	1	190
378.663	1	147
379.859	1	121
381.055	1	109
382.251	1	90
383.447	1	81
384.643	1	76
385.839	1	75
387.035	1	57
388.230	1	65
389.426	1	36
390.622	1	28
391.817	1	26
393.013	1	29
394.208	1	23
395.404	1	25
396.599	1	28
397.795	1	25
398.990	1	21
400.186	1	25
401.381	1	5
402.576	1	16
403.771	1	16
404.967	1	14
406.162	1	21
407.357	1	7
408.552	1	14
409.747	1	4
410.942	1	20
412.137	1	10
413.332	1	2
414.526	1	11
415.721	1	14
416.916	1	0
418.111	1	5
419.305	1	10
420.500	1	13
421.695	1	5
422.889	1	1
424.084	1	5
425.278	1	24
426.472	1	2
427.667	1	16
428.861	1	6
430.055	1	-7
431.250	1	-2
432.444	1	4
433.638	1	5
434.832	1	7
436.026	1	6
437.220	1	8
438.414	1	8
439.608	1	1
440.802	1	11
441.996	1	10
443.190	1	12
444.384	1	-7
445.578	1	1
446.771	1	20
447.965	1	2
449.159	1	5
450.352	1	1
451.546	1	2
452.739	1	14
453.933	1	-1
455.126	1	3
456.320	1	-3
457.513	1	17
458.706	1	0
459.899	1	8
461.093	1	7
462.286	1	2
463.479	1	2
464.672	1	7
465.865	1	5
467.058	1	5
468.251	1	4
469.444	1	2
470.637	1	0
471.830	1	4
473.023	1	0
474.215	1	9
475.408	1	5
476.601	1	16
477.793	1	13
478.986	1	-1
480.179	1	16
481.371	1	5
482.564	1	19
483.756	1	14
484.948	1	1
486.141	1	9
487.333	1	10
488.525	1	7
489.718	1	6
490.910	1	11
492.102	1	3
493.294	1	13
494.486	1	20
495.678	1	11
496.870	1	11
498.062	1	5
499.254	1	15
500.446	1	6
501.638	1	18
502.829	1	23
504.021	1	16
505.213	1	16
506.404	1	22
507.596	1	25
508.788	1	32
509.979	1	26
511.171	1	29
512.362	1	10
513.553	1	15
514.745	1	17
515.936	1	22
517.127	1	28
518.319	1	31
519.510	1	32
520.701	1	24
521.892	1	35
523.083	1	24
524.274	1	29
525.465	1	36
526.656	1	32
527.847	1	34
529.038	1	39
530.229	1	34
531.419	1	47
532.610	1	38
533.801	1	59
534.991	1	41
536.182	1	37
537.373	1	44
538.563	1	37
539.754	1	38
540.944	1	31
542.134	1	36
543.325	1	39
544.515	1	36
545.705	1	31
546.896	1	42
548.086	1	47
549.276	1	34
550.466	1	40
551.656	1	50
552.846	1	45
554.036	1	45
555.226	1	33
556.416	1	36
557.606	1	47
558.796	1	47
559.986	1	34
561.175	1	42
562.365	1	37
563.555	1	34
564.744	1	55
565.934	1	50
567.123	1	45
568.313	1	46
569.502	1	29
570.692	1	47
571.881	1	59
573.070	1	44
574.260	1	44
575.449	1	30
576.638	1	40
577.827	1	35
579.016	1	45
580.205	1	45
581.394	1	25
582.583	1	53
583.772	1	53
584.961	1	41
586.150	1	34
587.339	1	36
588.528	1	41
589.717	1	38
590.905	1	28
592.094	1	25
593.283	1	34
594.471	1	42
595.660	1	30
596.848	1	30
598.037	1	24
599.225	1	17
600.413	1	38
601.602	1	40
602.790	1	27
603.978	1	30
605.166	1	35
606.355	1	43
607.543	1	28
608.731	1	27
609.919	1	41
611.107	1	40
612.295	1	19
613.483	1	35
614.671	1	28
615.858	1	24
617.046	1	27
618.234	1	23
619.422	1	23
620.609	1	24
621.797	1	28
622.985	1	26
624.172	1	21
625.360	1	30
626.547	1	18
627.735	1	21
628.922	1	16
630.109	1	5
631.297	1	10
632.484	1	6
633.671	1	13
634.858	1	16
636.045	1	20
637.232	1	18
638.419	1	26
639.606	1	25
640.793	1	20
641.980	1	23
643.167	1	10
644.354	1	8
645.541	1	17
646.728	1	12
647.914	1	15
649.101	1	5
650.288	1	15
651.474	1	8
652.661	1	14
653.847	1	30
655.034	1	11
656.220	1	8
657.406	1	12
658.593	1	5
659.779	1	18
660.965	1	15
662.152	1	18
663.338	1	20
664.524	1	10
665.710	1	8
666.896	1	7
668.082	1	13
669.268	1	10
670.454	1	13
671.640	1	18
672.826	1	12
674.011	1	7
675.197	1	3
676.383	1	9
677.569	1	6
678.754	1	10
679.940	1	10
681.125	1	21
682.311	1	12
683.496	1	16
684.682	1	4
685.867	1	18
687.053	1	8
688.238	1	31
688.746	1	13