File: Data/GaN_200K_800ms/GaN_sample F_spot 12_UVVIS_200 K_200um_800 ms 2x2mm1_58.txt
340.368	1	5
341.565	1	1
342.763	1	10
343.960	1	-2
345.157	1	0
346.354	1	11
347.552	1	5
348.749	1	-7
349.946	1	7
351.143	1	8
352.340	1	9
353.537	1	9
354.734	1	23
355.931	1	17
357.127	1	32
358.324	1	29
359.521	1	43
360.718	1	46
361.914	1	68
363.111	1	98
364.308	1	118
365.504	1	177
366.701	1	228
367.897	1	268
369.093	1	302
370.290	1	318
371.486	1	309
372.682	1	256
373.879	1	202
375.075	1	179
376.271	1	147
377.467	1	117
378.663	1	103
379.859	1	80
381.055	1	90
382.251	1	73
383.447	1	56
384.643	1	56
385.839	1	43
387.035	1	45
388.230	1	47
389.426	1	33
390.622	1	26
391.817	1	29
393.013	1	20
394.208	1	18
395.404	1	19
396.599	1	12
397.795	1	14
398.990	1	18
400.186	1	12
401.381	1	-1
402.576	1	10
403.771	1	10
404.967	1	13
406.162	1	16
407.357	1	10
408.552	1	-1
409.747	1	15
410.942	1	16
412.137	1	12
413.332	1	12
414.526	1	-1
415.721	1	6
416.916	1	7
418.111	1	5
419.305	1	9
420.500	1	1
421.695	1	4
422.889	1	-9
424.084	1	-1
425.278	1	11
426.472	1	6
427.667	1	15
428.861	1	0
430.055	1	9
431.250	1	2
432.444	1	17
433.638	1	-3
434.832	1	6
436.026	1	8
437.220	1	2
438.414	1	-1
439.608	1	0
440.802	1	-2
441.996	1	11
443.190	1	3
444.384	1	-8
445.578	1	-4
446.771	1	12
447.965	1	5
449.159	1	8
450.352	1	2
451.546	1	6
452.739	1	9
453.933	1	0
455.126	1	-4
456.320	1	12
457.513	1	10
458.706	1	11
459.899	1	2
461.093	1	6
462.286	1	8
463.479	1	0
464.672	1	2
465.865	1	9
467.058	1	4
468.251	1	0
469.444	1	-1
470.637	1	2
471.830	1	-2
473.023	1	14
474.215	1	19
475.408	1	4
476.601	1	3
477.793	1	8
478.986	1	-1
480.179	1	7
481.371	1	-2
482.564	1	6
483.756	1	10
484.948	1	1
486.141	1	-2
487.333	1	11
488.525	1	9
489.718	1	3
490.910	1	-6
492.102	1	6
493.294	1	1
494.486	1	12
495.678	1	7
496.870	1	10
498.062	1	3
499.254	1	4
500.446	1	-3
501.638	1	8
502.829	1	12
504.021	1	11
505.213	1	17
506.404	1	22
507.596	1	24
508.788	1	28
509.979	1	20
511.171	1	8
512.362	1	14
513.553	1	2
514.745	1	9
515.936	1	12
517.127	1	23
518.319	1	21
519.510	1	17
520.701	1	11
521.892	1	16
523.083	1	20
524.274	1	27
525.465	1	15
526.656	1	18
527.847	1	29
529.038	1	32
530.229	1	18
531.419	1	25
532.610	1	21
533.801	1	32
534.991	1	25
536.182	1	18
537.373	1	25
538.563	1	31
539.754	1	24
540.944	1	30
542.134	1	36
543.325	1	21
544.515	1	23
545.705	1	31
546.896	1	28
548.086	1	27
549.276	1	30
550.466	1	32
551.656	1	32
552.846	1	39
554.036	1	32
555.226	1	19
556.416	1	30
557.606	1	35
558.796	1	27
559.986	1	29
561.175	1	23
562.365	1	35
563.555	1	28
564.744	1	27
565.934	1	32
567.123	1	35
568.313	1	43
569.502	1	33
570.692	1	31
571.881	1	38
573.070	1	28
574.260	1	39
575.449	1	30
576.638	1	22
577.827	1	27
579.016	1	31
580.205	1	26
581.394	1	34
582.583	1	38
583.772	1	39
584.961	1	39
586.150	1	21
587.339	1	36
588.528	1	29
589.717	1	25
590.905	1	20
592.094	1	22
593.283	1	15
594.471	1	34
595.660	1	13
596.848	1	27
598.037	1	23
599.225	1	7
600.413	1	22
601.602	1	38
602.790	1	25
603.978	1	21
605.166	1	30
606.355	1	20
607.543	1	17
608.731	1	21
609.919	1	36
611.107	1	13
612.295	1	8
613.483	1	16
614.671	1	29
615.858	1	22
617.046	1	20
618.234	1	19
619.422	1	5
620.609	1	20
621.797	1	14
622.985	1	10
624.172	1	21
625.360	1	18
626.547	1	25
627.735	1	20
628.922	1	23
630.109	1	11
631.297	1	12
632.484	1	11
633.671	1	12
634.858	1	12
636.045	1	23
637.232	1	7
638.419	1	7
639.606	1	16
640.793	1	13
641.980	1	19
643.167	1	6
644.354	1	20
645.541	1	6
646.728	1	8
647.914	1	4
649.101	1	9
650.288	1	10
651.474	1	9
652.661	1	14
653.847	1	15
655.034	1	5
656.220	1	-4
657.406	1	16
658.593	1	18
659.779	1	10
660.965	1	16
662.152	1	12
663.338	1	12
664.524	1	5
665.710	1	6
666.896	1	8
668.082	1	11
669.268	1	11
670.454	1	11
671.640	1	10
672.826	1	15
674.011	1	9
675.197	1	1
676.383	1	2
677.569	1	1
678.754	1	5
679.940	1	2
681.125	1	12
682.311	1	12
683.496	1	12
684.682	1	-1
685.867	1	11
687.053	1	10
688.238	1	11
688.746	1	20