File: Data/GaN_200K_800ms/GaN_sample F_spot 12_UVVIS_200 K_200um_800 ms 2x2mm1_195.txt
340.368	1	3
341.565	1	-8
342.763	1	-1
343.960	1	3
345.157	1	-6
346.354	1	3
347.552	1	-9
348.749	1	-7
349.946	1	-6
351.143	1	0
352.340	1	11
353.537	1	9
354.734	1	3
355.931	1	5
357.127	1	2
358.324	1	2
359.521	1	8
360.718	1	-1
361.914	1	13
363.111	1	2
364.308	1	20
365.504	1	32
366.701	1	15
367.897	1	32
369.093	1	23
370.290	1	30
371.486	1	41
372.682	1	32
373.879	1	24
375.075	1	14
376.271	1	27
377.467	1	14
378.663	1	14
379.859	1	11
381.055	1	8
382.251	1	0
383.447	1	10
384.643	1	16
385.839	1	12
387.035	1	1
388.230	1	12
389.426	1	4
390.622	1	3
391.817	1	4
393.013	1	1
394.208	1	-4
395.404	1	-5
396.599	1	1
397.795	1	2
398.990	1	5
400.186	1	6
401.381	1	-6
402.576	1	4
403.771	1	5
404.967	1	-1
406.162	1	9
407.357	1	2
408.552	1	4
409.747	1	-1
410.942	1	14
412.137	1	-2
413.332	1	3
414.526	1	4
415.721	1	1
416.916	1	-5
418.111	1	3
419.305	1	1
420.500	1	-9
421.695	1	-1
422.889	1	-10
424.084	1	-1
425.278	1	5
426.472	1	-1
427.667	1	2
428.861	1	0
430.055	1	1
431.250	1	2
432.444	1	13
433.638	1	1
434.832	1	8
436.026	1	2
437.220	1	7
438.414	1	-16
439.608	1	-11
440.802	1	2
441.996	1	3
443.190	1	1
444.384	1	-6
445.578	1	-7
446.771	1	13
447.965	1	1
449.159	1	-10
450.352	1	-8
451.546	1	2
452.739	1	2
453.933	1	-1
455.126	1	-6
456.320	1	6
457.513	1	15
458.706	1	0
459.899	1	1
461.093	1	11
462.286	1	6
463.479	1	-1
464.672	1	-7
465.865	1	-5
467.058	1	-7
468.251	1	8
469.444	1	-3
470.637	1	3
471.830	1	-6
473.023	1	10
474.215	1	6
475.408	1	-5
476.601	1	3
477.793	1	-2
478.986	1	2
480.179	1	3
481.371	1	2
482.564	1	-1
483.756	1	11
484.948	1	1
486.141	1	-4
487.333	1	-2
488.525	1	0
489.718	1	-2
490.910	1	7
492.102	1	-3
493.294	1	-7
494.486	1	15
495.678	1	6
496.870	1	7
498.062	1	2
499.254	1	-3
500.446	1	-4
501.638	1	-9
502.829	1	6
504.021	1	1
505.213	1	6
506.404	1	12
507.596	1	9
508.788	1	14
509.979	1	-4
511.171	1	-1
512.362	1	0
513.553	1	-11
514.745	1	-4
515.936	1	4
517.127	1	-4
518.319	1	-4
519.510	1	-1
520.701	1	-4
521.892	1	11
523.083	1	-8
524.274	1	0
525.465	1	3
526.656	1	2
527.847	1	4
529.038	1	8
530.229	1	3
531.419	1	6
532.610	1	-3
533.801	1	15
534.991	1	3
536.182	1	2
537.373	1	3
538.563	1	11
539.754	1	4
540.944	1	-5
542.134	1	12
543.325	1	3
544.515	1	5
545.705	1	4
546.896	1	9
548.086	1	-2
549.276	1	5
550.466	1	0
551.656	1	11
552.846	1	11
554.036	1	-2
555.226	1	-9
556.416	1	9
557.606	1	5
558.796	1	-3
559.986	1	-2
561.175	1	9
562.365	1	12
563.555	1	-4
564.744	1	6
565.934	1	19
567.123	1	-5
568.313	1	0
569.502	1	4
570.692	1	7
571.881	1	10
573.070	1	2
574.260	1	9
575.449	1	8
576.638	1	-1
577.827	1	1
579.016	1	9
580.205	1	6
581.394	1	1
582.583	1	14
583.772	1	7
584.961	1	9
586.150	1	8
587.339	1	10
588.528	1	8
589.717	1	14
590.905	1	-1
592.094	1	4
593.283	1	0
594.471	1	7
595.660	1	11
596.848	1	-2
598.037	1	0
599.225	1	-13
600.413	1	14
601.602	1	6
602.790	1	1
603.978	1	9
605.166	1	5
606.355	1	15
607.543	1	0
608.731	1	2
609.919	1	7
611.107	1	-6
612.295	1	5
613.483	1	7
614.671	1	9
615.858	1	3
617.046	1	4
618.234	1	3
619.422	1	-6
620.609	1	5
621.797	1	13
622.985	1	1
624.172	1	0
625.360	1	8
626.547	1	4
627.735	1	3
628.922	1	-2
630.109	1	-5
631.297	1	6
632.484	1	-2
633.671	1	-2
634.858	1	-7
636.045	1	12
637.232	1	-5
638.419	1	2
639.606	1	0
640.793	1	9
641.980	1	4
643.167	1	-3
644.354	1	-1
645.541	1	0
646.728	1	-1
647.914	1	-4
649.101	1	2
650.288	1	0
651.474	1	-1
652.661	1	-2
653.847	1	9
655.034	1	2
656.220	1	-13
657.406	1	3
658.593	1	7
659.779	1	11
660.965	1	5
662.152	1	-2
663.338	1	11
664.524	1	5
665.710	1	3
666.896	1	-7
668.082	1	-2
669.268	1	-8
670.454	1	8
671.640	1	2
672.826	1	-4
674.011	1	-3
675.197	1	-3
676.383	1	4
677.569	1	3
678.754	1	-5
679.940	1	-2
681.125	1	5
682.311	1	9
683.496	1	10
684.682	1	4
685.867	1	0
687.053	1	3
688.238	1	1
688.746	1	5