File: Data/GaN_200K_800ms/GaN_sample F_spot 12_UVVIS_200 K_200um_800 ms 2x2mm1_500.txt
340.368	1	8
341.565	1	-9
342.763	1	8
343.960	1	2
345.157	1	-4
346.354	1	-1
347.552	1	-2
348.749	1	-5
349.946	1	-5
351.143	1	1
352.340	1	-1
353.537	1	-1
354.734	1	8
355.931	1	1
357.127	1	-3
358.324	1	1
359.521	1	3
360.718	1	-1
361.914	1	6
363.111	1	0
364.308	1	-5
365.504	1	7
366.701	1	8
367.897	1	5
369.093	1	8
370.290	1	3
371.486	1	9
372.682	1	7
373.879	1	7
375.075	1	0
376.271	1	3
377.467	1	5
378.663	1	-7
379.859	1	-8
381.055	1	10
382.251	1	-6
383.447	1	-3
384.643	1	8
385.839	1	-4
387.035	1	-9
388.230	1	6
389.426	1	-5
390.622	1	1
391.817	1	-2
393.013	1	0
394.208	1	1
395.404	1	-2
396.599	1	-6
397.795	1	3
398.990	1	-7
400.186	1	-2
401.381	1	-3
402.576	1	2
403.771	1	0
404.967	1	3
406.162	1	3
407.357	1	-5
408.552	1	-5
409.747	1	2
410.942	1	3
412.137	1	-1
413.332	1	1
414.526	1	0
415.721	1	-8
416.916	1	-2
418.111	1	2
419.305	1	-1
420.500	1	-5
421.695	1	-4
422.889	1	-12
424.084	1	-2
425.278	1	9
426.472	1	-1
427.667	1	-1
428.861	1	-4
430.055	1	-3
431.250	1	-3
432.444	1	6
433.638	1	2
434.832	1	4
436.026	1	3
437.220	1	2
438.414	1	-7
439.608	1	-8
440.802	1	-6
441.996	1	12
443.190	1	-8
444.384	1	-8
445.578	1	-10
446.771	1	4
447.965	1	-3
449.159	1	-7
450.352	1	-6
451.546	1	-1
452.739	1	6
453.933	1	4
455.126	1	-11
456.320	1	-7
457.513	1	8
458.706	1	-2
459.899	1	-1
461.093	1	-3
462.286	1	-6
463.479	1	2
464.672	1	0
465.865	1	-5
467.058	1	-1
468.251	1	4
469.444	1	-12
470.637	1	2
471.830	1	1
473.023	1	5
474.215	1	8
475.408	1	0
476.601	1	-3
477.793	1	1
478.986	1	-12
480.179	1	1
481.371	1	-2
482.564	1	2
483.756	1	9
484.948	1	-14
486.141	1	8
487.333	1	-8
488.525	1	-13
489.718	1	2
490.910	1	-3
492.102	1	0
493.294	1	-3
494.486	1	1
495.678	1	-1
496.870	1	11
498.062	1	-1
499.254	1	11
500.446	1	-14
501.638	1	-16
502.829	1	-3
504.021	1	3
505.213	1	4
506.404	1	-1
507.596	1	0
508.788	1	13
509.979	1	0
511.171	1	-10
512.362	1	-10
513.553	1	-3
514.745	1	3
515.936	1	-5
517.127	1	2
518.319	1	2
519.510	1	4
520.701	1	2
521.892	1	-4
523.083	1	-3
524.274	1	-3
525.465	1	7
526.656	1	-1
527.847	1	7
529.038	1	9
530.229	1	-3
531.419	1	-1
532.610	1	-10
533.801	1	16
534.991	1	2
536.182	1	-1
537.373	1	-2
538.563	1	5
539.754	1	5
540.944	1	-3
542.134	1	-6
543.325	1	1
544.515	1	-8
545.705	1	-3
546.896	1	-1
548.086	1	-9
549.276	1	0
550.466	1	2
551.656	1	7
552.846	1	5
554.036	1	0
555.226	1	-7
556.416	1	-7
557.606	1	-6
558.796	1	-1
559.986	1	-8
561.175	1	2
562.365	1	0
563.555	1	-7
564.744	1	3
565.934	1	11
567.123	1	2
568.313	1	9
569.502	1	0
570.692	1	-2
571.881	1	1
573.070	1	-4
574.260	1	7
575.449	1	-6
576.638	1	-2
577.827	1	-5
579.016	1	12
580.205	1	1
581.394	1	2
582.583	1	9
583.772	1	4
584.961	1	-2
586.150	1	-5
587.339	1	-3
588.528	1	1
589.717	1	2
590.905	1	-3
592.094	1	-4
593.283	1	-5
594.471	1	5
595.660	1	2
596.848	1	1
598.037	1	-5
599.225	1	-2
600.413	1	11
601.602	1	16
602.790	1	-5
603.978	1	-2
605.166	1	4
606.355	1	10
607.543	1	-1
608.731	1	-4
609.919	1	0
611.107	1	0
612.295	1	-9
613.483	1	0
614.671	1	7
615.858	1	9
617.046	1	5
618.234	1	0
619.422	1	-8
620.609	1	4
621.797	1	-10
622.985	1	-5
624.172	1	-5
625.360	1	-6
626.547	1	-2
627.735	1	3
628.922	1	-2
630.109	1	-8
631.297	1	-1
632.484	1	-5
633.671	1	-12
634.858	1	0
636.045	1	2
637.232	1	-6
638.419	1	-9
639.606	1	5
640.793	1	1
641.980	1	4
643.167	1	-2
644.354	1	4
645.541	1	0
646.728	1	-4
647.914	1	3
649.101	1	-6
650.288	1	3
651.474	1	-11
652.661	1	-5
653.847	1	4
655.034	1	6
656.220	1	-3
657.406	1	4
658.593	1	8
659.779	1	8
660.965	1	10
662.152	1	-4
663.338	1	6
664.524	1	0
665.710	1	7
666.896	1	-4
668.082	1	2
669.268	1	-6
670.454	1	3
671.640	1	0
672.826	1	2
674.011	1	-7
675.197	1	-4
676.383	1	4
677.569	1	-4
678.754	1	-7
679.940	1	-6
681.125	1	5
682.311	1	0
683.496	1	-4
684.682	1	-9
685.867	1	2
687.053	1	-6
688.238	1	7
688.746	1	5