File: Data/GaN_200K_800ms/GaN_sample F_spot 12_UVVIS_200 K_200um_800 ms 2x2mm1_248.txt
340.368	1	7
341.565	1	-4
342.763	1	-2
343.960	1	0
345.157	1	3
346.354	1	-3
347.552	1	0
348.749	1	-4
349.946	1	-4
351.143	1	4
352.340	1	5
353.537	1	8
354.734	1	7
355.931	1	0
357.127	1	2
358.324	1	3
359.521	1	5
360.718	1	-1
361.914	1	18
363.111	1	2
364.308	1	5
365.504	1	25
366.701	1	18
367.897	1	18
369.093	1	21
370.290	1	22
371.486	1	29
372.682	1	26
373.879	1	14
375.075	1	20
376.271	1	16
377.467	1	11
378.663	1	3
379.859	1	3
381.055	1	10
382.251	1	7
383.447	1	1
384.643	1	7
385.839	1	6
387.035	1	10
388.230	1	15
389.426	1	-5
390.622	1	-3
391.817	1	1
393.013	1	-8
394.208	1	4
395.404	1	-1
396.599	1	-5
397.795	1	4
398.990	1	1
400.186	1	2
401.381	1	-4
402.576	1	1
403.771	1	12
404.967	1	1
406.162	1	6
407.357	1	7
408.552	1	-3
409.747	1	-2
410.942	1	1
412.137	1	11
413.332	1	2
414.526	1	-7
415.721	1	9
416.916	1	0
418.111	1	5
419.305	1	3
420.500	1	-2
421.695	1	-3
422.889	1	-5
424.084	1	1
425.278	1	1
426.472	1	-4
427.667	1	8
428.861	1	-5
430.055	1	5
431.250	1	-5
432.444	1	15
433.638	1	0
434.832	1	3
436.026	1	9
437.220	1	5
438.414	1	-9
439.608	1	-13
440.802	1	-7
441.996	1	8
443.190	1	-1
444.384	1	-1
445.578	1	-5
446.771	1	8
447.965	1	3
449.159	1	0
450.352	1	-2
451.546	1	2
452.739	1	4
453.933	1	5
455.126	1	-3
456.320	1	2
457.513	1	1
458.706	1	-4
459.899	1	6
461.093	1	-3
462.286	1	-1
463.479	1	0
464.672	1	0
465.865	1	1
467.058	1	-9
468.251	1	-1
469.444	1	-3
470.637	1	9
471.830	1	-3
473.023	1	2
474.215	1	9
475.408	1	0
476.601	1	1
477.793	1	-10
478.986	1	-5
480.179	1	-3
481.371	1	0
482.564	1	5
483.756	1	1
484.948	1	0
486.141	1	-4
487.333	1	-7
488.525	1	4
489.718	1	-10
490.910	1	-4
492.102	1	-4
493.294	1	-5
494.486	1	-3
495.678	1	3
496.870	1	-2
498.062	1	-9
499.254	1	-7
500.446	1	-6
501.638	1	-6
502.829	1	-1
504.021	1	-4
505.213	1	7
506.404	1	7
507.596	1	6
508.788	1	16
509.979	1	-9
511.171	1	-1
512.362	1	-8
513.553	1	-10
514.745	1	-7
515.936	1	-1
517.127	1	-1
518.319	1	-4
519.510	1	0
520.701	1	9
521.892	1	-5
523.083	1	-8
524.274	1	2
525.465	1	2
526.656	1	10
527.847	1	1
529.038	1	1
530.229	1	-1
531.419	1	3
532.610	1	-2
533.801	1	14
534.991	1	2
536.182	1	-3
537.373	1	-3
538.563	1	8
539.754	1	-4
540.944	1	-4
542.134	1	10
543.325	1	-1
544.515	1	-1
545.705	1	0
546.896	1	-10
548.086	1	-2
549.276	1	-1
550.466	1	0
551.656	1	8
552.846	1	2
554.036	1	2
555.226	1	-5
556.416	1	-2
557.606	1	-4
558.796	1	4
559.986	1	1
561.175	1	10
562.365	1	3
563.555	1	-12
564.744	1	7
565.934	1	-3
567.123	1	4
568.313	1	1
569.502	1	2
570.692	1	1
571.881	1	13
573.070	1	12
574.260	1	17
575.449	1	-7
576.638	1	-8
577.827	1	-4
579.016	1	14
580.205	1	-4
581.394	1	-1
582.583	1	12
583.772	1	5
584.961	1	6
586.150	1	2
587.339	1	2
588.528	1	3
589.717	1	-4
590.905	1	4
592.094	1	-1
593.283	1	13
594.471	1	10
595.660	1	1
596.848	1	4
598.037	1	3
599.225	1	-17
600.413	1	5
601.602	1	18
602.790	1	-4
603.978	1	3
605.166	1	5
606.355	1	2
607.543	1	-1
608.731	1	-3
609.919	1	11
611.107	1	3
612.295	1	-6
613.483	1	3
614.671	1	1
615.858	1	0
617.046	1	3
618.234	1	2
619.422	1	-11
620.609	1	12
621.797	1	-4
622.985	1	5
624.172	1	4
625.360	1	6
626.547	1	-2
627.735	1	0
628.922	1	-1
630.109	1	-7
631.297	1	4
632.484	1	-13
633.671	1	-1
634.858	1	-7
636.045	1	11
637.232	1	2
638.419	1	-14
639.606	1	1
640.793	1	9
641.980	1	7
643.167	1	-10
644.354	1	12
645.541	1	3
646.728	1	3
647.914	1	-5
649.101	1	-5
650.288	1	3
651.474	1	0
652.661	1	4
653.847	1	5
655.034	1	-6
656.220	1	-7
657.406	1	10
658.593	1	14
659.779	1	2
660.965	1	13
662.152	1	1
663.338	1	7
664.524	1	-4
665.710	1	-4
666.896	1	-6
668.082	1	2
669.268	1	4
670.454	1	-2
671.640	1	1
672.826	1	-12
674.011	1	-1
675.197	1	-11
676.383	1	2
677.569	1	-3
678.754	1	-5
679.940	1	3
681.125	1	11
682.311	1	1
683.496	1	1
684.682	1	-3
685.867	1	8
687.053	1	-2
688.238	1	-5
688.746	1	4