File: Data/GaN_200K_800ms/GaN_sample F_spot 12_UVVIS_200 K_200um_800 ms 2x2mm1_96.txt
340.368	1	4
341.565	1	-11
342.763	1	4
343.960	1	2
345.157	1	-1
346.354	1	-7
347.552	1	0
348.749	1	-3
349.946	1	-4
351.143	1	3
352.340	1	5
353.537	1	-4
354.734	1	14
355.931	1	3
357.127	1	12
358.324	1	7
359.521	1	23
360.718	1	22
361.914	1	39
363.111	1	40
364.308	1	45
365.504	1	67
366.701	1	81
367.897	1	89
369.093	1	99
370.290	1	109
371.486	1	100
372.682	1	92
373.879	1	71
375.075	1	55
376.271	1	61
377.467	1	37
378.663	1	46
379.859	1	32
381.055	1	40
382.251	1	19
383.447	1	17
384.643	1	36
385.839	1	19
387.035	1	25
388.230	1	19
389.426	1	7
390.622	1	13
391.817	1	15
393.013	1	6
394.208	1	10
395.404	1	0
396.599	1	-1
397.795	1	7
398.990	1	6
400.186	1	9
401.381	1	2
402.576	1	-4
403.771	1	8
404.967	1	7
406.162	1	4
407.357	1	6
408.552	1	5
409.747	1	3
410.942	1	19
412.137	1	8
413.332	1	4
414.526	1	8
415.721	1	-3
416.916	1	-2
418.111	1	6
419.305	1	5
420.500	1	-4
421.695	1	-2
422.889	1	-11
424.084	1	-1
425.278	1	13
426.472	1	4
427.667	1	8
428.861	1	0
430.055	1	8
431.250	1	-4
432.444	1	6
433.638	1	5
434.832	1	11
436.026	1	10
437.220	1	3
438.414	1	-2
439.608	1	-12
440.802	1	-8
441.996	1	8
443.190	1	5
444.384	1	-7
445.578	1	-12
446.771	1	7
447.965	1	2
449.159	1	2
450.352	1	-4
451.546	1	0
452.739	1	4
453.933	1	3
455.126	1	-6
456.320	1	3
457.513	1	3
458.706	1	-6
459.899	1	5
461.093	1	4
462.286	1	7
463.479	1	7
464.672	1	4
465.865	1	7
467.058	1	-2
468.251	1	1
469.444	1	-11
470.637	1	-1
471.830	1	7
473.023	1	4
474.215	1	13
475.408	1	4
476.601	1	5
477.793	1	4
478.986	1	0
480.179	1	-6
481.371	1	11
482.564	1	-3
483.756	1	5
484.948	1	-4
486.141	1	-5
487.333	1	7
488.525	1	2
489.718	1	5
490.910	1	3
492.102	1	-2
493.294	1	7
494.486	1	8
495.678	1	0
496.870	1	4
498.062	1	2
499.254	1	2
500.446	1	-8
501.638	1	-2
502.829	1	3
504.021	1	-3
505.213	1	12
506.404	1	7
507.596	1	5
508.788	1	29
509.979	1	7
511.171	1	1
512.362	1	1
513.553	1	-1
514.745	1	5
515.936	1	-3
517.127	1	6
518.319	1	10
519.510	1	2
520.701	1	3
521.892	1	7
523.083	1	8
524.274	1	8
525.465	1	11
526.656	1	0
527.847	1	13
529.038	1	11
530.229	1	10
531.419	1	14
532.610	1	4
533.801	1	39
534.991	1	13
536.182	1	3
537.373	1	9
538.563	1	18
539.754	1	21
540.944	1	8
542.134	1	11
543.325	1	24
544.515	1	17
545.705	1	13
546.896	1	20
548.086	1	15
549.276	1	5
550.466	1	20
551.656	1	16
552.846	1	7
554.036	1	6
555.226	1	10
556.416	1	5
557.606	1	15
558.796	1	18
559.986	1	13
561.175	1	14
562.365	1	15
563.555	1	13
564.744	1	14
565.934	1	13
567.123	1	8
568.313	1	15
569.502	1	11
570.692	1	13
571.881	1	24
573.070	1	15
574.260	1	25
575.449	1	15
576.638	1	6
577.827	1	13
579.016	1	23
580.205	1	15
581.394	1	16
582.583	1	19
583.772	1	17
584.961	1	12
586.150	1	6
587.339	1	13
588.528	1	21
589.717	1	12
590.905	1	14
592.094	1	15
593.283	1	9
594.471	1	20
595.660	1	15
596.848	1	4
598.037	1	7
599.225	1	1
600.413	1	13
601.602	1	26
602.790	1	22
603.978	1	17
605.166	1	14
606.355	1	21
607.543	1	6
608.731	1	7
609.919	1	26
611.107	1	1
612.295	1	4
613.483	1	10
614.671	1	16
615.858	1	9
617.046	1	11
618.234	1	3
619.422	1	0
620.609	1	8
621.797	1	11
622.985	1	13
624.172	1	6
625.360	1	6
626.547	1	16
627.735	1	22
628.922	1	11
630.109	1	-1
631.297	1	10
632.484	1	4
633.671	1	0
634.858	1	0
636.045	1	18
637.232	1	3
638.419	1	1
639.606	1	18
640.793	1	7
641.980	1	9
643.167	1	4
644.354	1	4
645.541	1	4
646.728	1	9
647.914	1	10
649.101	1	6
650.288	1	6
651.474	1	1
652.661	1	2
653.847	1	7
655.034	1	6
656.220	1	5
657.406	1	8
658.593	1	11
659.779	1	10
660.965	1	9
662.152	1	3
663.338	1	4
664.524	1	5
665.710	1	1
666.896	1	8
668.082	1	5
669.268	1	6
670.454	1	12
671.640	1	14
672.826	1	-4
674.011	1	7
675.197	1	-4
676.383	1	-4
677.569	1	9
678.754	1	2
679.940	1	-2
681.125	1	4
682.311	1	11
683.496	1	14
684.682	1	-11
685.867	1	6
687.053	1	13
688.238	1	11
688.746	1	7