File: Data/GaN_200K_800ms/GaN_sample F_spot 12_UVVIS_200 K_200um_800 ms 2x2mm1_28.txt
340.368	1	1
341.565	1	-17
342.763	1	12
343.960	1	4
345.157	1	-10
346.354	1	6
347.552	1	-6
348.749	1	0
349.946	1	5
351.143	1	-4
352.340	1	7
353.537	1	4
354.734	1	8
355.931	1	-7
357.127	1	0
358.324	1	1
359.521	1	0
360.718	1	0
361.914	1	-1
363.111	1	-6
364.308	1	0
365.504	1	5
366.701	1	-3
367.897	1	-1
369.093	1	-7
370.290	1	-2
371.486	1	10
372.682	1	6
373.879	1	1
375.075	1	3
376.271	1	4
377.467	1	3
378.663	1	-4
379.859	1	4
381.055	1	11
382.251	1	-10
383.447	1	0
384.643	1	4
385.839	1	-4
387.035	1	-4
388.230	1	0
389.426	1	-2
390.622	1	-2
391.817	1	6
393.013	1	-6
394.208	1	-5
395.404	1	-3
396.599	1	0
397.795	1	7
398.990	1	4
400.186	1	-1
401.381	1	-6
402.576	1	-4
403.771	1	9
404.967	1	-7
406.162	1	7
407.357	1	0
408.552	1	-1
409.747	1	4
410.942	1	0
412.137	1	2
413.332	1	-1
414.526	1	-5
415.721	1	1
416.916	1	-4
418.111	1	4
419.305	1	7
420.500	1	2
421.695	1	-10
422.889	1	-7
424.084	1	14
425.278	1	8
426.472	1	9
427.667	1	3
428.861	1	-5
430.055	1	6
431.250	1	-5
432.444	1	4
433.638	1	-5
434.832	1	6
436.026	1	0
437.220	1	13
438.414	1	-4
439.608	1	-3
440.802	1	1
441.996	1	5
443.190	1	-1
444.384	1	1
445.578	1	-6
446.771	1	10
447.965	1	-3
449.159	1	-10
450.352	1	-6
451.546	1	-2
452.739	1	0
453.933	1	3
455.126	1	-6
456.320	1	1
457.513	1	10
458.706	1	-3
459.899	1	2
461.093	1	4
462.286	1	7
463.479	1	3
464.672	1	-4
465.865	1	-3
467.058	1	-2
468.251	1	5
469.444	1	-2
470.637	1	0
471.830	1	1
473.023	1	8
474.215	1	7
475.408	1	-3
476.601	1	0
477.793	1	-4
478.986	1	10
480.179	1	2
481.371	1	13
482.564	1	2
483.756	1	4
484.948	1	-7
486.141	1	2
487.333	1	-3
488.525	1	-4
489.718	1	5
490.910	1	5
492.102	1	3
493.294	1	-9
494.486	1	9
495.678	1	7
496.870	1	1
498.062	1	1
499.254	1	-4
500.446	1	-2
501.638	1	1
502.829	1	0
504.021	1	-2
505.213	1	6
506.404	1	9
507.596	1	11
508.788	1	16
509.979	1	-8
511.171	1	0
512.362	1	2
513.553	1	-20
514.745	1	2
515.936	1	1
517.127	1	-4
518.319	1	2
519.510	1	7
520.701	1	-4
521.892	1	2
523.083	1	0
524.274	1	3
525.465	1	13
526.656	1	9
527.847	1	1
529.038	1	0
530.229	1	6
531.419	1	3
532.610	1	-14
533.801	1	13
534.991	1	-1
536.182	1	-1
537.373	1	1
538.563	1	7
539.754	1	8
540.944	1	4
542.134	1	4
543.325	1	-3
544.515	1	0
545.705	1	0
546.896	1	-6
548.086	1	1
549.276	1	0
550.466	1	1
551.656	1	-4
552.846	1	-9
554.036	1	-1
555.226	1	-6
556.416	1	-4
557.606	1	12
558.796	1	7
559.986	1	-8
561.175	1	-3
562.365	1	2
563.555	1	2
564.744	1	4
565.934	1	3
567.123	1	-2
568.313	1	5
569.502	1	-2
570.692	1	13
571.881	1	9
573.070	1	0
574.260	1	2
575.449	1	2
576.638	1	0
577.827	1	-2
579.016	1	10
580.205	1	-3
581.394	1	-6
582.583	1	5
583.772	1	11
584.961	1	0
586.150	1	-5
587.339	1	8
588.528	1	3
589.717	1	2
590.905	1	10
592.094	1	3
593.283	1	-2
594.471	1	15
595.660	1	-5
596.848	1	7
598.037	1	0
599.225	1	-4
600.413	1	16
601.602	1	21
602.790	1	9
603.978	1	-1
605.166	1	11
606.355	1	2
607.543	1	-1
608.731	1	-2
609.919	1	9
611.107	1	-3
612.295	1	-4
613.483	1	8
614.671	1	10
615.858	1	3
617.046	1	3
618.234	1	0
619.422	1	-1
620.609	1	5
621.797	1	-10
622.985	1	-3
624.172	1	-2
625.360	1	6
626.547	1	0
627.735	1	4
628.922	1	6
630.109	1	-10
631.297	1	-3
632.484	1	1
633.671	1	-1
634.858	1	3
636.045	1	16
637.232	1	-6
638.419	1	7
639.606	1	-3
640.793	1	13
641.980	1	12
643.167	1	1
644.354	1	-1
645.541	1	5
646.728	1	0
647.914	1	1
649.101	1	-5
650.288	1	10
651.474	1	5
652.661	1	-4
653.847	1	9
655.034	1	5
656.220	1	-16
657.406	1	8
658.593	1	8
659.779	1	-1
660.965	1	9
662.152	1	4
663.338	1	8
664.524	1	-5
665.710	1	0
666.896	1	0
668.082	1	-2
669.268	1	1
670.454	1	5
671.640	1	4
672.826	1	-1
674.011	1	-3
675.197	1	-9
676.383	1	1
677.569	1	-3
678.754	1	-6
679.940	1	0
681.125	1	8
682.311	1	12
683.496	1	5
684.682	1	-5
685.867	1	4
687.053	1	-4
688.238	1	7
688.746	1	2