File: Data/GaN_200K_800ms/GaN_sample F_spot 12_UVVIS_200 K_200um_800 ms 2x2mm1_41.txt
340.368	1	10
341.565	1	-3
342.763	1	13
343.960	1	13
345.157	1	5
346.354	1	4
347.552	1	3
348.749	1	-3
349.946	1	6
351.143	1	12
352.340	1	28
353.537	1	19
354.734	1	34
355.931	1	34
357.127	1	45
358.324	1	55
359.521	1	78
360.718	1	114
361.914	1	161
363.111	1	248
364.308	1	369
365.504	1	569
366.701	1	804
367.897	1	1066
369.093	1	1274
370.290	1	1285
371.486	1	1125
372.682	1	897
373.879	1	741
375.075	1	620
376.271	1	509
377.467	1	411
378.663	1	336
379.859	1	281
381.055	1	239
382.251	1	180
383.447	1	160
384.643	1	163
385.839	1	126
387.035	1	108
388.230	1	108
389.426	1	78
390.622	1	72
391.817	1	72
393.013	1	53
394.208	1	54
395.404	1	38
396.599	1	37
397.795	1	46
398.990	1	33
400.186	1	33
401.381	1	33
402.576	1	16
403.771	1	27
404.967	1	26
406.162	1	29
407.357	1	23
408.552	1	14
409.747	1	20
410.942	1	15
412.137	1	11
413.332	1	19
414.526	1	10
415.721	1	11
416.916	1	12
418.111	1	6
419.305	1	16
420.500	1	17
421.695	1	7
422.889	1	7
424.084	1	12
425.278	1	20
426.472	1	2
427.667	1	15
428.861	1	3
430.055	1	18
431.250	1	7
432.444	1	18
433.638	1	7
434.832	1	16
436.026	1	11
437.220	1	11
438.414	1	2
439.608	1	-12
440.802	1	1
441.996	1	19
443.190	1	9
444.384	1	4
445.578	1	-2
446.771	1	15
447.965	1	7
449.159	1	3
450.352	1	0
451.546	1	8
452.739	1	3
453.933	1	5
455.126	1	1
456.320	1	2
457.513	1	20
458.706	1	13
459.899	1	5
461.093	1	17
462.286	1	8
463.479	1	0
464.672	1	9
465.865	1	13
467.058	1	6
468.251	1	15
469.444	1	0
470.637	1	15
471.830	1	7
473.023	1	17
474.215	1	13
475.408	1	10
476.601	1	9
477.793	1	12
478.986	1	12
480.179	1	12
481.371	1	11
482.564	1	13
483.756	1	19
484.948	1	6
486.141	1	5
487.333	1	22
488.525	1	13
489.718	1	26
490.910	1	30
492.102	1	25
493.294	1	20
494.486	1	31
495.678	1	34
496.870	1	35
498.062	1	31
499.254	1	29
500.446	1	26
501.638	1	33
502.829	1	45
504.021	1	36
505.213	1	47
506.404	1	54
507.596	1	55
508.788	1	59
509.979	1	57
511.171	1	51
512.362	1	59
513.553	1	49
514.745	1	47
515.936	1	65
517.127	1	54
518.319	1	67
519.510	1	71
520.701	1	64
521.892	1	83
523.083	1	68
524.274	1	71
525.465	1	87
526.656	1	78
527.847	1	76
529.038	1	85
530.229	1	85
531.419	1	94
532.610	1	81
533.801	1	100
534.991	1	92
536.182	1	100
537.373	1	96
538.563	1	91
539.754	1	97
540.944	1	72
542.134	1	100
543.325	1	87
544.515	1	90
545.705	1	91
546.896	1	100
548.086	1	101
549.276	1	109
550.466	1	107
551.656	1	116
552.846	1	112
554.036	1	114
555.226	1	95
556.416	1	96
557.606	1	112
558.796	1	101
559.986	1	90
561.175	1	108
562.365	1	103
563.555	1	100
564.744	1	105
565.934	1	114
567.123	1	113
568.313	1	111
569.502	1	97
570.692	1	109
571.881	1	110
573.070	1	98
574.260	1	103
575.449	1	88
576.638	1	92
577.827	1	96
579.016	1	95
580.205	1	99
581.394	1	92
582.583	1	112
583.772	1	108
584.961	1	96
586.150	1	88
587.339	1	95
588.528	1	99
589.717	1	96
590.905	1	86
592.094	1	86
593.283	1	87
594.471	1	90
595.660	1	81
596.848	1	84
598.037	1	77
599.225	1	74
600.413	1	86
601.602	1	82
602.790	1	83
603.978	1	74
605.166	1	71
606.355	1	91
607.543	1	82
608.731	1	71
609.919	1	95
611.107	1	66
612.295	1	71
613.483	1	75
614.671	1	76
615.858	1	80
617.046	1	66
618.234	1	60
619.422	1	54
620.609	1	65
621.797	1	57
622.985	1	56
624.172	1	54
625.360	1	46
626.547	1	55
627.735	1	51
628.922	1	58
630.109	1	42
631.297	1	57
632.484	1	49
633.671	1	52
634.858	1	56
636.045	1	55
637.232	1	51
638.419	1	48
639.606	1	43
640.793	1	54
641.980	1	54
643.167	1	33
644.354	1	41
645.541	1	44
646.728	1	40
647.914	1	36
649.101	1	36
650.288	1	38
651.474	1	39
652.661	1	31
653.847	1	34
655.034	1	40
656.220	1	21
657.406	1	35
658.593	1	42
659.779	1	37
660.965	1	32
662.152	1	25
663.338	1	44
664.524	1	39
665.710	1	29
666.896	1	23
668.082	1	20
669.268	1	27
670.454	1	38
671.640	1	12
672.826	1	31
674.011	1	24
675.197	1	12
676.383	1	32
677.569	1	28
678.754	1	27
679.940	1	32
681.125	1	31
682.311	1	39
683.496	1	38
684.682	1	15
685.867	1	25
687.053	1	28
688.238	1	23
688.746	1	24