File: Data/GaN_200K_800ms/GaN_sample F_spot 12_UVVIS_200 K_200um_800 ms 2x2mm1_156.txt
340.368	1	8
341.565	1	-7
342.763	1	2
343.960	1	2
345.157	1	3
346.354	1	2
347.552	1	-1
348.749	1	6
349.946	1	-2
351.143	1	2
352.340	1	4
353.537	1	12
354.734	1	12
355.931	1	8
357.127	1	13
358.324	1	9
359.521	1	14
360.718	1	16
361.914	1	23
363.111	1	12
364.308	1	23
365.504	1	29
366.701	1	36
367.897	1	46
369.093	1	50
370.290	1	50
371.486	1	55
372.682	1	41
373.879	1	39
375.075	1	34
376.271	1	33
377.467	1	24
378.663	1	15
379.859	1	19
381.055	1	27
382.251	1	5
383.447	1	14
384.643	1	8
385.839	1	8
387.035	1	4
388.230	1	12
389.426	1	5
390.622	1	4
391.817	1	5
393.013	1	7
394.208	1	-2
395.404	1	-1
396.599	1	0
397.795	1	2
398.990	1	-4
400.186	1	-1
401.381	1	-2
402.576	1	-1
403.771	1	1
404.967	1	4
406.162	1	11
407.357	1	-1
408.552	1	1
409.747	1	1
410.942	1	4
412.137	1	16
413.332	1	10
414.526	1	0
415.721	1	2
416.916	1	-8
418.111	1	1
419.305	1	-3
420.500	1	4
421.695	1	-3
422.889	1	-9
424.084	1	-2
425.278	1	7
426.472	1	2
427.667	1	0
428.861	1	-1
430.055	1	-1
431.250	1	5
432.444	1	2
433.638	1	0
434.832	1	8
436.026	1	5
437.220	1	11
438.414	1	0
439.608	1	-13
440.802	1	-10
441.996	1	6
443.190	1	0
444.384	1	-2
445.578	1	-4
446.771	1	16
447.965	1	1
449.159	1	-2
450.352	1	4
451.546	1	11
452.739	1	0
453.933	1	-13
455.126	1	2
456.320	1	2
457.513	1	6
458.706	1	3
459.899	1	7
461.093	1	3
462.286	1	2
463.479	1	-6
464.672	1	0
465.865	1	-2
467.058	1	-3
468.251	1	1
469.444	1	-8
470.637	1	5
471.830	1	0
473.023	1	3
474.215	1	11
475.408	1	11
476.601	1	-2
477.793	1	5
478.986	1	-3
480.179	1	1
481.371	1	-1
482.564	1	7
483.756	1	11
484.948	1	-3
486.141	1	-6
487.333	1	4
488.525	1	-5
489.718	1	-3
490.910	1	-2
492.102	1	-8
493.294	1	-6
494.486	1	9
495.678	1	2
496.870	1	9
498.062	1	-5
499.254	1	-1
500.446	1	-7
501.638	1	-5
502.829	1	1
504.021	1	5
505.213	1	3
506.404	1	3
507.596	1	11
508.788	1	22
509.979	1	5
511.171	1	1
512.362	1	-4
513.553	1	-2
514.745	1	6
515.936	1	-2
517.127	1	0
518.319	1	-2
519.510	1	2
520.701	1	-2
521.892	1	0
523.083	1	-13
524.274	1	3
525.465	1	7
526.656	1	-8
527.847	1	3
529.038	1	5
530.229	1	-3
531.419	1	9
532.610	1	3
533.801	1	25
534.991	1	6
536.182	1	-2
537.373	1	-4
538.563	1	10
539.754	1	21
540.944	1	5
542.134	1	10
543.325	1	5
544.515	1	7
545.705	1	0
546.896	1	-2
548.086	1	10
549.276	1	5
550.466	1	10
551.656	1	13
552.846	1	2
554.036	1	0
555.226	1	-8
556.416	1	7
557.606	1	10
558.796	1	4
559.986	1	9
561.175	1	6
562.365	1	13
563.555	1	-5
564.744	1	8
565.934	1	9
567.123	1	11
568.313	1	4
569.502	1	1
570.692	1	10
571.881	1	15
573.070	1	3
574.260	1	6
575.449	1	2
576.638	1	-1
577.827	1	-4
579.016	1	22
580.205	1	4
581.394	1	6
582.583	1	14
583.772	1	4
584.961	1	5
586.150	1	5
587.339	1	7
588.528	1	3
589.717	1	10
590.905	1	6
592.094	1	3
593.283	1	-4
594.471	1	8
595.660	1	4
596.848	1	2
598.037	1	-6
599.225	1	-13
600.413	1	9
601.602	1	13
602.790	1	7
603.978	1	3
605.166	1	-3
606.355	1	10
607.543	1	-10
608.731	1	8
609.919	1	9
611.107	1	-2
612.295	1	0
613.483	1	-2
614.671	1	9
615.858	1	4
617.046	1	-1
618.234	1	2
619.422	1	-3
620.609	1	6
621.797	1	-5
622.985	1	6
624.172	1	-1
625.360	1	-3
626.547	1	8
627.735	1	5
628.922	1	6
630.109	1	-3
631.297	1	0
632.484	1	4
633.671	1	0
634.858	1	-1
636.045	1	6
637.232	1	-6
638.419	1	0
639.606	1	2
640.793	1	10
641.980	1	10
643.167	1	-1
644.354	1	1
645.541	1	-2
646.728	1	4
647.914	1	2
649.101	1	1
650.288	1	8
651.474	1	-1
652.661	1	7
653.847	1	9
655.034	1	5
656.220	1	-5
657.406	1	9
658.593	1	-1
659.779	1	4
660.965	1	9
662.152	1	0
663.338	1	10
664.524	1	0
665.710	1	-1
666.896	1	7
668.082	1	0
669.268	1	2
670.454	1	7
671.640	1	0
672.826	1	5
674.011	1	5
675.197	1	-6
676.383	1	2
677.569	1	2
678.754	1	-3
679.940	1	1
681.125	1	-1
682.311	1	3
683.496	1	7
684.682	1	-2
685.867	1	1
687.053	1	5
688.238	1	4
688.746	1	3