File: Data/GaN_200K_800ms/GaN_sample F_spot 12_UVVIS_200 K_200um_800 ms 2x2mm1_219.txt
340.368	1	4
341.565	1	-3
342.763	1	11
343.960	1	-3
345.157	1	1
346.354	1	6
347.552	1	-6
348.749	1	-9
349.946	1	-8
351.143	1	-1
352.340	1	6
353.537	1	-5
354.734	1	1
355.931	1	2
357.127	1	2
358.324	1	-1
359.521	1	9
360.718	1	9
361.914	1	19
363.111	1	6
364.308	1	12
365.504	1	22
366.701	1	16
367.897	1	19
369.093	1	25
370.290	1	22
371.486	1	26
372.682	1	24
373.879	1	22
375.075	1	11
376.271	1	23
377.467	1	5
378.663	1	4
379.859	1	8
381.055	1	14
382.251	1	-4
383.447	1	-1
384.643	1	12
385.839	1	-3
387.035	1	6
388.230	1	11
389.426	1	3
390.622	1	4
391.817	1	6
393.013	1	9
394.208	1	2
395.404	1	-5
396.599	1	2
397.795	1	6
398.990	1	1
400.186	1	5
401.381	1	-4
402.576	1	-7
403.771	1	1
404.967	1	7
406.162	1	10
407.357	1	-8
408.552	1	-11
409.747	1	-4
410.942	1	14
412.137	1	10
413.332	1	-7
414.526	1	3
415.721	1	-3
416.916	1	-3
418.111	1	-2
419.305	1	-1
420.500	1	-1
421.695	1	-4
422.889	1	-12
424.084	1	-10
425.278	1	8
426.472	1	0
427.667	1	8
428.861	1	-3
430.055	1	-1
431.250	1	7
432.444	1	9
433.638	1	2
434.832	1	-1
436.026	1	7
437.220	1	3
438.414	1	-11
439.608	1	-6
440.802	1	-1
441.996	1	8
443.190	1	1
444.384	1	-7
445.578	1	-4
446.771	1	6
447.965	1	0
449.159	1	-5
450.352	1	-1
451.546	1	-3
452.739	1	2
453.933	1	-1
455.126	1	-2
456.320	1	6
457.513	1	10
458.706	1	8
459.899	1	0
461.093	1	3
462.286	1	-5
463.479	1	-4
464.672	1	1
465.865	1	8
467.058	1	-9
468.251	1	0
469.444	1	-8
470.637	1	-4
471.830	1	-2
473.023	1	7
474.215	1	7
475.408	1	-2
476.601	1	-3
477.793	1	-4
478.986	1	-7
480.179	1	1
481.371	1	2
482.564	1	-1
483.756	1	-4
484.948	1	-10
486.141	1	4
487.333	1	-4
488.525	1	-3
489.718	1	0
490.910	1	1
492.102	1	-5
493.294	1	1
494.486	1	3
495.678	1	11
496.870	1	8
498.062	1	2
499.254	1	1
500.446	1	-3
501.638	1	-10
502.829	1	-3
504.021	1	-4
505.213	1	7
506.404	1	7
507.596	1	2
508.788	1	11
509.979	1	-9
511.171	1	-11
512.362	1	-3
513.553	1	-11
514.745	1	0
515.936	1	5
517.127	1	4
518.319	1	-3
519.510	1	-4
520.701	1	4
521.892	1	2
523.083	1	-9
524.274	1	-6
525.465	1	10
526.656	1	-2
527.847	1	3
529.038	1	5
530.229	1	5
531.419	1	6
532.610	1	-2
533.801	1	21
534.991	1	4
536.182	1	7
537.373	1	5
538.563	1	3
539.754	1	5
540.944	1	1
542.134	1	7
543.325	1	0
544.515	1	5
545.705	1	7
546.896	1	-1
548.086	1	3
549.276	1	4
550.466	1	6
551.656	1	7
552.846	1	2
554.036	1	0
555.226	1	3
556.416	1	6
557.606	1	-8
558.796	1	1
559.986	1	-6
561.175	1	14
562.365	1	0
563.555	1	5
564.744	1	3
565.934	1	7
567.123	1	14
568.313	1	6
569.502	1	-4
570.692	1	9
571.881	1	10
573.070	1	-7
574.260	1	18
575.449	1	4
576.638	1	-6
577.827	1	-2
579.016	1	7
580.205	1	0
581.394	1	7
582.583	1	10
583.772	1	11
584.961	1	2
586.150	1	-2
587.339	1	9
588.528	1	6
589.717	1	1
590.905	1	3
592.094	1	2
593.283	1	1
594.471	1	15
595.660	1	4
596.848	1	-4
598.037	1	4
599.225	1	-1
600.413	1	19
601.602	1	8
602.790	1	-3
603.978	1	-5
605.166	1	-7
606.355	1	2
607.543	1	4
608.731	1	1
609.919	1	15
611.107	1	0
612.295	1	4
613.483	1	8
614.671	1	-3
615.858	1	5
617.046	1	6
618.234	1	0
619.422	1	-7
620.609	1	3
621.797	1	6
622.985	1	10
624.172	1	-2
625.360	1	-3
626.547	1	6
627.735	1	9
628.922	1	8
630.109	1	-8
631.297	1	1
632.484	1	9
633.671	1	-1
634.858	1	8
636.045	1	11
637.232	1	-4
638.419	1	-6
639.606	1	5
640.793	1	7
641.980	1	5
643.167	1	0
644.354	1	1
645.541	1	-4
646.728	1	6
647.914	1	-6
649.101	1	5
650.288	1	8
651.474	1	-8
652.661	1	-4
653.847	1	10
655.034	1	1
656.220	1	-10
657.406	1	14
658.593	1	5
659.779	1	-1
660.965	1	10
662.152	1	5
663.338	1	11
664.524	1	-7
665.710	1	7
666.896	1	-4
668.082	1	8
669.268	1	1
670.454	1	3
671.640	1	-4
672.826	1	-4
674.011	1	-1
675.197	1	-7
676.383	1	6
677.569	1	-3
678.754	1	0
679.940	1	6
681.125	1	2
682.311	1	1
683.496	1	5
684.682	1	-13
685.867	1	-4
687.053	1	10
688.238	1	4
688.746	1	7