File: Data/GaN_200K_800ms/GaN_sample F_spot 12_UVVIS_200 K_200um_800 ms 2x2mm1_520.txt
340.368	1	10
341.565	1	-5
342.763	1	8
343.960	1	0
345.157	1	-5
346.354	1	-4
347.552	1	-6
348.749	1	-2
349.946	1	-7
351.143	1	2
352.340	1	4
353.537	1	-8
354.734	1	3
355.931	1	1
357.127	1	0
358.324	1	-6
359.521	1	6
360.718	1	-2
361.914	1	3
363.111	1	-2
364.308	1	-8
365.504	1	10
366.701	1	2
367.897	1	8
369.093	1	0
370.290	1	11
371.486	1	2
372.682	1	7
373.879	1	1
375.075	1	5
376.271	1	12
377.467	1	4
378.663	1	-9
379.859	1	4
381.055	1	14
382.251	1	-7
383.447	1	3
384.643	1	7
385.839	1	2
387.035	1	1
388.230	1	14
389.426	1	-5
390.622	1	3
391.817	1	-1
393.013	1	2
394.208	1	-16
395.404	1	-6
396.599	1	-3
397.795	1	2
398.990	1	0
400.186	1	-5
401.381	1	-6
402.576	1	-2
403.771	1	-2
404.967	1	-5
406.162	1	1
407.357	1	-6
408.552	1	-3
409.747	1	-3
410.942	1	7
412.137	1	3
413.332	1	5
414.526	1	-1
415.721	1	-16
416.916	1	0
418.111	1	-3
419.305	1	7
420.500	1	-11
421.695	1	-1
422.889	1	-7
424.084	1	0
425.278	1	6
426.472	1	-3
427.667	1	3
428.861	1	-1
430.055	1	8
431.250	1	-3
432.444	1	-2
433.638	1	-6
434.832	1	-3
436.026	1	7
437.220	1	1
438.414	1	-6
439.608	1	-10
440.802	1	4
441.996	1	0
443.190	1	-1
444.384	1	-7
445.578	1	-15
446.771	1	19
447.965	1	-1
449.159	1	-7
450.352	1	-10
451.546	1	-7
452.739	1	0
453.933	1	-8
455.126	1	-9
456.320	1	-3
457.513	1	3
458.706	1	1
459.899	1	0
461.093	1	-6
462.286	1	1
463.479	1	-3
464.672	1	0
465.865	1	-5
467.058	1	2
468.251	1	1
469.444	1	-8
470.637	1	-2
471.830	1	-5
473.023	1	4
474.215	1	9
475.408	1	0
476.601	1	-8
477.793	1	-6
478.986	1	-3
480.179	1	3
481.371	1	2
482.564	1	-5
483.756	1	2
484.948	1	-7
486.141	1	-6
487.333	1	-6
488.525	1	-1
489.718	1	-5
490.910	1	8
492.102	1	-13
493.294	1	-3
494.486	1	-2
495.678	1	2
496.870	1	2
498.062	1	1
499.254	1	-1
500.446	1	-15
501.638	1	-1
502.829	1	-5
504.021	1	-3
505.213	1	-1
506.404	1	1
507.596	1	5
508.788	1	15
509.979	1	0
511.171	1	-10
512.362	1	4
513.553	1	-17
514.745	1	-4
515.936	1	-6
517.127	1	0
518.319	1	-5
519.510	1	3
520.701	1	-3
521.892	1	2
523.083	1	-7
524.274	1	4
525.465	1	11
526.656	1	4
527.847	1	3
529.038	1	4
530.229	1	3
531.419	1	0
532.610	1	-1
533.801	1	4
534.991	1	-7
536.182	1	-3
537.373	1	-6
538.563	1	0
539.754	1	9
540.944	1	-2
542.134	1	10
543.325	1	-2
544.515	1	-9
545.705	1	-3
546.896	1	-8
548.086	1	-1
549.276	1	-4
550.466	1	0
551.656	1	0
552.846	1	-5
554.036	1	0
555.226	1	-4
556.416	1	-9
557.606	1	4
558.796	1	4
559.986	1	-6
561.175	1	4
562.365	1	7
563.555	1	-7
564.744	1	5
565.934	1	4
567.123	1	2
568.313	1	3
569.502	1	-9
570.692	1	2
571.881	1	9
573.070	1	0
574.260	1	6
575.449	1	-1
576.638	1	-6
577.827	1	-8
579.016	1	5
580.205	1	-1
581.394	1	-8
582.583	1	7
583.772	1	10
584.961	1	3
586.150	1	-1
587.339	1	-4
588.528	1	9
589.717	1	-1
590.905	1	-3
592.094	1	-8
593.283	1	-8
594.471	1	10
595.660	1	0
596.848	1	2
598.037	1	-3
599.225	1	-13
600.413	1	7
601.602	1	7
602.790	1	-7
603.978	1	9
605.166	1	4
606.355	1	-4
607.543	1	-3
608.731	1	4
609.919	1	9
611.107	1	-10
612.295	1	-5
613.483	1	0
614.671	1	0
615.858	1	0
617.046	1	-2
618.234	1	-3
619.422	1	-8
620.609	1	3
621.797	1	-6
622.985	1	1
624.172	1	-6
625.360	1	4
626.547	1	2
627.735	1	1
628.922	1	7
630.109	1	-15
631.297	1	8
632.484	1	-1
633.671	1	0
634.858	1	4
636.045	1	4
637.232	1	-2
638.419	1	-8
639.606	1	6
640.793	1	9
641.980	1	4
643.167	1	-6
644.354	1	7
645.541	1	-9
646.728	1	-6
647.914	1	-1
649.101	1	-4
650.288	1	6
651.474	1	-4
652.661	1	4
653.847	1	7
655.034	1	1
656.220	1	-7
657.406	1	0
658.593	1	2
659.779	1	1
660.965	1	6
662.152	1	2
663.338	1	-4
664.524	1	9
665.710	1	1
666.896	1	-2
668.082	1	2
669.268	1	-2
670.454	1	-1
671.640	1	0
672.826	1	-7
674.011	1	-6
675.197	1	-8
676.383	1	1
677.569	1	-5
678.754	1	-6
679.940	1	-4
681.125	1	2
682.311	1	8
683.496	1	1
684.682	1	-9
685.867	1	-4
687.053	1	3
688.238	1	1
688.746	1	-11