File: Data/GaN_200K_800ms/GaN_sample F_spot 12_UVVIS_200 K_200um_800 ms 2x2mm1_132.txt
340.368	1	-1
341.565	1	-8
342.763	1	18
343.960	1	-3
345.157	1	1
346.354	1	3
347.552	1	-8
348.749	1	-5
349.946	1	-3
351.143	1	9
352.340	1	13
353.537	1	2
354.734	1	11
355.931	1	9
357.127	1	4
358.324	1	-1
359.521	1	14
360.718	1	12
361.914	1	17
363.111	1	25
364.308	1	19
365.504	1	42
366.701	1	49
367.897	1	60
369.093	1	53
370.290	1	54
371.486	1	65
372.682	1	54
373.879	1	41
375.075	1	40
376.271	1	40
377.467	1	23
378.663	1	27
379.859	1	21
381.055	1	31
382.251	1	7
383.447	1	12
384.643	1	30
385.839	1	10
387.035	1	8
388.230	1	19
389.426	1	1
390.622	1	3
391.817	1	5
393.013	1	8
394.208	1	16
395.404	1	4
396.599	1	-5
397.795	1	12
398.990	1	11
400.186	1	5
401.381	1	-6
402.576	1	8
403.771	1	5
404.967	1	7
406.162	1	4
407.357	1	-1
408.552	1	-5
409.747	1	4
410.942	1	8
412.137	1	9
413.332	1	4
414.526	1	4
415.721	1	-4
416.916	1	-8
418.111	1	7
419.305	1	5
420.500	1	1
421.695	1	3
422.889	1	-3
424.084	1	-3
425.278	1	16
426.472	1	8
427.667	1	1
428.861	1	-7
430.055	1	5
431.250	1	5
432.444	1	9
433.638	1	-4
434.832	1	10
436.026	1	1
437.220	1	5
438.414	1	-5
439.608	1	-10
440.802	1	5
441.996	1	2
443.190	1	7
444.384	1	-10
445.578	1	-7
446.771	1	17
447.965	1	7
449.159	1	-6
450.352	1	3
451.546	1	1
452.739	1	8
453.933	1	-5
455.126	1	-4
456.320	1	5
457.513	1	4
458.706	1	8
459.899	1	-1
461.093	1	3
462.286	1	6
463.479	1	3
464.672	1	-2
465.865	1	0
467.058	1	6
468.251	1	2
469.444	1	-1
470.637	1	3
471.830	1	-7
473.023	1	10
474.215	1	10
475.408	1	-2
476.601	1	5
477.793	1	-1
478.986	1	0
480.179	1	3
481.371	1	7
482.564	1	9
483.756	1	7
484.948	1	-7
486.141	1	-2
487.333	1	8
488.525	1	7
489.718	1	2
490.910	1	2
492.102	1	6
493.294	1	2
494.486	1	7
495.678	1	5
496.870	1	14
498.062	1	10
499.254	1	4
500.446	1	-1
501.638	1	-10
502.829	1	0
504.021	1	2
505.213	1	10
506.404	1	3
507.596	1	3
508.788	1	11
509.979	1	-4
511.171	1	-5
512.362	1	-4
513.553	1	-11
514.745	1	-7
515.936	1	8
517.127	1	1
518.319	1	11
519.510	1	-1
520.701	1	4
521.892	1	13
523.083	1	7
524.274	1	3
525.465	1	14
526.656	1	-6
527.847	1	3
529.038	1	-2
530.229	1	6
531.419	1	13
532.610	1	4
533.801	1	13
534.991	1	5
536.182	1	4
537.373	1	15
538.563	1	12
539.754	1	11
540.944	1	1
542.134	1	11
543.325	1	-5
544.515	1	7
545.705	1	10
546.896	1	5
548.086	1	8
549.276	1	4
550.466	1	8
551.656	1	9
552.846	1	2
554.036	1	7
555.226	1	-12
556.416	1	0
557.606	1	16
558.796	1	11
559.986	1	8
561.175	1	5
562.365	1	11
563.555	1	-4
564.744	1	15
565.934	1	11
567.123	1	4
568.313	1	10
569.502	1	8
570.692	1	10
571.881	1	24
573.070	1	6
574.260	1	9
575.449	1	0
576.638	1	7
577.827	1	-8
579.016	1	24
580.205	1	9
581.394	1	4
582.583	1	15
583.772	1	10
584.961	1	10
586.150	1	5
587.339	1	4
588.528	1	4
589.717	1	10
590.905	1	-1
592.094	1	10
593.283	1	1
594.471	1	12
595.660	1	8
596.848	1	7
598.037	1	6
599.225	1	-1
600.413	1	16
601.602	1	4
602.790	1	8
603.978	1	4
605.166	1	14
606.355	1	12
607.543	1	-7
608.731	1	6
609.919	1	20
611.107	1	5
612.295	1	-2
613.483	1	11
614.671	1	12
615.858	1	-3
617.046	1	8
618.234	1	3
619.422	1	-2
620.609	1	12
621.797	1	5
622.985	1	8
624.172	1	-3
625.360	1	8
626.547	1	-2
627.735	1	10
628.922	1	11
630.109	1	-8
631.297	1	-6
632.484	1	-9
633.671	1	0
634.858	1	-4
636.045	1	17
637.232	1	0
638.419	1	4
639.606	1	11
640.793	1	7
641.980	1	4
643.167	1	2
644.354	1	2
645.541	1	2
646.728	1	3
647.914	1	1
649.101	1	5
650.288	1	6
651.474	1	3
652.661	1	6
653.847	1	8
655.034	1	4
656.220	1	-8
657.406	1	5
658.593	1	4
659.779	1	-2
660.965	1	9
662.152	1	3
663.338	1	4
664.524	1	1
665.710	1	11
666.896	1	3
668.082	1	-4
669.268	1	1
670.454	1	2
671.640	1	9
672.826	1	-11
674.011	1	3
675.197	1	-5
676.383	1	0
677.569	1	-1
678.754	1	-3
679.940	1	5
681.125	1	7
682.311	1	9
683.496	1	-3
684.682	1	-13
685.867	1	10
687.053	1	15
688.238	1	6
688.746	1	-1