File: Data/GaN_200K_800ms/GaN_sample F_spot 12_UVVIS_200 K_200um_800 ms 2x2mm1_320.txt
340.368	1	2
341.565	1	-4
342.763	1	4
343.960	1	-3
345.157	1	-7
346.354	1	3
347.552	1	1
348.749	1	-2
349.946	1	-11
351.143	1	-2
352.340	1	3
353.537	1	2
354.734	1	4
355.931	1	0
357.127	1	-1
358.324	1	-1
359.521	1	7
360.718	1	3
361.914	1	5
363.111	1	4
364.308	1	0
365.504	1	12
366.701	1	7
367.897	1	14
369.093	1	9
370.290	1	18
371.486	1	25
372.682	1	21
373.879	1	7
375.075	1	10
376.271	1	9
377.467	1	10
378.663	1	9
379.859	1	1
381.055	1	15
382.251	1	-1
383.447	1	2
384.643	1	12
385.839	1	-2
387.035	1	8
388.230	1	4
389.426	1	-7
390.622	1	-7
391.817	1	3
393.013	1	-5
394.208	1	-2
395.404	1	-5
396.599	1	-5
397.795	1	-6
398.990	1	1
400.186	1	8
401.381	1	-3
402.576	1	-5
403.771	1	-6
404.967	1	6
406.162	1	4
407.357	1	-6
408.552	1	-4
409.747	1	-6
410.942	1	0
412.137	1	11
413.332	1	0
414.526	1	-3
415.721	1	3
416.916	1	-6
418.111	1	-2
419.305	1	2
420.500	1	1
421.695	1	-3
422.889	1	-12
424.084	1	-6
425.278	1	4
426.472	1	-4
427.667	1	3
428.861	1	-4
430.055	1	1
431.250	1	4
432.444	1	6
433.638	1	0
434.832	1	3
436.026	1	2
437.220	1	6
438.414	1	-13
439.608	1	-12
440.802	1	-10
441.996	1	3
443.190	1	-2
444.384	1	-8
445.578	1	-7
446.771	1	12
447.965	1	-5
449.159	1	-3
450.352	1	-7
451.546	1	2
452.739	1	3
453.933	1	0
455.126	1	-14
456.320	1	-4
457.513	1	5
458.706	1	-3
459.899	1	-9
461.093	1	0
462.286	1	-3
463.479	1	-6
464.672	1	-10
465.865	1	-5
467.058	1	5
468.251	1	-1
469.444	1	-1
470.637	1	4
471.830	1	-3
473.023	1	-1
474.215	1	10
475.408	1	-5
476.601	1	6
477.793	1	-5
478.986	1	-5
480.179	1	-8
481.371	1	3
482.564	1	1
483.756	1	12
484.948	1	-8
486.141	1	-7
487.333	1	-6
488.525	1	7
489.718	1	-2
490.910	1	-6
492.102	1	-8
493.294	1	0
494.486	1	8
495.678	1	-4
496.870	1	2
498.062	1	-6
499.254	1	1
500.446	1	-8
501.638	1	-6
502.829	1	0
504.021	1	-1
505.213	1	10
506.404	1	3
507.596	1	2
508.788	1	21
509.979	1	-1
511.171	1	4
512.362	1	-4
513.553	1	-7
514.745	1	1
515.936	1	-6
517.127	1	1
518.319	1	-2
519.510	1	-4
520.701	1	3
521.892	1	3
523.083	1	-1
524.274	1	-6
525.465	1	6
526.656	1	-7
527.847	1	7
529.038	1	-2
530.229	1	3
531.419	1	4
532.610	1	5
533.801	1	16
534.991	1	5
536.182	1	3
537.373	1	4
538.563	1	3
539.754	1	13
540.944	1	-3
542.134	1	13
543.325	1	-2
544.515	1	-4
545.705	1	-2
546.896	1	1
548.086	1	-1
549.276	1	7
550.466	1	-1
551.656	1	1
552.846	1	0
554.036	1	1
555.226	1	-6
556.416	1	-3
557.606	1	1
558.796	1	2
559.986	1	-14
561.175	1	13
562.365	1	-1
563.555	1	-3
564.744	1	2
565.934	1	-1
567.123	1	-3
568.313	1	5
569.502	1	1
570.692	1	7
571.881	1	19
573.070	1	3
574.260	1	4
575.449	1	-10
576.638	1	-6
577.827	1	-3
579.016	1	13
580.205	1	5
581.394	1	-1
582.583	1	10
583.772	1	4
584.961	1	2
586.150	1	0
587.339	1	-1
588.528	1	3
589.717	1	2
590.905	1	4
592.094	1	-1
593.283	1	6
594.471	1	6
595.660	1	4
596.848	1	-1
598.037	1	-2
599.225	1	-15
600.413	1	10
601.602	1	7
602.790	1	4
603.978	1	-1
605.166	1	-2
606.355	1	-6
607.543	1	4
608.731	1	-1
609.919	1	6
611.107	1	5
612.295	1	-2
613.483	1	2
614.671	1	6
615.858	1	-4
617.046	1	-5
618.234	1	5
619.422	1	-5
620.609	1	8
621.797	1	-2
622.985	1	-1
624.172	1	6
625.360	1	3
626.547	1	-2
627.735	1	7
628.922	1	3
630.109	1	-4
631.297	1	0
632.484	1	-6
633.671	1	2
634.858	1	7
636.045	1	20
637.232	1	9
638.419	1	-12
639.606	1	9
640.793	1	6
641.980	1	-4
643.167	1	-8
644.354	1	2
645.541	1	2
646.728	1	-4
647.914	1	0
649.101	1	7
650.288	1	4
651.474	1	0
652.661	1	-4
653.847	1	8
655.034	1	4
656.220	1	-11
657.406	1	2
658.593	1	4
659.779	1	7
660.965	1	7
662.152	1	-1
663.338	1	14
664.524	1	2
665.710	1	3
666.896	1	-4
668.082	1	6
669.268	1	-1
670.454	1	-3
671.640	1	-2
672.826	1	2
674.011	1	-3
675.197	1	-10
676.383	1	1
677.569	1	-9
678.754	1	0
679.940	1	3
681.125	1	9
682.311	1	6
683.496	1	8
684.682	1	-12
685.867	1	-5
687.053	1	2
688.238	1	-2
688.746	1	3