File: Data/GaN_200K_800ms/GaN_sample F_spot 12_UVVIS_200 K_200um_800 ms 2x2mm1_318.txt
340.368	1	6
341.565	1	-1
342.763	1	14
343.960	1	4
345.157	1	-11
346.354	1	-7
347.552	1	0
348.749	1	-4
349.946	1	-7
351.143	1	-6
352.340	1	5
353.537	1	1
354.734	1	6
355.931	1	6
357.127	1	-3
358.324	1	-6
359.521	1	5
360.718	1	-2
361.914	1	4
363.111	1	0
364.308	1	6
365.504	1	10
366.701	1	-2
367.897	1	19
369.093	1	13
370.290	1	16
371.486	1	20
372.682	1	13
373.879	1	8
375.075	1	8
376.271	1	20
377.467	1	10
378.663	1	6
379.859	1	1
381.055	1	12
382.251	1	4
383.447	1	7
384.643	1	7
385.839	1	-2
387.035	1	6
388.230	1	11
389.426	1	5
390.622	1	-2
391.817	1	5
393.013	1	1
394.208	1	-2
395.404	1	-1
396.599	1	-3
397.795	1	5
398.990	1	5
400.186	1	5
401.381	1	-4
402.576	1	-3
403.771	1	-8
404.967	1	0
406.162	1	2
407.357	1	-4
408.552	1	-3
409.747	1	-14
410.942	1	12
412.137	1	6
413.332	1	1
414.526	1	-9
415.721	1	-1
416.916	1	-3
418.111	1	-3
419.305	1	3
420.500	1	-4
421.695	1	-12
422.889	1	-4
424.084	1	3
425.278	1	12
426.472	1	3
427.667	1	11
428.861	1	-2
430.055	1	5
431.250	1	-4
432.444	1	6
433.638	1	-5
434.832	1	0
436.026	1	6
437.220	1	5
438.414	1	-4
439.608	1	-9
440.802	1	2
441.996	1	6
443.190	1	7
444.384	1	-12
445.578	1	-10
446.771	1	9
447.965	1	-3
449.159	1	-7
450.352	1	-6
451.546	1	-5
452.739	1	8
453.933	1	-9
455.126	1	0
456.320	1	-2
457.513	1	1
458.706	1	2
459.899	1	-1
461.093	1	1
462.286	1	2
463.479	1	-1
464.672	1	1
465.865	1	-5
467.058	1	-2
468.251	1	-6
469.444	1	-2
470.637	1	4
471.830	1	-8
473.023	1	1
474.215	1	9
475.408	1	0
476.601	1	1
477.793	1	-6
478.986	1	-2
480.179	1	0
481.371	1	2
482.564	1	-1
483.756	1	1
484.948	1	-5
486.141	1	3
487.333	1	8
488.525	1	1
489.718	1	7
490.910	1	2
492.102	1	-11
493.294	1	-5
494.486	1	-4
495.678	1	-7
496.870	1	4
498.062	1	2
499.254	1	2
500.446	1	-13
501.638	1	-3
502.829	1	3
504.021	1	-4
505.213	1	5
506.404	1	4
507.596	1	2
508.788	1	19
509.979	1	-2
511.171	1	-9
512.362	1	-1
513.553	1	-11
514.745	1	-2
515.936	1	1
517.127	1	-3
518.319	1	2
519.510	1	10
520.701	1	3
521.892	1	0
523.083	1	2
524.274	1	-2
525.465	1	1
526.656	1	-5
527.847	1	7
529.038	1	2
530.229	1	1
531.419	1	-1
532.610	1	-8
533.801	1	7
534.991	1	-2
536.182	1	-7
537.373	1	2
538.563	1	10
539.754	1	7
540.944	1	0
542.134	1	2
543.325	1	7
544.515	1	2
545.705	1	0
546.896	1	3
548.086	1	2
549.276	1	-8
550.466	1	-1
551.656	1	0
552.846	1	-5
554.036	1	2
555.226	1	-8
556.416	1	7
557.606	1	7
558.796	1	3
559.986	1	-2
561.175	1	3
562.365	1	7
563.555	1	-3
564.744	1	6
565.934	1	13
567.123	1	-5
568.313	1	3
569.502	1	-1
570.692	1	1
571.881	1	14
573.070	1	4
574.260	1	6
575.449	1	4
576.638	1	-3
577.827	1	-6
579.016	1	4
580.205	1	3
581.394	1	8
582.583	1	8
583.772	1	11
584.961	1	1
586.150	1	2
587.339	1	5
588.528	1	0
589.717	1	1
590.905	1	2
592.094	1	2
593.283	1	-2
594.471	1	9
595.660	1	-5
596.848	1	3
598.037	1	1
599.225	1	-9
600.413	1	3
601.602	1	14
602.790	1	5
603.978	1	-4
605.166	1	9
606.355	1	5
607.543	1	-8
608.731	1	-4
609.919	1	8
611.107	1	0
612.295	1	-7
613.483	1	3
614.671	1	14
615.858	1	3
617.046	1	1
618.234	1	-7
619.422	1	-4
620.609	1	3
621.797	1	-2
622.985	1	-4
624.172	1	-5
625.360	1	0
626.547	1	1
627.735	1	7
628.922	1	2
630.109	1	-3
631.297	1	0
632.484	1	-7
633.671	1	-8
634.858	1	-1
636.045	1	2
637.232	1	-13
638.419	1	-9
639.606	1	6
640.793	1	6
641.980	1	9
643.167	1	-11
644.354	1	3
645.541	1	3
646.728	1	1
647.914	1	-3
649.101	1	-4
650.288	1	1
651.474	1	-6
652.661	1	3
653.847	1	0
655.034	1	-5
656.220	1	-4
657.406	1	2
658.593	1	-3
659.779	1	2
660.965	1	6
662.152	1	-4
663.338	1	8
664.524	1	0
665.710	1	2
666.896	1	-6
668.082	1	4
669.268	1	4
670.454	1	7
671.640	1	2
672.826	1	-5
674.011	1	-3
675.197	1	-6
676.383	1	-1
677.569	1	0
678.754	1	2
679.940	1	-4
681.125	1	8
682.311	1	2
683.496	1	0
684.682	1	-11
685.867	1	-1
687.053	1	5
688.238	1	2
688.746	1	1