File: Data/GaN_200K_800ms/GaN_sample F_spot 12_UVVIS_200 K_200um_800 ms 2x2mm1_317.txt
340.368	1	8
341.565	1	-11
342.763	1	1
343.960	1	4
345.157	1	-2
346.354	1	0
347.552	1	-3
348.749	1	-11
349.946	1	1
351.143	1	-3
352.340	1	10
353.537	1	-9
354.734	1	3
355.931	1	3
357.127	1	0
358.324	1	5
359.521	1	5
360.718	1	5
361.914	1	3
363.111	1	3
364.308	1	3
365.504	1	8
366.701	1	13
367.897	1	22
369.093	1	7
370.290	1	20
371.486	1	16
372.682	1	12
373.879	1	9
375.075	1	6
376.271	1	13
377.467	1	13
378.663	1	2
379.859	1	2
381.055	1	13
382.251	1	-1
383.447	1	-1
384.643	1	7
385.839	1	-1
387.035	1	6
388.230	1	5
389.426	1	1
390.622	1	-2
391.817	1	3
393.013	1	-1
394.208	1	0
395.404	1	-1
396.599	1	-6
397.795	1	-2
398.990	1	-2
400.186	1	5
401.381	1	-3
402.576	1	-2
403.771	1	3
404.967	1	-4
406.162	1	3
407.357	1	1
408.552	1	-9
409.747	1	-1
410.942	1	6
412.137	1	8
413.332	1	3
414.526	1	-9
415.721	1	13
416.916	1	-13
418.111	1	-1
419.305	1	-2
420.500	1	-10
421.695	1	-4
422.889	1	-4
424.084	1	0
425.278	1	6
426.472	1	-7
427.667	1	17
428.861	1	-9
430.055	1	-3
431.250	1	-5
432.444	1	11
433.638	1	1
434.832	1	5
436.026	1	4
437.220	1	12
438.414	1	-5
439.608	1	-15
440.802	1	-5
441.996	1	4
443.190	1	7
444.384	1	-10
445.578	1	-8
446.771	1	14
447.965	1	-2
449.159	1	-2
450.352	1	-4
451.546	1	-7
452.739	1	5
453.933	1	-5
455.126	1	-15
456.320	1	-1
457.513	1	7
458.706	1	5
459.899	1	7
461.093	1	2
462.286	1	-1
463.479	1	7
464.672	1	-3
465.865	1	2
467.058	1	2
468.251	1	-2
469.444	1	-9
470.637	1	-1
471.830	1	4
473.023	1	3
474.215	1	8
475.408	1	0
476.601	1	6
477.793	1	-5
478.986	1	-3
480.179	1	4
481.371	1	5
482.564	1	6
483.756	1	10
484.948	1	-1
486.141	1	-7
487.333	1	-3
488.525	1	-4
489.718	1	4
490.910	1	1
492.102	1	-1
493.294	1	-7
494.486	1	-2
495.678	1	9
496.870	1	3
498.062	1	-5
499.254	1	8
500.446	1	-13
501.638	1	-7
502.829	1	-4
504.021	1	-6
505.213	1	3
506.404	1	-8
507.596	1	-2
508.788	1	18
509.979	1	-3
511.171	1	-11
512.362	1	-8
513.553	1	-6
514.745	1	-1
515.936	1	4
517.127	1	-3
518.319	1	1
519.510	1	-4
520.701	1	0
521.892	1	-3
523.083	1	-2
524.274	1	1
525.465	1	14
526.656	1	-3
527.847	1	1
529.038	1	-9
530.229	1	-4
531.419	1	-1
532.610	1	-1
533.801	1	7
534.991	1	3
536.182	1	-6
537.373	1	8
538.563	1	8
539.754	1	0
540.944	1	5
542.134	1	8
543.325	1	-2
544.515	1	1
545.705	1	9
546.896	1	5
548.086	1	-1
549.276	1	-8
550.466	1	7
551.656	1	4
552.846	1	-5
554.036	1	-4
555.226	1	-6
556.416	1	4
557.606	1	0
558.796	1	0
559.986	1	-3
561.175	1	10
562.365	1	-4
563.555	1	-4
564.744	1	-9
565.934	1	10
567.123	1	9
568.313	1	4
569.502	1	3
570.692	1	0
571.881	1	16
573.070	1	-2
574.260	1	11
575.449	1	0
576.638	1	1
577.827	1	-3
579.016	1	15
580.205	1	0
581.394	1	2
582.583	1	14
583.772	1	7
584.961	1	5
586.150	1	-6
587.339	1	7
588.528	1	-3
589.717	1	12
590.905	1	-1
592.094	1	5
593.283	1	7
594.471	1	11
595.660	1	4
596.848	1	6
598.037	1	1
599.225	1	-2
600.413	1	6
601.602	1	14
602.790	1	-5
603.978	1	-2
605.166	1	6
606.355	1	10
607.543	1	-6
608.731	1	3
609.919	1	11
611.107	1	4
612.295	1	3
613.483	1	0
614.671	1	-5
615.858	1	3
617.046	1	5
618.234	1	0
619.422	1	-1
620.609	1	8
621.797	1	2
622.985	1	6
624.172	1	-13
625.360	1	4
626.547	1	6
627.735	1	2
628.922	1	8
630.109	1	-1
631.297	1	-3
632.484	1	-8
633.671	1	-8
634.858	1	5
636.045	1	16
637.232	1	-3
638.419	1	-9
639.606	1	5
640.793	1	11
641.980	1	4
643.167	1	-6
644.354	1	-2
645.541	1	7
646.728	1	3
647.914	1	0
649.101	1	-8
650.288	1	5
651.474	1	-9
652.661	1	-10
653.847	1	-3
655.034	1	7
656.220	1	-3
657.406	1	2
658.593	1	-5
659.779	1	1
660.965	1	9
662.152	1	4
663.338	1	9
664.524	1	-4
665.710	1	3
666.896	1	-7
668.082	1	3
669.268	1	-8
670.454	1	3
671.640	1	6
672.826	1	-8
674.011	1	-4
675.197	1	-6
676.383	1	1
677.569	1	-5
678.754	1	2
679.940	1	-6
681.125	1	5
682.311	1	1
683.496	1	-1
684.682	1	-3
685.867	1	-1
687.053	1	6
688.238	1	6
688.746	1	-10