File: Data/GaN_200K_800ms/GaN_sample F_spot 12_UVVIS_200 K_200um_800 ms 2x2mm1_59.txt
340.368	1	5
341.565	1	-5
342.763	1	14
343.960	1	5
345.157	1	2
346.354	1	6
347.552	1	-11
348.749	1	5
349.946	1	8
351.143	1	3
352.340	1	14
353.537	1	8
354.734	1	14
355.931	1	12
357.127	1	26
358.324	1	27
359.521	1	45
360.718	1	50
361.914	1	60
363.111	1	75
364.308	1	110
365.504	1	177
366.701	1	220
367.897	1	257
369.093	1	297
370.290	1	307
371.486	1	269
372.682	1	229
373.879	1	187
375.075	1	164
376.271	1	137
377.467	1	114
378.663	1	89
379.859	1	82
381.055	1	71
382.251	1	59
383.447	1	45
384.643	1	56
385.839	1	50
387.035	1	43
388.230	1	41
389.426	1	31
390.622	1	27
391.817	1	23
393.013	1	21
394.208	1	19
395.404	1	4
396.599	1	6
397.795	1	15
398.990	1	11
400.186	1	14
401.381	1	4
402.576	1	-2
403.771	1	7
404.967	1	10
406.162	1	13
407.357	1	-1
408.552	1	6
409.747	1	2
410.942	1	15
412.137	1	17
413.332	1	0
414.526	1	-1
415.721	1	6
416.916	1	7
418.111	1	4
419.305	1	5
420.500	1	-1
421.695	1	9
422.889	1	-2
424.084	1	10
425.278	1	17
426.472	1	6
427.667	1	13
428.861	1	-6
430.055	1	2
431.250	1	-2
432.444	1	11
433.638	1	9
434.832	1	4
436.026	1	8
437.220	1	1
438.414	1	-4
439.608	1	0
440.802	1	-1
441.996	1	11
443.190	1	8
444.384	1	-8
445.578	1	-5
446.771	1	10
447.965	1	5
449.159	1	3
450.352	1	2
451.546	1	-2
452.739	1	8
453.933	1	0
455.126	1	-4
456.320	1	3
457.513	1	3
458.706	1	-1
459.899	1	3
461.093	1	1
462.286	1	4
463.479	1	4
464.672	1	-1
465.865	1	-3
467.058	1	0
468.251	1	9
469.444	1	1
470.637	1	8
471.830	1	-1
473.023	1	1
474.215	1	9
475.408	1	6
476.601	1	0
477.793	1	6
478.986	1	-6
480.179	1	3
481.371	1	7
482.564	1	0
483.756	1	3
484.948	1	0
486.141	1	3
487.333	1	-3
488.525	1	4
489.718	1	11
490.910	1	7
492.102	1	-3
493.294	1	3
494.486	1	10
495.678	1	12
496.870	1	12
498.062	1	14
499.254	1	11
500.446	1	5
501.638	1	18
502.829	1	13
504.021	1	13
505.213	1	19
506.404	1	15
507.596	1	11
508.788	1	24
509.979	1	12
511.171	1	13
512.362	1	16
513.553	1	9
514.745	1	6
515.936	1	10
517.127	1	11
518.319	1	11
519.510	1	18
520.701	1	15
521.892	1	16
523.083	1	11
524.274	1	17
525.465	1	22
526.656	1	12
527.847	1	22
529.038	1	20
530.229	1	25
531.419	1	37
532.610	1	23
533.801	1	33
534.991	1	35
536.182	1	18
537.373	1	26
538.563	1	29
539.754	1	33
540.944	1	22
542.134	1	27
543.325	1	27
544.515	1	29
545.705	1	40
546.896	1	20
548.086	1	35
549.276	1	30
550.466	1	38
551.656	1	44
552.846	1	30
554.036	1	30
555.226	1	16
556.416	1	31
557.606	1	29
558.796	1	29
559.986	1	27
561.175	1	31
562.365	1	31
563.555	1	28
564.744	1	34
565.934	1	38
567.123	1	25
568.313	1	33
569.502	1	26
570.692	1	31
571.881	1	45
573.070	1	36
574.260	1	28
575.449	1	25
576.638	1	8
577.827	1	19
579.016	1	37
580.205	1	19
581.394	1	26
582.583	1	35
583.772	1	28
584.961	1	37
586.150	1	25
587.339	1	26
588.528	1	28
589.717	1	15
590.905	1	30
592.094	1	29
593.283	1	33
594.471	1	25
595.660	1	15
596.848	1	7
598.037	1	0
599.225	1	10
600.413	1	25
601.602	1	24
602.790	1	22
603.978	1	13
605.166	1	20
606.355	1	29
607.543	1	16
608.731	1	21
609.919	1	25
611.107	1	18
612.295	1	14
613.483	1	17
614.671	1	20
615.858	1	18
617.046	1	16
618.234	1	17
619.422	1	1
620.609	1	17
621.797	1	16
622.985	1	16
624.172	1	15
625.360	1	15
626.547	1	18
627.735	1	18
628.922	1	13
630.109	1	7
631.297	1	17
632.484	1	9
633.671	1	5
634.858	1	18
636.045	1	24
637.232	1	12
638.419	1	10
639.606	1	20
640.793	1	22
641.980	1	13
643.167	1	7
644.354	1	16
645.541	1	13
646.728	1	10
647.914	1	7
649.101	1	9
650.288	1	12
651.474	1	9
652.661	1	14
653.847	1	5
655.034	1	6
656.220	1	4
657.406	1	13
658.593	1	8
659.779	1	16
660.965	1	13
662.152	1	5
663.338	1	19
664.524	1	2
665.710	1	3
666.896	1	5
668.082	1	5
669.268	1	14
670.454	1	9
671.640	1	11
672.826	1	5
674.011	1	5
675.197	1	3
676.383	1	11
677.569	1	9
678.754	1	2
679.940	1	0
681.125	1	17
682.311	1	9
683.496	1	15
684.682	1	6
685.867	1	16
687.053	1	12
688.238	1	13
688.746	1	7