File: Data/GaN_200K_800ms/GaN_sample F_spot 12_UVVIS_200 K_200um_800 ms 2x2mm1_174.txt
340.368	1	5
341.565	1	-8
342.763	1	4
343.960	1	5
345.157	1	0
346.354	1	6
347.552	1	-9
348.749	1	-5
349.946	1	-2
351.143	1	-1
352.340	1	2
353.537	1	6
354.734	1	6
355.931	1	5
357.127	1	-2
358.324	1	4
359.521	1	18
360.718	1	12
361.914	1	18
363.111	1	10
364.308	1	13
365.504	1	29
366.701	1	31
367.897	1	43
369.093	1	35
370.290	1	39
371.486	1	45
372.682	1	37
373.879	1	26
375.075	1	29
376.271	1	25
377.467	1	21
378.663	1	9
379.859	1	9
381.055	1	20
382.251	1	6
383.447	1	5
384.643	1	18
385.839	1	8
387.035	1	1
388.230	1	11
389.426	1	14
390.622	1	1
391.817	1	2
393.013	1	0
394.208	1	8
395.404	1	-2
396.599	1	8
397.795	1	4
398.990	1	11
400.186	1	1
401.381	1	8
402.576	1	-3
403.771	1	1
404.967	1	-2
406.162	1	10
407.357	1	3
408.552	1	-3
409.747	1	-3
410.942	1	5
412.137	1	3
413.332	1	-3
414.526	1	2
415.721	1	1
416.916	1	0
418.111	1	-4
419.305	1	2
420.500	1	7
421.695	1	-8
422.889	1	-8
424.084	1	2
425.278	1	13
426.472	1	-1
427.667	1	6
428.861	1	3
430.055	1	-9
431.250	1	-6
432.444	1	10
433.638	1	-7
434.832	1	11
436.026	1	3
437.220	1	6
438.414	1	-1
439.608	1	-7
440.802	1	-12
441.996	1	-1
443.190	1	-1
444.384	1	-7
445.578	1	-8
446.771	1	17
447.965	1	6
449.159	1	-12
450.352	1	2
451.546	1	0
452.739	1	10
453.933	1	1
455.126	1	-7
456.320	1	-3
457.513	1	2
458.706	1	-9
459.899	1	-2
461.093	1	4
462.286	1	4
463.479	1	5
464.672	1	8
465.865	1	-7
467.058	1	7
468.251	1	-5
469.444	1	-6
470.637	1	2
471.830	1	6
473.023	1	2
474.215	1	3
475.408	1	-1
476.601	1	-1
477.793	1	1
478.986	1	-5
480.179	1	11
481.371	1	8
482.564	1	3
483.756	1	4
484.948	1	-5
486.141	1	-1
487.333	1	8
488.525	1	2
489.718	1	-4
490.910	1	6
492.102	1	0
493.294	1	0
494.486	1	7
495.678	1	-5
496.870	1	2
498.062	1	1
499.254	1	1
500.446	1	0
501.638	1	-2
502.829	1	5
504.021	1	3
505.213	1	7
506.404	1	8
507.596	1	6
508.788	1	18
509.979	1	-2
511.171	1	-3
512.362	1	9
513.553	1	-11
514.745	1	-1
515.936	1	-5
517.127	1	2
518.319	1	1
519.510	1	3
520.701	1	6
521.892	1	3
523.083	1	-9
524.274	1	5
525.465	1	4
526.656	1	3
527.847	1	-2
529.038	1	4
530.229	1	10
531.419	1	5
532.610	1	5
533.801	1	21
534.991	1	10
536.182	1	9
537.373	1	10
538.563	1	8
539.754	1	15
540.944	1	-2
542.134	1	1
543.325	1	6
544.515	1	-6
545.705	1	7
546.896	1	-1
548.086	1	1
549.276	1	10
550.466	1	10
551.656	1	14
552.846	1	4
554.036	1	9
555.226	1	-1
556.416	1	1
557.606	1	16
558.796	1	-1
559.986	1	-4
561.175	1	7
562.365	1	6
563.555	1	-13
564.744	1	9
565.934	1	7
567.123	1	7
568.313	1	10
569.502	1	4
570.692	1	0
571.881	1	18
573.070	1	3
574.260	1	10
575.449	1	-1
576.638	1	-6
577.827	1	2
579.016	1	13
580.205	1	5
581.394	1	9
582.583	1	13
583.772	1	6
584.961	1	10
586.150	1	2
587.339	1	6
588.528	1	9
589.717	1	14
590.905	1	1
592.094	1	9
593.283	1	-2
594.471	1	5
595.660	1	1
596.848	1	5
598.037	1	3
599.225	1	1
600.413	1	13
601.602	1	20
602.790	1	6
603.978	1	5
605.166	1	5
606.355	1	8
607.543	1	11
608.731	1	7
609.919	1	18
611.107	1	1
612.295	1	-5
613.483	1	20
614.671	1	11
615.858	1	4
617.046	1	8
618.234	1	1
619.422	1	-6
620.609	1	2
621.797	1	2
622.985	1	4
624.172	1	-4
625.360	1	-1
626.547	1	4
627.735	1	8
628.922	1	6
630.109	1	-7
631.297	1	10
632.484	1	0
633.671	1	2
634.858	1	-3
636.045	1	13
637.232	1	-6
638.419	1	4
639.606	1	5
640.793	1	8
641.980	1	8
643.167	1	-9
644.354	1	-1
645.541	1	9
646.728	1	10
647.914	1	-8
649.101	1	-11
650.288	1	7
651.474	1	-6
652.661	1	3
653.847	1	7
655.034	1	-4
656.220	1	-4
657.406	1	3
658.593	1	11
659.779	1	6
660.965	1	13
662.152	1	13
663.338	1	11
664.524	1	4
665.710	1	-3
666.896	1	-12
668.082	1	3
669.268	1	7
670.454	1	4
671.640	1	-1
672.826	1	4
674.011	1	5
675.197	1	2
676.383	1	2
677.569	1	-13
678.754	1	2
679.940	1	2
681.125	1	3
682.311	1	15
683.496	1	8
684.682	1	-5
685.867	1	0
687.053	1	-1
688.238	1	4
688.746	1	1