File: Data/GaN_200K_800ms/GaN_sample F_spot 12_UVVIS_200 K_200um_800 ms 2x2mm1_336.txt
340.368	1	0
341.565	1	-10
342.763	1	6
343.960	1	-2
345.157	1	-6
346.354	1	6
347.552	1	1
348.749	1	-4
349.946	1	-5
351.143	1	-3
352.340	1	5
353.537	1	-9
354.734	1	14
355.931	1	-6
357.127	1	-4
358.324	1	-1
359.521	1	11
360.718	1	1
361.914	1	5
363.111	1	9
364.308	1	4
365.504	1	10
366.701	1	5
367.897	1	7
369.093	1	7
370.290	1	12
371.486	1	15
372.682	1	8
373.879	1	10
375.075	1	5
376.271	1	2
377.467	1	5
378.663	1	3
379.859	1	8
381.055	1	11
382.251	1	-3
383.447	1	-2
384.643	1	9
385.839	1	0
387.035	1	8
388.230	1	12
389.426	1	10
390.622	1	0
391.817	1	9
393.013	1	-4
394.208	1	-1
395.404	1	-1
396.599	1	-5
397.795	1	-3
398.990	1	-2
400.186	1	-11
401.381	1	-3
402.576	1	-3
403.771	1	11
404.967	1	3
406.162	1	6
407.357	1	-8
408.552	1	5
409.747	1	0
410.942	1	7
412.137	1	-2
413.332	1	-3
414.526	1	-7
415.721	1	-1
416.916	1	-6
418.111	1	-2
419.305	1	3
420.500	1	-2
421.695	1	-6
422.889	1	-6
424.084	1	-1
425.278	1	11
426.472	1	-8
427.667	1	-3
428.861	1	-3
430.055	1	3
431.250	1	-2
432.444	1	0
433.638	1	-1
434.832	1	3
436.026	1	8
437.220	1	10
438.414	1	-7
439.608	1	-9
440.802	1	-2
441.996	1	3
443.190	1	0
444.384	1	-5
445.578	1	-11
446.771	1	10
447.965	1	5
449.159	1	0
450.352	1	-2
451.546	1	-7
452.739	1	7
453.933	1	-7
455.126	1	-12
456.320	1	-1
457.513	1	1
458.706	1	2
459.899	1	0
461.093	1	-2
462.286	1	-6
463.479	1	2
464.672	1	5
465.865	1	1
467.058	1	4
468.251	1	-3
469.444	1	-13
470.637	1	4
471.830	1	-3
473.023	1	3
474.215	1	11
475.408	1	1
476.601	1	0
477.793	1	-6
478.986	1	2
480.179	1	5
481.371	1	-6
482.564	1	-4
483.756	1	10
484.948	1	3
486.141	1	-3
487.333	1	3
488.525	1	0
489.718	1	0
490.910	1	-7
492.102	1	-7
493.294	1	-4
494.486	1	-5
495.678	1	-1
496.870	1	5
498.062	1	-1
499.254	1	13
500.446	1	-9
501.638	1	-9
502.829	1	-6
504.021	1	-2
505.213	1	8
506.404	1	-2
507.596	1	1
508.788	1	13
509.979	1	-6
511.171	1	-1
512.362	1	-1
513.553	1	-6
514.745	1	5
515.936	1	-1
517.127	1	3
518.319	1	-7
519.510	1	-7
520.701	1	1
521.892	1	1
523.083	1	0
524.274	1	-2
525.465	1	6
526.656	1	-5
527.847	1	7
529.038	1	2
530.229	1	2
531.419	1	5
532.610	1	-3
533.801	1	9
534.991	1	-6
536.182	1	0
537.373	1	5
538.563	1	2
539.754	1	12
540.944	1	1
542.134	1	11
543.325	1	9
544.515	1	-5
545.705	1	4
546.896	1	-5
548.086	1	-5
549.276	1	-7
550.466	1	2
551.656	1	14
552.846	1	-2
554.036	1	-8
555.226	1	-6
556.416	1	-3
557.606	1	-3
558.796	1	3
559.986	1	-2
561.175	1	4
562.365	1	-6
563.555	1	-3
564.744	1	10
565.934	1	-2
567.123	1	4
568.313	1	18
569.502	1	-3
570.692	1	6
571.881	1	4
573.070	1	6
574.260	1	11
575.449	1	-2
576.638	1	-1
577.827	1	-9
579.016	1	12
580.205	1	-1
581.394	1	-4
582.583	1	17
583.772	1	8
584.961	1	9
586.150	1	1
587.339	1	11
588.528	1	7
589.717	1	3
590.905	1	1
592.094	1	-2
593.283	1	-5
594.471	1	10
595.660	1	-8
596.848	1	3
598.037	1	4
599.225	1	-10
600.413	1	8
601.602	1	14
602.790	1	-7
603.978	1	1
605.166	1	5
606.355	1	-1
607.543	1	-5
608.731	1	2
609.919	1	2
611.107	1	4
612.295	1	0
613.483	1	4
614.671	1	5
615.858	1	8
617.046	1	1
618.234	1	-5
619.422	1	-19
620.609	1	8
621.797	1	-3
622.985	1	2
624.172	1	6
625.360	1	6
626.547	1	3
627.735	1	-2
628.922	1	5
630.109	1	-5
631.297	1	-9
632.484	1	-2
633.671	1	-4
634.858	1	1
636.045	1	4
637.232	1	-3
638.419	1	0
639.606	1	-10
640.793	1	12
641.980	1	10
643.167	1	-8
644.354	1	0
645.541	1	-5
646.728	1	-2
647.914	1	4
649.101	1	-1
650.288	1	2
651.474	1	3
652.661	1	-2
653.847	1	5
655.034	1	1
656.220	1	-8
657.406	1	4
658.593	1	4
659.779	1	3
660.965	1	6
662.152	1	1
663.338	1	12
664.524	1	4
665.710	1	-3
666.896	1	-9
668.082	1	2
669.268	1	-6
670.454	1	1
671.640	1	1
672.826	1	3
674.011	1	-4
675.197	1	-5
676.383	1	8
677.569	1	0
678.754	1	-6
679.940	1	-1
681.125	1	0
682.311	1	9
683.496	1	5
684.682	1	1
685.867	1	2
687.053	1	-2
688.238	1	2
688.746	1	2