File: Data/GaN_200K_800ms/GaN_sample F_spot 12_UVVIS_200 K_200um_800 ms 2x2mm1_398.txt
340.368	1	0
341.565	1	-8
342.763	1	9
343.960	1	2
345.157	1	-9
346.354	1	-14
347.552	1	-6
348.749	1	-11
349.946	1	-11
351.143	1	-3
352.340	1	-2
353.537	1	2
354.734	1	4
355.931	1	-5
357.127	1	-3
358.324	1	9
359.521	1	8
360.718	1	4
361.914	1	15
363.111	1	-2
364.308	1	3
365.504	1	8
366.701	1	10
367.897	1	11
369.093	1	4
370.290	1	3
371.486	1	14
372.682	1	16
373.879	1	7
375.075	1	6
376.271	1	7
377.467	1	15
378.663	1	-3
379.859	1	0
381.055	1	7
382.251	1	-4
383.447	1	-8
384.643	1	13
385.839	1	-4
387.035	1	3
388.230	1	11
389.426	1	-3
390.622	1	-4
391.817	1	5
393.013	1	-1
394.208	1	7
395.404	1	-5
396.599	1	-3
397.795	1	2
398.990	1	3
400.186	1	-9
401.381	1	-8
402.576	1	-3
403.771	1	-3
404.967	1	-3
406.162	1	-1
407.357	1	-3
408.552	1	-2
409.747	1	-2
410.942	1	1
412.137	1	6
413.332	1	2
414.526	1	-1
415.721	1	-9
416.916	1	-11
418.111	1	3
419.305	1	0
420.500	1	0
421.695	1	1
422.889	1	-3
424.084	1	2
425.278	1	7
426.472	1	-1
427.667	1	0
428.861	1	1
430.055	1	-5
431.250	1	3
432.444	1	9
433.638	1	-4
434.832	1	5
436.026	1	4
437.220	1	-2
438.414	1	-8
439.608	1	-4
440.802	1	-12
441.996	1	-4
443.190	1	-3
444.384	1	-2
445.578	1	-6
446.771	1	14
447.965	1	-7
449.159	1	-6
450.352	1	4
451.546	1	-2
452.739	1	1
453.933	1	-1
455.126	1	-7
456.320	1	-6
457.513	1	3
458.706	1	-1
459.899	1	-3
461.093	1	-1
462.286	1	-11
463.479	1	-4
464.672	1	4
465.865	1	-9
467.058	1	-2
468.251	1	4
469.444	1	-12
470.637	1	11
471.830	1	0
473.023	1	1
474.215	1	6
475.408	1	-5
476.601	1	4
477.793	1	-13
478.986	1	-6
480.179	1	0
481.371	1	-2
482.564	1	3
483.756	1	10
484.948	1	-13
486.141	1	-5
487.333	1	-1
488.525	1	-3
489.718	1	-5
490.910	1	4
492.102	1	-1
493.294	1	-2
494.486	1	2
495.678	1	-1
496.870	1	4
498.062	1	-6
499.254	1	-5
500.446	1	-9
501.638	1	-2
502.829	1	4
504.021	1	0
505.213	1	-3
506.404	1	-1
507.596	1	3
508.788	1	15
509.979	1	-9
511.171	1	-5
512.362	1	-1
513.553	1	-9
514.745	1	-3
515.936	1	-3
517.127	1	-5
518.319	1	-1
519.510	1	-1
520.701	1	2
521.892	1	4
523.083	1	-3
524.274	1	0
525.465	1	12
526.656	1	0
527.847	1	-1
529.038	1	5
530.229	1	6
531.419	1	13
532.610	1	-1
533.801	1	10
534.991	1	2
536.182	1	-10
537.373	1	-2
538.563	1	14
539.754	1	-2
540.944	1	1
542.134	1	5
543.325	1	3
544.515	1	1
545.705	1	3
546.896	1	7
548.086	1	-2
549.276	1	3
550.466	1	0
551.656	1	2
552.846	1	2
554.036	1	-8
555.226	1	-10
556.416	1	-5
557.606	1	5
558.796	1	4
559.986	1	-7
561.175	1	8
562.365	1	9
563.555	1	-4
564.744	1	1
565.934	1	7
567.123	1	-6
568.313	1	0
569.502	1	1
570.692	1	7
571.881	1	13
573.070	1	2
574.260	1	12
575.449	1	-5
576.638	1	-10
577.827	1	-2
579.016	1	13
580.205	1	0
581.394	1	-1
582.583	1	7
583.772	1	1
584.961	1	6
586.150	1	0
587.339	1	-3
588.528	1	9
589.717	1	6
590.905	1	1
592.094	1	-7
593.283	1	-6
594.471	1	11
595.660	1	-4
596.848	1	5
598.037	1	-3
599.225	1	-19
600.413	1	5
601.602	1	14
602.790	1	6
603.978	1	3
605.166	1	2
606.355	1	2
607.543	1	-2
608.731	1	-5
609.919	1	5
611.107	1	0
612.295	1	-3
613.483	1	8
614.671	1	1
615.858	1	5
617.046	1	10
618.234	1	5
619.422	1	-12
620.609	1	3
621.797	1	-7
622.985	1	-4
624.172	1	-1
625.360	1	2
626.547	1	7
627.735	1	-1
628.922	1	1
630.109	1	-14
631.297	1	-8
632.484	1	-3
633.671	1	-1
634.858	1	-4
636.045	1	9
637.232	1	-10
638.419	1	-9
639.606	1	10
640.793	1	19
641.980	1	10
643.167	1	-9
644.354	1	3
645.541	1	0
646.728	1	-6
647.914	1	-4
649.101	1	0
650.288	1	4
651.474	1	-5
652.661	1	-6
653.847	1	18
655.034	1	5
656.220	1	-12
657.406	1	3
658.593	1	9
659.779	1	-1
660.965	1	7
662.152	1	3
663.338	1	5
664.524	1	-3
665.710	1	-2
666.896	1	-6
668.082	1	-1
669.268	1	-4
670.454	1	-1
671.640	1	10
672.826	1	-3
674.011	1	-2
675.197	1	-7
676.383	1	6
677.569	1	-13
678.754	1	-1
679.940	1	-5
681.125	1	2
682.311	1	2
683.496	1	4
684.682	1	-2
685.867	1	-7
687.053	1	-2
688.238	1	0
688.746	1	5