File: Data/GaN_200K_800ms/GaN_sample F_spot 12_UVVIS_200 K_200um_800 ms 2x2mm1_76.txt
340.368	1	8
341.565	1	-3
342.763	1	5
343.960	1	3
345.157	1	4
346.354	1	0
347.552	1	1
348.749	1	1
349.946	1	1
351.143	1	2
352.340	1	14
353.537	1	3
354.734	1	15
355.931	1	12
357.127	1	19
358.324	1	22
359.521	1	29
360.718	1	46
361.914	1	41
363.111	1	52
364.308	1	69
365.504	1	95
366.701	1	119
367.897	1	158
369.093	1	165
370.290	1	170
371.486	1	162
372.682	1	135
373.879	1	108
375.075	1	103
376.271	1	98
377.467	1	76
378.663	1	61
379.859	1	52
381.055	1	47
382.251	1	32
383.447	1	35
384.643	1	33
385.839	1	25
387.035	1	31
388.230	1	17
389.426	1	9
390.622	1	16
391.817	1	16
393.013	1	11
394.208	1	11
395.404	1	12
396.599	1	3
397.795	1	13
398.990	1	7
400.186	1	16
401.381	1	5
402.576	1	-3
403.771	1	8
404.967	1	2
406.162	1	3
407.357	1	5
408.552	1	3
409.747	1	7
410.942	1	7
412.137	1	3
413.332	1	12
414.526	1	-3
415.721	1	-4
416.916	1	-4
418.111	1	8
419.305	1	9
420.500	1	-1
421.695	1	-2
422.889	1	-2
424.084	1	4
425.278	1	16
426.472	1	6
427.667	1	13
428.861	1	0
430.055	1	9
431.250	1	-1
432.444	1	16
433.638	1	10
434.832	1	3
436.026	1	12
437.220	1	7
438.414	1	-1
439.608	1	-7
440.802	1	0
441.996	1	6
443.190	1	-5
444.384	1	1
445.578	1	2
446.771	1	10
447.965	1	0
449.159	1	3
450.352	1	6
451.546	1	11
452.739	1	5
453.933	1	2
455.126	1	-2
456.320	1	2
457.513	1	16
458.706	1	-7
459.899	1	-2
461.093	1	6
462.286	1	0
463.479	1	4
464.672	1	3
465.865	1	-4
467.058	1	3
468.251	1	1
469.444	1	-6
470.637	1	10
471.830	1	-5
473.023	1	0
474.215	1	7
475.408	1	-1
476.601	1	4
477.793	1	3
478.986	1	-7
480.179	1	4
481.371	1	0
482.564	1	-5
483.756	1	20
484.948	1	0
486.141	1	0
487.333	1	9
488.525	1	6
489.718	1	1
490.910	1	7
492.102	1	-3
493.294	1	2
494.486	1	12
495.678	1	-5
496.870	1	-1
498.062	1	10
499.254	1	9
500.446	1	-6
501.638	1	6
502.829	1	2
504.021	1	7
505.213	1	13
506.404	1	11
507.596	1	12
508.788	1	26
509.979	1	5
511.171	1	12
512.362	1	8
513.553	1	-7
514.745	1	10
515.936	1	11
517.127	1	11
518.319	1	7
519.510	1	14
520.701	1	22
521.892	1	12
523.083	1	9
524.274	1	16
525.465	1	11
526.656	1	7
527.847	1	24
529.038	1	17
530.229	1	10
531.419	1	17
532.610	1	4
533.801	1	37
534.991	1	21
536.182	1	12
537.373	1	14
538.563	1	19
539.754	1	24
540.944	1	15
542.134	1	11
543.325	1	21
544.515	1	10
545.705	1	14
546.896	1	24
548.086	1	16
549.276	1	17
550.466	1	23
551.656	1	20
552.846	1	20
554.036	1	22
555.226	1	16
556.416	1	20
557.606	1	31
558.796	1	23
559.986	1	10
561.175	1	26
562.365	1	20
563.555	1	7
564.744	1	18
565.934	1	24
567.123	1	17
568.313	1	21
569.502	1	20
570.692	1	31
571.881	1	20
573.070	1	14
574.260	1	26
575.449	1	10
576.638	1	15
577.827	1	11
579.016	1	33
580.205	1	19
581.394	1	15
582.583	1	24
583.772	1	21
584.961	1	20
586.150	1	16
587.339	1	11
588.528	1	16
589.717	1	26
590.905	1	13
592.094	1	9
593.283	1	14
594.471	1	17
595.660	1	13
596.848	1	11
598.037	1	8
599.225	1	1
600.413	1	18
601.602	1	28
602.790	1	13
603.978	1	11
605.166	1	22
606.355	1	20
607.543	1	4
608.731	1	5
609.919	1	17
611.107	1	12
612.295	1	12
613.483	1	23
614.671	1	9
615.858	1	2
617.046	1	15
618.234	1	12
619.422	1	6
620.609	1	8
621.797	1	4
622.985	1	16
624.172	1	1
625.360	1	3
626.547	1	10
627.735	1	11
628.922	1	17
630.109	1	-3
631.297	1	5
632.484	1	7
633.671	1	3
634.858	1	8
636.045	1	21
637.232	1	9
638.419	1	1
639.606	1	12
640.793	1	13
641.980	1	13
643.167	1	6
644.354	1	11
645.541	1	10
646.728	1	0
647.914	1	2
649.101	1	8
650.288	1	15
651.474	1	10
652.661	1	7
653.847	1	20
655.034	1	8
656.220	1	3
657.406	1	15
658.593	1	11
659.779	1	10
660.965	1	7
662.152	1	6
663.338	1	16
664.524	1	10
665.710	1	8
666.896	1	1
668.082	1	10
669.268	1	9
670.454	1	11
671.640	1	4
672.826	1	0
674.011	1	10
675.197	1	3
676.383	1	15
677.569	1	9
678.754	1	11
679.940	1	6
681.125	1	11
682.311	1	11
683.496	1	16
684.682	1	-2
685.867	1	-4
687.053	1	12
688.238	1	8
688.746	1	10