File: Data/GaN_200K_800ms/GaN_sample F_spot 12_UVVIS_200 K_200um_800 ms 2x2mm1_406.txt
340.368	1	7
341.565	1	-5
342.763	1	9
343.960	1	3
345.157	1	-7
346.354	1	-2
347.552	1	-13
348.749	1	-5
349.946	1	-6
351.143	1	2
352.340	1	-2
353.537	1	-6
354.734	1	0
355.931	1	-1
357.127	1	-3
358.324	1	0
359.521	1	7
360.718	1	-5
361.914	1	13
363.111	1	-2
364.308	1	5
365.504	1	17
366.701	1	10
367.897	1	4
369.093	1	3
370.290	1	16
371.486	1	17
372.682	1	17
373.879	1	4
375.075	1	3
376.271	1	9
377.467	1	8
378.663	1	-1
379.859	1	8
381.055	1	12
382.251	1	-4
383.447	1	4
384.643	1	5
385.839	1	-4
387.035	1	3
388.230	1	15
389.426	1	-1
390.622	1	-1
391.817	1	3
393.013	1	-2
394.208	1	-4
395.404	1	-9
396.599	1	-10
397.795	1	-4
398.990	1	-3
400.186	1	-4
401.381	1	-6
402.576	1	1
403.771	1	8
404.967	1	8
406.162	1	5
407.357	1	-3
408.552	1	-1
409.747	1	-5
410.942	1	2
412.137	1	-2
413.332	1	8
414.526	1	-1
415.721	1	-1
416.916	1	2
418.111	1	-5
419.305	1	-2
420.500	1	0
421.695	1	-2
422.889	1	-3
424.084	1	-1
425.278	1	10
426.472	1	9
427.667	1	4
428.861	1	-5
430.055	1	-3
431.250	1	2
432.444	1	11
433.638	1	-1
434.832	1	2
436.026	1	-5
437.220	1	3
438.414	1	-1
439.608	1	-12
440.802	1	-8
441.996	1	-3
443.190	1	-1
444.384	1	-7
445.578	1	-10
446.771	1	6
447.965	1	-4
449.159	1	-9
450.352	1	-2
451.546	1	2
452.739	1	4
453.933	1	-2
455.126	1	-7
456.320	1	-5
457.513	1	3
458.706	1	-3
459.899	1	-2
461.093	1	-3
462.286	1	4
463.479	1	-3
464.672	1	1
465.865	1	-3
467.058	1	0
468.251	1	1
469.444	1	1
470.637	1	8
471.830	1	-3
473.023	1	1
474.215	1	3
475.408	1	1
476.601	1	2
477.793	1	-3
478.986	1	-1
480.179	1	-3
481.371	1	1
482.564	1	3
483.756	1	3
484.948	1	-2
486.141	1	-2
487.333	1	-3
488.525	1	-3
489.718	1	-1
490.910	1	-5
492.102	1	-4
493.294	1	1
494.486	1	-1
495.678	1	-3
496.870	1	2
498.062	1	-3
499.254	1	-4
500.446	1	-10
501.638	1	-9
502.829	1	-8
504.021	1	-2
505.213	1	-1
506.404	1	7
507.596	1	5
508.788	1	15
509.979	1	-6
511.171	1	5
512.362	1	1
513.553	1	-15
514.745	1	-4
515.936	1	-1
517.127	1	-5
518.319	1	-4
519.510	1	-1
520.701	1	5
521.892	1	4
523.083	1	1
524.274	1	1
525.465	1	6
526.656	1	-5
527.847	1	3
529.038	1	0
530.229	1	11
531.419	1	9
532.610	1	0
533.801	1	14
534.991	1	-2
536.182	1	0
537.373	1	8
538.563	1	-1
539.754	1	2
540.944	1	-3
542.134	1	-3
543.325	1	5
544.515	1	1
545.705	1	0
546.896	1	-2
548.086	1	-4
549.276	1	-8
550.466	1	-1
551.656	1	5
552.846	1	5
554.036	1	-2
555.226	1	-9
556.416	1	-5
557.606	1	2
558.796	1	-1
559.986	1	2
561.175	1	0
562.365	1	5
563.555	1	6
564.744	1	3
565.934	1	11
567.123	1	2
568.313	1	7
569.502	1	0
570.692	1	0
571.881	1	17
573.070	1	4
574.260	1	8
575.449	1	5
576.638	1	-4
577.827	1	4
579.016	1	14
580.205	1	-6
581.394	1	5
582.583	1	11
583.772	1	13
584.961	1	9
586.150	1	-7
587.339	1	-5
588.528	1	5
589.717	1	2
590.905	1	3
592.094	1	2
593.283	1	6
594.471	1	7
595.660	1	-2
596.848	1	-1
598.037	1	3
599.225	1	-6
600.413	1	8
601.602	1	8
602.790	1	-2
603.978	1	-1
605.166	1	-1
606.355	1	8
607.543	1	-8
608.731	1	5
609.919	1	13
611.107	1	-5
612.295	1	-2
613.483	1	0
614.671	1	-1
615.858	1	7
617.046	1	0
618.234	1	-2
619.422	1	-5
620.609	1	1
621.797	1	-7
622.985	1	1
624.172	1	2
625.360	1	2
626.547	1	6
627.735	1	8
628.922	1	1
630.109	1	-7
631.297	1	-3
632.484	1	1
633.671	1	-3
634.858	1	-4
636.045	1	13
637.232	1	-6
638.419	1	-1
639.606	1	6
640.793	1	10
641.980	1	12
643.167	1	-7
644.354	1	2
645.541	1	-8
646.728	1	8
647.914	1	-7
649.101	1	-9
650.288	1	-1
651.474	1	0
652.661	1	-11
653.847	1	4
655.034	1	4
656.220	1	-6
657.406	1	2
658.593	1	0
659.779	1	0
660.965	1	6
662.152	1	6
663.338	1	4
664.524	1	5
665.710	1	3
666.896	1	-13
668.082	1	6
669.268	1	-2
670.454	1	-2
671.640	1	0
672.826	1	0
674.011	1	2
675.197	1	-9
676.383	1	-3
677.569	1	-3
678.754	1	-11
679.940	1	-4
681.125	1	5
682.311	1	-2
683.496	1	6
684.682	1	-14
685.867	1	2
687.053	1	-6
688.238	1	4
688.746	1	2