File: Data/GaN_200K_800ms/GaN_sample F_spot 12_UVVIS_200 K_200um_800 ms 2x2mm1_539.txt
340.368	1	2
341.565	1	-19
342.763	1	4
343.960	1	7
345.157	1	-7
346.354	1	2
347.552	1	-6
348.749	1	-6
349.946	1	-4
351.143	1	-1
352.340	1	8
353.537	1	3
354.734	1	-1
355.931	1	-4
357.127	1	-1
358.324	1	-2
359.521	1	5
360.718	1	-4
361.914	1	1
363.111	1	0
364.308	1	6
365.504	1	7
366.701	1	0
367.897	1	6
369.093	1	1
370.290	1	-3
371.486	1	6
372.682	1	10
373.879	1	-6
375.075	1	4
376.271	1	-5
377.467	1	6
378.663	1	-5
379.859	1	0
381.055	1	11
382.251	1	-3
383.447	1	-5
384.643	1	4
385.839	1	-6
387.035	1	-2
388.230	1	7
389.426	1	-7
390.622	1	-6
391.817	1	-4
393.013	1	-3
394.208	1	0
395.404	1	-6
396.599	1	9
397.795	1	1
398.990	1	5
400.186	1	1
401.381	1	-7
402.576	1	-4
403.771	1	2
404.967	1	-1
406.162	1	1
407.357	1	-3
408.552	1	-6
409.747	1	-4
410.942	1	5
412.137	1	2
413.332	1	3
414.526	1	3
415.721	1	-7
416.916	1	-5
418.111	1	0
419.305	1	0
420.500	1	1
421.695	1	-4
422.889	1	-10
424.084	1	0
425.278	1	12
426.472	1	4
427.667	1	7
428.861	1	3
430.055	1	-3
431.250	1	-6
432.444	1	9
433.638	1	0
434.832	1	-1
436.026	1	-4
437.220	1	7
438.414	1	-10
439.608	1	-13
440.802	1	-4
441.996	1	10
443.190	1	2
444.384	1	-16
445.578	1	-8
446.771	1	12
447.965	1	2
449.159	1	-4
450.352	1	-2
451.546	1	1
452.739	1	-5
453.933	1	0
455.126	1	-10
456.320	1	5
457.513	1	12
458.706	1	0
459.899	1	-5
461.093	1	-5
462.286	1	1
463.479	1	-5
464.672	1	4
465.865	1	-6
467.058	1	-7
468.251	1	-2
469.444	1	-10
470.637	1	-10
471.830	1	-1
473.023	1	-1
474.215	1	11
475.408	1	-8
476.601	1	-4
477.793	1	0
478.986	1	-6
480.179	1	1
481.371	1	7
482.564	1	-11
483.756	1	4
484.948	1	-5
486.141	1	-6
487.333	1	5
488.525	1	3
489.718	1	-2
490.910	1	-2
492.102	1	-2
493.294	1	-5
494.486	1	5
495.678	1	-6
496.870	1	0
498.062	1	5
499.254	1	1
500.446	1	-1
501.638	1	-1
502.829	1	0
504.021	1	2
505.213	1	2
506.404	1	-2
507.596	1	-3
508.788	1	13
509.979	1	0
511.171	1	-5
512.362	1	-14
513.553	1	-10
514.745	1	0
515.936	1	-6
517.127	1	5
518.319	1	-6
519.510	1	1
520.701	1	-5
521.892	1	-3
523.083	1	-2
524.274	1	-2
525.465	1	3
526.656	1	-3
527.847	1	3
529.038	1	-2
530.229	1	6
531.419	1	7
532.610	1	-7
533.801	1	8
534.991	1	2
536.182	1	-10
537.373	1	2
538.563	1	15
539.754	1	1
540.944	1	-2
542.134	1	7
543.325	1	-6
544.515	1	-3
545.705	1	1
546.896	1	-6
548.086	1	5
549.276	1	-3
550.466	1	-8
551.656	1	-6
552.846	1	4
554.036	1	-2
555.226	1	-8
556.416	1	-3
557.606	1	-3
558.796	1	-11
559.986	1	-10
561.175	1	3
562.365	1	2
563.555	1	0
564.744	1	2
565.934	1	3
567.123	1	3
568.313	1	-3
569.502	1	-8
570.692	1	7
571.881	1	10
573.070	1	-1
574.260	1	11
575.449	1	-6
576.638	1	-1
577.827	1	-6
579.016	1	4
580.205	1	-1
581.394	1	-1
582.583	1	2
583.772	1	4
584.961	1	-2
586.150	1	-3
587.339	1	-8
588.528	1	0
589.717	1	-2
590.905	1	-8
592.094	1	0
593.283	1	-1
594.471	1	10
595.660	1	5
596.848	1	3
598.037	1	-1
599.225	1	-11
600.413	1	12
601.602	1	20
602.790	1	-3
603.978	1	-13
605.166	1	-5
606.355	1	3
607.543	1	-5
608.731	1	-2
609.919	1	5
611.107	1	-3
612.295	1	-3
613.483	1	1
614.671	1	1
615.858	1	-1
617.046	1	1
618.234	1	-3
619.422	1	-11
620.609	1	-2
621.797	1	-5
622.985	1	-1
624.172	1	3
625.360	1	1
626.547	1	-3
627.735	1	1
628.922	1	-1
630.109	1	-10
631.297	1	-1
632.484	1	-5
633.671	1	-1
634.858	1	5
636.045	1	15
637.232	1	0
638.419	1	1
639.606	1	-3
640.793	1	14
641.980	1	10
643.167	1	-5
644.354	1	2
645.541	1	-8
646.728	1	-5
647.914	1	-6
649.101	1	-4
650.288	1	12
651.474	1	-5
652.661	1	-7
653.847	1	4
655.034	1	3
656.220	1	-7
657.406	1	-7
658.593	1	5
659.779	1	2
660.965	1	0
662.152	1	3
663.338	1	8
664.524	1	-1
665.710	1	7
666.896	1	-4
668.082	1	3
669.268	1	-6
670.454	1	-1
671.640	1	-4
672.826	1	1
674.011	1	-5
675.197	1	-14
676.383	1	-4
677.569	1	-10
678.754	1	-10
679.940	1	-2
681.125	1	0
682.311	1	1
683.496	1	0
684.682	1	-14
685.867	1	-1
687.053	1	5
688.238	1	-5
688.746	1	7