File: Data/GaN_200K_800ms/GaN_sample F_spot 12_UVVIS_200 K_200um_800 ms 2x2mm1_187.txt
340.368	1	5
341.565	1	-9
342.763	1	2
343.960	1	1
345.157	1	-9
346.354	1	-2
347.552	1	0
348.749	1	-7
349.946	1	-4
351.143	1	3
352.340	1	9
353.537	1	8
354.734	1	14
355.931	1	1
357.127	1	11
358.324	1	-3
359.521	1	12
360.718	1	9
361.914	1	16
363.111	1	11
364.308	1	10
365.504	1	28
366.701	1	26
367.897	1	36
369.093	1	23
370.290	1	23
371.486	1	45
372.682	1	30
373.879	1	30
375.075	1	22
376.271	1	27
377.467	1	7
378.663	1	14
379.859	1	7
381.055	1	11
382.251	1	0
383.447	1	7
384.643	1	14
385.839	1	-2
387.035	1	12
388.230	1	13
389.426	1	-4
390.622	1	0
391.817	1	10
393.013	1	-1
394.208	1	0
395.404	1	-3
396.599	1	-3
397.795	1	-2
398.990	1	-2
400.186	1	-5
401.381	1	-2
402.576	1	4
403.771	1	0
404.967	1	2
406.162	1	7
407.357	1	-5
408.552	1	5
409.747	1	5
410.942	1	4
412.137	1	1
413.332	1	8
414.526	1	7
415.721	1	-9
416.916	1	-1
418.111	1	2
419.305	1	6
420.500	1	-10
421.695	1	5
422.889	1	-7
424.084	1	7
425.278	1	8
426.472	1	3
427.667	1	3
428.861	1	-3
430.055	1	5
431.250	1	1
432.444	1	5
433.638	1	2
434.832	1	9
436.026	1	1
437.220	1	-1
438.414	1	-2
439.608	1	-8
440.802	1	0
441.996	1	6
443.190	1	10
444.384	1	-5
445.578	1	-16
446.771	1	12
447.965	1	2
449.159	1	-7
450.352	1	-7
451.546	1	11
452.739	1	8
453.933	1	-3
455.126	1	-9
456.320	1	-3
457.513	1	10
458.706	1	12
459.899	1	-3
461.093	1	2
462.286	1	8
463.479	1	-6
464.672	1	-1
465.865	1	-1
467.058	1	1
468.251	1	5
469.444	1	-6
470.637	1	0
471.830	1	3
473.023	1	3
474.215	1	-2
475.408	1	6
476.601	1	5
477.793	1	2
478.986	1	1
480.179	1	3
481.371	1	0
482.564	1	-3
483.756	1	11
484.948	1	-15
486.141	1	-3
487.333	1	0
488.525	1	-4
489.718	1	3
490.910	1	3
492.102	1	-5
493.294	1	-6
494.486	1	12
495.678	1	-1
496.870	1	4
498.062	1	-1
499.254	1	-5
500.446	1	-12
501.638	1	-4
502.829	1	2
504.021	1	-2
505.213	1	11
506.404	1	11
507.596	1	4
508.788	1	14
509.979	1	2
511.171	1	-2
512.362	1	-1
513.553	1	-5
514.745	1	0
515.936	1	-3
517.127	1	6
518.319	1	4
519.510	1	-7
520.701	1	1
521.892	1	3
523.083	1	0
524.274	1	7
525.465	1	11
526.656	1	-2
527.847	1	-4
529.038	1	-3
530.229	1	-1
531.419	1	0
532.610	1	0
533.801	1	11
534.991	1	5
536.182	1	2
537.373	1	2
538.563	1	-1
539.754	1	4
540.944	1	2
542.134	1	15
543.325	1	0
544.515	1	-3
545.705	1	-5
546.896	1	-2
548.086	1	7
549.276	1	-6
550.466	1	-9
551.656	1	5
552.846	1	1
554.036	1	2
555.226	1	-6
556.416	1	1
557.606	1	8
558.796	1	1
559.986	1	-2
561.175	1	1
562.365	1	4
563.555	1	-5
564.744	1	9
565.934	1	9
567.123	1	5
568.313	1	10
569.502	1	2
570.692	1	9
571.881	1	7
573.070	1	2
574.260	1	14
575.449	1	2
576.638	1	-3
577.827	1	8
579.016	1	0
580.205	1	1
581.394	1	-5
582.583	1	9
583.772	1	6
584.961	1	7
586.150	1	0
587.339	1	7
588.528	1	8
589.717	1	3
590.905	1	1
592.094	1	2
593.283	1	0
594.471	1	6
595.660	1	5
596.848	1	0
598.037	1	4
599.225	1	-7
600.413	1	11
601.602	1	17
602.790	1	9
603.978	1	1
605.166	1	7
606.355	1	11
607.543	1	-2
608.731	1	8
609.919	1	15
611.107	1	3
612.295	1	1
613.483	1	0
614.671	1	4
615.858	1	3
617.046	1	1
618.234	1	1
619.422	1	-5
620.609	1	8
621.797	1	-12
622.985	1	-5
624.172	1	6
625.360	1	3
626.547	1	3
627.735	1	3
628.922	1	3
630.109	1	-13
631.297	1	8
632.484	1	1
633.671	1	-10
634.858	1	2
636.045	1	9
637.232	1	-1
638.419	1	-2
639.606	1	2
640.793	1	10
641.980	1	4
643.167	1	-2
644.354	1	-2
645.541	1	2
646.728	1	0
647.914	1	-3
649.101	1	4
650.288	1	1
651.474	1	10
652.661	1	2
653.847	1	8
655.034	1	10
656.220	1	1
657.406	1	6
658.593	1	5
659.779	1	9
660.965	1	6
662.152	1	8
663.338	1	7
664.524	1	-3
665.710	1	1
666.896	1	-1
668.082	1	12
669.268	1	-9
670.454	1	-2
671.640	1	7
672.826	1	-4
674.011	1	-5
675.197	1	-5
676.383	1	4
677.569	1	-2
678.754	1	-13
679.940	1	-3
681.125	1	13
682.311	1	1
683.496	1	8
684.682	1	-3
685.867	1	-3
687.053	1	-2
688.238	1	9
688.746	1	-2