File: Data/GaN_200K_800ms/GaN_sample F_spot 12_UVVIS_200 K_200um_800 ms 2x2mm1_390.txt
340.368	1	9
341.565	1	-11
342.763	1	-2
343.960	1	2
345.157	1	-4
346.354	1	4
347.552	1	-6
348.749	1	-7
349.946	1	-9
351.143	1	6
352.340	1	8
353.537	1	1
354.734	1	1
355.931	1	3
357.127	1	5
358.324	1	-7
359.521	1	14
360.718	1	2
361.914	1	14
363.111	1	9
364.308	1	-2
365.504	1	10
366.701	1	11
367.897	1	9
369.093	1	0
370.290	1	13
371.486	1	21
372.682	1	8
373.879	1	8
375.075	1	2
376.271	1	11
377.467	1	5
378.663	1	-5
379.859	1	0
381.055	1	8
382.251	1	4
383.447	1	-10
384.643	1	14
385.839	1	0
387.035	1	4
388.230	1	5
389.426	1	-11
390.622	1	0
391.817	1	8
393.013	1	-6
394.208	1	0
395.404	1	2
396.599	1	-5
397.795	1	5
398.990	1	3
400.186	1	1
401.381	1	-4
402.576	1	-9
403.771	1	-6
404.967	1	2
406.162	1	1
407.357	1	0
408.552	1	-7
409.747	1	-3
410.942	1	7
412.137	1	4
413.332	1	0
414.526	1	-7
415.721	1	-4
416.916	1	-14
418.111	1	3
419.305	1	0
420.500	1	-9
421.695	1	-7
422.889	1	-9
424.084	1	-3
425.278	1	1
426.472	1	0
427.667	1	1
428.861	1	4
430.055	1	0
431.250	1	2
432.444	1	0
433.638	1	1
434.832	1	2
436.026	1	5
437.220	1	2
438.414	1	-16
439.608	1	-13
440.802	1	-4
441.996	1	8
443.190	1	5
444.384	1	-14
445.578	1	-12
446.771	1	-2
447.965	1	-4
449.159	1	-11
450.352	1	-8
451.546	1	-4
452.739	1	-3
453.933	1	-11
455.126	1	-3
456.320	1	-4
457.513	1	2
458.706	1	-3
459.899	1	-2
461.093	1	4
462.286	1	-4
463.479	1	-6
464.672	1	-3
465.865	1	-2
467.058	1	1
468.251	1	-9
469.444	1	-6
470.637	1	-2
471.830	1	-1
473.023	1	-7
474.215	1	12
475.408	1	-6
476.601	1	-5
477.793	1	2
478.986	1	-4
480.179	1	4
481.371	1	4
482.564	1	-10
483.756	1	9
484.948	1	-7
486.141	1	-6
487.333	1	-9
488.525	1	-8
489.718	1	3
490.910	1	-4
492.102	1	-6
493.294	1	-4
494.486	1	5
495.678	1	0
496.870	1	-3
498.062	1	-2
499.254	1	-1
500.446	1	-13
501.638	1	-2
502.829	1	-3
504.021	1	3
505.213	1	-2
506.404	1	4
507.596	1	-1
508.788	1	11
509.979	1	-7
511.171	1	-8
512.362	1	-9
513.553	1	-15
514.745	1	0
515.936	1	2
517.127	1	-2
518.319	1	5
519.510	1	1
520.701	1	2
521.892	1	-2
523.083	1	1
524.274	1	-6
525.465	1	2
526.656	1	5
527.847	1	-3
529.038	1	-4
530.229	1	4
531.419	1	5
532.610	1	-2
533.801	1	10
534.991	1	5
536.182	1	-7
537.373	1	-5
538.563	1	5
539.754	1	1
540.944	1	-2
542.134	1	2
543.325	1	0
544.515	1	-5
545.705	1	1
546.896	1	-2
548.086	1	-6
549.276	1	-10
550.466	1	-3
551.656	1	-2
552.846	1	8
554.036	1	-6
555.226	1	-9
556.416	1	-9
557.606	1	2
558.796	1	-1
559.986	1	-4
561.175	1	-3
562.365	1	10
563.555	1	-3
564.744	1	4
565.934	1	12
567.123	1	-6
568.313	1	-2
569.502	1	-11
570.692	1	-5
571.881	1	20
573.070	1	-10
574.260	1	11
575.449	1	5
576.638	1	0
577.827	1	-8
579.016	1	2
580.205	1	1
581.394	1	-5
582.583	1	13
583.772	1	6
584.961	1	-2
586.150	1	-5
587.339	1	-3
588.528	1	6
589.717	1	4
590.905	1	3
592.094	1	-1
593.283	1	4
594.471	1	9
595.660	1	-4
596.848	1	-8
598.037	1	-4
599.225	1	-14
600.413	1	6
601.602	1	7
602.790	1	8
603.978	1	1
605.166	1	11
606.355	1	2
607.543	1	-2
608.731	1	2
609.919	1	12
611.107	1	-5
612.295	1	-14
613.483	1	-5
614.671	1	0
615.858	1	-1
617.046	1	3
618.234	1	-5
619.422	1	-16
620.609	1	1
621.797	1	-6
622.985	1	-2
624.172	1	-4
625.360	1	-2
626.547	1	-1
627.735	1	-3
628.922	1	6
630.109	1	-13
631.297	1	-3
632.484	1	-4
633.671	1	-6
634.858	1	0
636.045	1	10
637.232	1	-3
638.419	1	-6
639.606	1	3
640.793	1	8
641.980	1	3
643.167	1	-8
644.354	1	-7
645.541	1	4
646.728	1	0
647.914	1	-3
649.101	1	-9
650.288	1	2
651.474	1	-8
652.661	1	2
653.847	1	3
655.034	1	-1
656.220	1	-4
657.406	1	0
658.593	1	9
659.779	1	6
660.965	1	4
662.152	1	-2
663.338	1	7
664.524	1	-1
665.710	1	1
666.896	1	0
668.082	1	4
669.268	1	-5
670.454	1	6
671.640	1	11
672.826	1	-7
674.011	1	-8
675.197	1	-3
676.383	1	1
677.569	1	-1
678.754	1	2
679.940	1	-5
681.125	1	-6
682.311	1	2
683.496	1	4
684.682	1	4
685.867	1	-2
687.053	1	5
688.238	1	-2
688.746	1	-3