File: Data/GaN_200K_800ms/GaN_sample F_spot 12_UVVIS_200 K_200um_800 ms 2x2mm1_135.txt
340.368	1	6
341.565	1	-11
342.763	1	13
343.960	1	2
345.157	1	-9
346.354	1	8
347.552	1	0
348.749	1	-8
349.946	1	-1
351.143	1	6
352.340	1	5
353.537	1	16
354.734	1	13
355.931	1	6
357.127	1	9
358.324	1	9
359.521	1	11
360.718	1	20
361.914	1	8
363.111	1	21
364.308	1	27
365.504	1	45
366.701	1	47
367.897	1	41
369.093	1	67
370.290	1	53
371.486	1	59
372.682	1	61
373.879	1	37
375.075	1	33
376.271	1	39
377.467	1	36
378.663	1	18
379.859	1	23
381.055	1	23
382.251	1	9
383.447	1	18
384.643	1	18
385.839	1	13
387.035	1	9
388.230	1	16
389.426	1	10
390.622	1	2
391.817	1	9
393.013	1	-7
394.208	1	7
395.404	1	7
396.599	1	0
397.795	1	-3
398.990	1	4
400.186	1	-4
401.381	1	5
402.576	1	7
403.771	1	-1
404.967	1	7
406.162	1	9
407.357	1	-2
408.552	1	6
409.747	1	-1
410.942	1	9
412.137	1	10
413.332	1	9
414.526	1	-2
415.721	1	3
416.916	1	-1
418.111	1	-2
419.305	1	4
420.500	1	1
421.695	1	1
422.889	1	-10
424.084	1	4
425.278	1	11
426.472	1	-7
427.667	1	2
428.861	1	-7
430.055	1	5
431.250	1	4
432.444	1	5
433.638	1	-1
434.832	1	3
436.026	1	0
437.220	1	11
438.414	1	-3
439.608	1	-7
440.802	1	0
441.996	1	-1
443.190	1	0
444.384	1	-13
445.578	1	1
446.771	1	13
447.965	1	1
449.159	1	-5
450.352	1	-1
451.546	1	1
452.739	1	8
453.933	1	2
455.126	1	-1
456.320	1	1
457.513	1	8
458.706	1	3
459.899	1	2
461.093	1	0
462.286	1	-2
463.479	1	-1
464.672	1	-1
465.865	1	2
467.058	1	10
468.251	1	8
469.444	1	-1
470.637	1	-4
471.830	1	6
473.023	1	4
474.215	1	7
475.408	1	10
476.601	1	1
477.793	1	2
478.986	1	-4
480.179	1	-4
481.371	1	-3
482.564	1	10
483.756	1	2
484.948	1	4
486.141	1	-6
487.333	1	2
488.525	1	4
489.718	1	-8
490.910	1	2
492.102	1	2
493.294	1	-2
494.486	1	16
495.678	1	6
496.870	1	2
498.062	1	6
499.254	1	0
500.446	1	-4
501.638	1	-3
502.829	1	7
504.021	1	10
505.213	1	11
506.404	1	6
507.596	1	3
508.788	1	18
509.979	1	1
511.171	1	-3
512.362	1	-2
513.553	1	-4
514.745	1	-3
515.936	1	4
517.127	1	3
518.319	1	0
519.510	1	2
520.701	1	6
521.892	1	1
523.083	1	-4
524.274	1	8
525.465	1	13
526.656	1	5
527.847	1	6
529.038	1	2
530.229	1	3
531.419	1	12
532.610	1	3
533.801	1	13
534.991	1	6
536.182	1	6
537.373	1	0
538.563	1	6
539.754	1	7
540.944	1	13
542.134	1	10
543.325	1	5
544.515	1	3
545.705	1	1
546.896	1	8
548.086	1	8
549.276	1	-4
550.466	1	3
551.656	1	3
552.846	1	9
554.036	1	-2
555.226	1	-6
556.416	1	8
557.606	1	7
558.796	1	8
559.986	1	4
561.175	1	12
562.365	1	9
563.555	1	6
564.744	1	9
565.934	1	5
567.123	1	10
568.313	1	10
569.502	1	2
570.692	1	15
571.881	1	7
573.070	1	6
574.260	1	10
575.449	1	6
576.638	1	1
577.827	1	-1
579.016	1	20
580.205	1	3
581.394	1	2
582.583	1	19
583.772	1	3
584.961	1	2
586.150	1	5
587.339	1	11
588.528	1	12
589.717	1	13
590.905	1	8
592.094	1	-2
593.283	1	10
594.471	1	17
595.660	1	8
596.848	1	6
598.037	1	10
599.225	1	2
600.413	1	10
601.602	1	10
602.790	1	5
603.978	1	-2
605.166	1	3
606.355	1	4
607.543	1	1
608.731	1	5
609.919	1	19
611.107	1	4
612.295	1	7
613.483	1	7
614.671	1	4
615.858	1	10
617.046	1	7
618.234	1	0
619.422	1	4
620.609	1	10
621.797	1	5
622.985	1	0
624.172	1	3
625.360	1	13
626.547	1	9
627.735	1	10
628.922	1	0
630.109	1	-8
631.297	1	5
632.484	1	-3
633.671	1	-1
634.858	1	8
636.045	1	12
637.232	1	-5
638.419	1	-3
639.606	1	9
640.793	1	9
641.980	1	12
643.167	1	-4
644.354	1	-4
645.541	1	2
646.728	1	9
647.914	1	-8
649.101	1	-5
650.288	1	4
651.474	1	3
652.661	1	-4
653.847	1	7
655.034	1	8
656.220	1	7
657.406	1	9
658.593	1	9
659.779	1	4
660.965	1	7
662.152	1	1
663.338	1	11
664.524	1	-3
665.710	1	1
666.896	1	-5
668.082	1	10
669.268	1	-4
670.454	1	5
671.640	1	6
672.826	1	-9
674.011	1	0
675.197	1	-4
676.383	1	0
677.569	1	0
678.754	1	-3
679.940	1	1
681.125	1	8
682.311	1	17
683.496	1	8
684.682	1	-7
685.867	1	-5
687.053	1	4
688.238	1	6
688.746	1	-2