File: Data/GaN_200K_800ms/GaN_sample F_spot 12_UVVIS_200 K_200um_800 ms 2x2mm1_175.txt
340.368	1	7
341.565	1	-1
342.763	1	-2
343.960	1	1
345.157	1	2
346.354	1	4
347.552	1	-7
348.749	1	-14
349.946	1	-8
351.143	1	-6
352.340	1	3
353.537	1	1
354.734	1	5
355.931	1	-1
357.127	1	2
358.324	1	9
359.521	1	13
360.718	1	8
361.914	1	8
363.111	1	11
364.308	1	7
365.504	1	19
366.701	1	31
367.897	1	40
369.093	1	43
370.290	1	40
371.486	1	36
372.682	1	38
373.879	1	28
375.075	1	32
376.271	1	34
377.467	1	13
378.663	1	4
379.859	1	17
381.055	1	21
382.251	1	0
383.447	1	-3
384.643	1	14
385.839	1	3
387.035	1	1
388.230	1	12
389.426	1	10
390.622	1	5
391.817	1	9
393.013	1	-1
394.208	1	-3
395.404	1	1
396.599	1	3
397.795	1	3
398.990	1	2
400.186	1	-7
401.381	1	-5
402.576	1	-4
403.771	1	4
404.967	1	-6
406.162	1	-1
407.357	1	1
408.552	1	-1
409.747	1	1
410.942	1	5
412.137	1	12
413.332	1	10
414.526	1	3
415.721	1	-1
416.916	1	-7
418.111	1	-3
419.305	1	7
420.500	1	-8
421.695	1	-3
422.889	1	-9
424.084	1	1
425.278	1	4
426.472	1	4
427.667	1	6
428.861	1	-5
430.055	1	4
431.250	1	3
432.444	1	4
433.638	1	-5
434.832	1	2
436.026	1	1
437.220	1	12
438.414	1	-7
439.608	1	-10
440.802	1	-6
441.996	1	5
443.190	1	-2
444.384	1	-7
445.578	1	-3
446.771	1	11
447.965	1	-10
449.159	1	-8
450.352	1	0
451.546	1	7
452.739	1	7
453.933	1	2
455.126	1	-2
456.320	1	-5
457.513	1	7
458.706	1	3
459.899	1	2
461.093	1	7
462.286	1	-1
463.479	1	-3
464.672	1	-1
465.865	1	1
467.058	1	3
468.251	1	-5
469.444	1	-11
470.637	1	7
471.830	1	1
473.023	1	-2
474.215	1	7
475.408	1	4
476.601	1	1
477.793	1	-1
478.986	1	0
480.179	1	3
481.371	1	6
482.564	1	5
483.756	1	4
484.948	1	-3
486.141	1	-7
487.333	1	-6
488.525	1	1
489.718	1	1
490.910	1	4
492.102	1	-8
493.294	1	-4
494.486	1	1
495.678	1	1
496.870	1	0
498.062	1	-3
499.254	1	1
500.446	1	-5
501.638	1	1
502.829	1	-3
504.021	1	7
505.213	1	2
506.404	1	8
507.596	1	4
508.788	1	13
509.979	1	-2
511.171	1	2
512.362	1	-6
513.553	1	-5
514.745	1	-6
515.936	1	2
517.127	1	2
518.319	1	7
519.510	1	8
520.701	1	1
521.892	1	1
523.083	1	-5
524.274	1	9
525.465	1	8
526.656	1	-5
527.847	1	7
529.038	1	1
530.229	1	-1
531.419	1	12
532.610	1	-8
533.801	1	18
534.991	1	3
536.182	1	10
537.373	1	-2
538.563	1	14
539.754	1	12
540.944	1	0
542.134	1	8
543.325	1	-6
544.515	1	-2
545.705	1	11
546.896	1	3
548.086	1	-1
549.276	1	6
550.466	1	5
551.656	1	-1
552.846	1	4
554.036	1	-2
555.226	1	0
556.416	1	-1
557.606	1	-3
558.796	1	11
559.986	1	0
561.175	1	0
562.365	1	4
563.555	1	6
564.744	1	8
565.934	1	8
567.123	1	-2
568.313	1	9
569.502	1	4
570.692	1	14
571.881	1	16
573.070	1	11
574.260	1	21
575.449	1	3
576.638	1	1
577.827	1	4
579.016	1	14
580.205	1	0
581.394	1	0
582.583	1	21
583.772	1	9
584.961	1	1
586.150	1	5
587.339	1	13
588.528	1	-3
589.717	1	2
590.905	1	0
592.094	1	0
593.283	1	8
594.471	1	10
595.660	1	7
596.848	1	-1
598.037	1	-2
599.225	1	-12
600.413	1	12
601.602	1	10
602.790	1	-3
603.978	1	-3
605.166	1	2
606.355	1	11
607.543	1	1
608.731	1	4
609.919	1	7
611.107	1	-2
612.295	1	4
613.483	1	6
614.671	1	2
615.858	1	11
617.046	1	-1
618.234	1	-12
619.422	1	-2
620.609	1	-2
621.797	1	0
622.985	1	-4
624.172	1	4
625.360	1	-1
626.547	1	0
627.735	1	9
628.922	1	10
630.109	1	-6
631.297	1	1
632.484	1	-6
633.671	1	-3
634.858	1	6
636.045	1	4
637.232	1	0
638.419	1	-6
639.606	1	14
640.793	1	8
641.980	1	9
643.167	1	-2
644.354	1	1
645.541	1	-3
646.728	1	9
647.914	1	-2
649.101	1	-1
650.288	1	5
651.474	1	-1
652.661	1	2
653.847	1	12
655.034	1	5
656.220	1	-1
657.406	1	5
658.593	1	12
659.779	1	3
660.965	1	15
662.152	1	2
663.338	1	10
664.524	1	-1
665.710	1	0
666.896	1	-1
668.082	1	2
669.268	1	0
670.454	1	10
671.640	1	13
672.826	1	4
674.011	1	-5
675.197	1	-1
676.383	1	8
677.569	1	-10
678.754	1	4
679.940	1	-6
681.125	1	-2
682.311	1	3
683.496	1	7
684.682	1	-3
685.867	1	2
687.053	1	5
688.238	1	5
688.746	1	7