File: Data/GaN_200K_800ms/GaN_sample F_spot 12_UVVIS_200 K_200um_800 ms 2x2mm1_39.txt
340.368	1	9
341.565	1	-6
342.763	1	3
343.960	1	6
345.157	1	11
346.354	1	12
347.552	1	13
348.749	1	12
349.946	1	5
351.143	1	14
352.340	1	28
353.537	1	13
354.734	1	29
355.931	1	39
357.127	1	56
358.324	1	71
359.521	1	101
360.718	1	129
361.914	1	217
363.111	1	313
364.308	1	482
365.504	1	771
366.701	1	1134
367.897	1	1575
369.093	1	1860
370.290	1	1953
371.486	1	1692
372.682	1	1370
373.879	1	1112
375.075	1	909
376.271	1	747
377.467	1	595
378.663	1	486
379.859	1	391
381.055	1	311
382.251	1	255
383.447	1	232
384.643	1	209
385.839	1	185
387.035	1	167
388.230	1	125
389.426	1	111
390.622	1	104
391.817	1	94
393.013	1	89
394.208	1	66
395.404	1	62
396.599	1	58
397.795	1	55
398.990	1	58
400.186	1	51
401.381	1	37
402.576	1	38
403.771	1	39
404.967	1	37
406.162	1	38
407.357	1	38
408.552	1	24
409.747	1	34
410.942	1	30
412.137	1	28
413.332	1	27
414.526	1	14
415.721	1	22
416.916	1	19
418.111	1	16
419.305	1	26
420.500	1	9
421.695	1	16
422.889	1	12
424.084	1	14
425.278	1	22
426.472	1	22
427.667	1	22
428.861	1	19
430.055	1	16
431.250	1	15
432.444	1	19
433.638	1	7
434.832	1	15
436.026	1	15
437.220	1	19
438.414	1	13
439.608	1	7
440.802	1	8
441.996	1	16
443.190	1	16
444.384	1	6
445.578	1	-2
446.771	1	15
447.965	1	14
449.159	1	7
450.352	1	10
451.546	1	7
452.739	1	8
453.933	1	16
455.126	1	7
456.320	1	17
457.513	1	23
458.706	1	13
459.899	1	9
461.093	1	18
462.286	1	16
463.479	1	11
464.672	1	5
465.865	1	10
467.058	1	9
468.251	1	15
469.444	1	3
470.637	1	16
471.830	1	8
473.023	1	19
474.215	1	13
475.408	1	22
476.601	1	13
477.793	1	14
478.986	1	14
480.179	1	26
481.371	1	18
482.564	1	24
483.756	1	21
484.948	1	19
486.141	1	22
487.333	1	33
488.525	1	28
489.718	1	37
490.910	1	36
492.102	1	38
493.294	1	27
494.486	1	38
495.678	1	39
496.870	1	45
498.062	1	50
499.254	1	58
500.446	1	42
501.638	1	52
502.829	1	55
504.021	1	62
505.213	1	70
506.404	1	75
507.596	1	77
508.788	1	78
509.979	1	84
511.171	1	86
512.362	1	88
513.553	1	82
514.745	1	78
515.936	1	96
517.127	1	98
518.319	1	107
519.510	1	114
520.701	1	117
521.892	1	114
523.083	1	127
524.274	1	117
525.465	1	129
526.656	1	123
527.847	1	135
529.038	1	148
530.229	1	148
531.419	1	150
532.610	1	155
533.801	1	174
534.991	1	157
536.182	1	163
537.373	1	150
538.563	1	167
539.754	1	156
540.944	1	164
542.134	1	167
543.325	1	158
544.515	1	157
545.705	1	167
546.896	1	170
548.086	1	190
549.276	1	185
550.466	1	214
551.656	1	207
552.846	1	204
554.036	1	202
555.226	1	179
556.416	1	171
557.606	1	172
558.796	1	193
559.986	1	196
561.175	1	190
562.365	1	199
563.555	1	185
564.744	1	181
565.934	1	175
567.123	1	196
568.313	1	193
569.502	1	189
570.692	1	192
571.881	1	191
573.070	1	180
574.260	1	185
575.449	1	183
576.638	1	182
577.827	1	192
579.016	1	185
580.205	1	184
581.394	1	169
582.583	1	190
583.772	1	193
584.961	1	174
586.150	1	176
587.339	1	174
588.528	1	175
589.717	1	166
590.905	1	147
592.094	1	154
593.283	1	147
594.471	1	160
595.660	1	142
596.848	1	148
598.037	1	129
599.225	1	132
600.413	1	146
601.602	1	146
602.790	1	135
603.978	1	134
605.166	1	155
606.355	1	140
607.543	1	151
608.731	1	143
609.919	1	148
611.107	1	132
612.295	1	118
613.483	1	126
614.671	1	129
615.858	1	123
617.046	1	117
618.234	1	111
619.422	1	97
620.609	1	108
621.797	1	97
622.985	1	103
624.172	1	102
625.360	1	101
626.547	1	93
627.735	1	98
628.922	1	100
630.109	1	89
631.297	1	91
632.484	1	86
633.671	1	84
634.858	1	88
636.045	1	92
637.232	1	80
638.419	1	87
639.606	1	71
640.793	1	81
641.980	1	89
643.167	1	62
644.354	1	79
645.541	1	76
646.728	1	74
647.914	1	66
649.101	1	67
650.288	1	72
651.474	1	52
652.661	1	56
653.847	1	66
655.034	1	58
656.220	1	47
657.406	1	65
658.593	1	62
659.779	1	54
660.965	1	65
662.152	1	57
663.338	1	51
664.524	1	46
665.710	1	41
666.896	1	47
668.082	1	50
669.268	1	42
670.454	1	47
671.640	1	40
672.826	1	45
674.011	1	41
675.197	1	38
676.383	1	45
677.569	1	36
678.754	1	39
679.940	1	43
681.125	1	42
682.311	1	48
683.496	1	45
684.682	1	36
685.867	1	38
687.053	1	38
688.238	1	40
688.746	1	29