File: Data/GaN_200K_800ms/GaN_sample F_spot 12_UVVIS_200 K_200um_800 ms 2x2mm1_531.txt
340.368	1	1
341.565	1	-19
342.763	1	2
343.960	1	5
345.157	1	-2
346.354	1	2
347.552	1	-9
348.749	1	-6
349.946	1	-5
351.143	1	-1
352.340	1	0
353.537	1	-2
354.734	1	-2
355.931	1	1
357.127	1	0
358.324	1	-4
359.521	1	7
360.718	1	-3
361.914	1	3
363.111	1	2
364.308	1	-5
365.504	1	10
366.701	1	8
367.897	1	7
369.093	1	-2
370.290	1	4
371.486	1	14
372.682	1	4
373.879	1	3
375.075	1	0
376.271	1	12
377.467	1	0
378.663	1	7
379.859	1	-3
381.055	1	12
382.251	1	-4
383.447	1	1
384.643	1	3
385.839	1	4
387.035	1	0
388.230	1	12
389.426	1	6
390.622	1	3
391.817	1	5
393.013	1	3
394.208	1	0
395.404	1	-3
396.599	1	-4
397.795	1	1
398.990	1	7
400.186	1	0
401.381	1	-9
402.576	1	1
403.771	1	-3
404.967	1	7
406.162	1	-1
407.357	1	-4
408.552	1	-3
409.747	1	1
410.942	1	9
412.137	1	10
413.332	1	-1
414.526	1	-1
415.721	1	-8
416.916	1	-6
418.111	1	-5
419.305	1	0
420.500	1	-8
421.695	1	3
422.889	1	-14
424.084	1	0
425.278	1	8
426.472	1	1
427.667	1	5
428.861	1	-9
430.055	1	1
431.250	1	-4
432.444	1	0
433.638	1	2
434.832	1	0
436.026	1	6
437.220	1	4
438.414	1	-6
439.608	1	-13
440.802	1	-8
441.996	1	-2
443.190	1	-1
444.384	1	-4
445.578	1	-9
446.771	1	5
447.965	1	4
449.159	1	-4
450.352	1	2
451.546	1	4
452.739	1	-5
453.933	1	-9
455.126	1	2
456.320	1	-2
457.513	1	3
458.706	1	4
459.899	1	-3
461.093	1	0
462.286	1	2
463.479	1	-7
464.672	1	1
465.865	1	-7
467.058	1	3
468.251	1	-1
469.444	1	-13
470.637	1	-2
471.830	1	3
473.023	1	5
474.215	1	4
475.408	1	-4
476.601	1	5
477.793	1	-6
478.986	1	1
480.179	1	9
481.371	1	6
482.564	1	10
483.756	1	13
484.948	1	-8
486.141	1	-3
487.333	1	1
488.525	1	6
489.718	1	-4
490.910	1	-6
492.102	1	2
493.294	1	-7
494.486	1	5
495.678	1	-4
496.870	1	-6
498.062	1	-3
499.254	1	-4
500.446	1	-11
501.638	1	2
502.829	1	2
504.021	1	6
505.213	1	2
506.404	1	0
507.596	1	-5
508.788	1	17
509.979	1	-10
511.171	1	3
512.362	1	-2
513.553	1	-4
514.745	1	-8
515.936	1	2
517.127	1	0
518.319	1	-6
519.510	1	2
520.701	1	1
521.892	1	3
523.083	1	-9
524.274	1	-2
525.465	1	8
526.656	1	-5
527.847	1	5
529.038	1	2
530.229	1	-1
531.419	1	4
532.610	1	-1
533.801	1	15
534.991	1	-2
536.182	1	2
537.373	1	1
538.563	1	12
539.754	1	4
540.944	1	-1
542.134	1	-1
543.325	1	2
544.515	1	-4
545.705	1	-9
546.896	1	-4
548.086	1	4
549.276	1	-1
550.466	1	-3
551.656	1	2
552.846	1	3
554.036	1	-1
555.226	1	-8
556.416	1	-4
557.606	1	2
558.796	1	-5
559.986	1	-3
561.175	1	-1
562.365	1	6
563.555	1	-4
564.744	1	2
565.934	1	1
567.123	1	6
568.313	1	1
569.502	1	6
570.692	1	5
571.881	1	9
573.070	1	7
574.260	1	11
575.449	1	-2
576.638	1	-7
577.827	1	-2
579.016	1	12
580.205	1	-9
581.394	1	-3
582.583	1	7
583.772	1	0
584.961	1	1
586.150	1	0
587.339	1	-8
588.528	1	-3
589.717	1	8
590.905	1	1
592.094	1	3
593.283	1	0
594.471	1	18
595.660	1	-1
596.848	1	-11
598.037	1	-7
599.225	1	-7
600.413	1	7
601.602	1	9
602.790	1	-3
603.978	1	5
605.166	1	3
606.355	1	-2
607.543	1	-3
608.731	1	-3
609.919	1	12
611.107	1	-2
612.295	1	-14
613.483	1	6
614.671	1	-7
615.858	1	4
617.046	1	0
618.234	1	-3
619.422	1	-7
620.609	1	7
621.797	1	-2
622.985	1	-2
624.172	1	-1
625.360	1	-2
626.547	1	-1
627.735	1	0
628.922	1	5
630.109	1	-2
631.297	1	-4
632.484	1	-9
633.671	1	-1
634.858	1	3
636.045	1	13
637.232	1	-5
638.419	1	-14
639.606	1	13
640.793	1	2
641.980	1	0
643.167	1	-3
644.354	1	2
645.541	1	-3
646.728	1	0
647.914	1	-1
649.101	1	-4
650.288	1	6
651.474	1	-6
652.661	1	-6
653.847	1	3
655.034	1	4
656.220	1	-8
657.406	1	3
658.593	1	-3
659.779	1	-5
660.965	1	9
662.152	1	4
663.338	1	2
664.524	1	10
665.710	1	4
666.896	1	-10
668.082	1	2
669.268	1	-7
670.454	1	6
671.640	1	1
672.826	1	-4
674.011	1	2
675.197	1	-8
676.383	1	4
677.569	1	-1
678.754	1	-11
679.940	1	-4
681.125	1	7
682.311	1	6
683.496	1	-5
684.682	1	1
685.867	1	7
687.053	1	-9
688.238	1	2
688.746	1	-4