File: Data/GaN_200K_800ms/GaN_sample F_spot 12_UVVIS_200 K_200um_800 ms 2x2mm1_205.txt
340.368	1	5
341.565	1	-8
342.763	1	4
343.960	1	2
345.157	1	2
346.354	1	6
347.552	1	4
348.749	1	-4
349.946	1	-11
351.143	1	2
352.340	1	6
353.537	1	3
354.734	1	4
355.931	1	-1
357.127	1	-1
358.324	1	-3
359.521	1	6
360.718	1	11
361.914	1	1
363.111	1	10
364.308	1	9
365.504	1	25
366.701	1	25
367.897	1	35
369.093	1	24
370.290	1	34
371.486	1	36
372.682	1	28
373.879	1	23
375.075	1	7
376.271	1	18
377.467	1	16
378.663	1	7
379.859	1	20
381.055	1	16
382.251	1	6
383.447	1	6
384.643	1	12
385.839	1	-5
387.035	1	3
388.230	1	13
389.426	1	1
390.622	1	-1
391.817	1	-1
393.013	1	0
394.208	1	-1
395.404	1	2
396.599	1	2
397.795	1	-5
398.990	1	-4
400.186	1	5
401.381	1	6
402.576	1	-1
403.771	1	8
404.967	1	9
406.162	1	6
407.357	1	-1
408.552	1	0
409.747	1	-1
410.942	1	11
412.137	1	7
413.332	1	1
414.526	1	6
415.721	1	11
416.916	1	7
418.111	1	3
419.305	1	6
420.500	1	0
421.695	1	4
422.889	1	-3
424.084	1	-8
425.278	1	3
426.472	1	-2
427.667	1	6
428.861	1	-2
430.055	1	1
431.250	1	2
432.444	1	8
433.638	1	1
434.832	1	-1
436.026	1	4
437.220	1	0
438.414	1	-4
439.608	1	-10
440.802	1	-2
441.996	1	9
443.190	1	1
444.384	1	-13
445.578	1	-13
446.771	1	10
447.965	1	-7
449.159	1	-8
450.352	1	-5
451.546	1	-4
452.739	1	9
453.933	1	1
455.126	1	2
456.320	1	-2
457.513	1	11
458.706	1	6
459.899	1	-3
461.093	1	7
462.286	1	-3
463.479	1	1
464.672	1	0
465.865	1	-10
467.058	1	2
468.251	1	0
469.444	1	-11
470.637	1	12
471.830	1	-3
473.023	1	3
474.215	1	9
475.408	1	-5
476.601	1	1
477.793	1	-6
478.986	1	-2
480.179	1	0
481.371	1	0
482.564	1	-5
483.756	1	8
484.948	1	4
486.141	1	-8
487.333	1	-1
488.525	1	-4
489.718	1	-1
490.910	1	-3
492.102	1	-3
493.294	1	-4
494.486	1	6
495.678	1	0
496.870	1	13
498.062	1	7
499.254	1	-6
500.446	1	-8
501.638	1	-2
502.829	1	1
504.021	1	1
505.213	1	9
506.404	1	2
507.596	1	8
508.788	1	16
509.979	1	-1
511.171	1	-5
512.362	1	-6
513.553	1	-8
514.745	1	-4
515.936	1	-11
517.127	1	2
518.319	1	2
519.510	1	2
520.701	1	2
521.892	1	6
523.083	1	-12
524.274	1	-2
525.465	1	12
526.656	1	3
527.847	1	4
529.038	1	8
530.229	1	11
531.419	1	4
532.610	1	7
533.801	1	12
534.991	1	5
536.182	1	0
537.373	1	6
538.563	1	12
539.754	1	2
540.944	1	-5
542.134	1	6
543.325	1	-1
544.515	1	5
545.705	1	2
546.896	1	7
548.086	1	9
549.276	1	0
550.466	1	6
551.656	1	9
552.846	1	4
554.036	1	0
555.226	1	2
556.416	1	3
557.606	1	0
558.796	1	9
559.986	1	1
561.175	1	4
562.365	1	10
563.555	1	-1
564.744	1	14
565.934	1	6
567.123	1	4
568.313	1	6
569.502	1	3
570.692	1	-3
571.881	1	8
573.070	1	5
574.260	1	11
575.449	1	-3
576.638	1	13
577.827	1	0
579.016	1	12
580.205	1	5
581.394	1	-1
582.583	1	18
583.772	1	9
584.961	1	8
586.150	1	-1
587.339	1	8
588.528	1	7
589.717	1	4
590.905	1	3
592.094	1	-1
593.283	1	1
594.471	1	14
595.660	1	9
596.848	1	9
598.037	1	3
599.225	1	-5
600.413	1	6
601.602	1	13
602.790	1	3
603.978	1	9
605.166	1	-1
606.355	1	9
607.543	1	-2
608.731	1	6
609.919	1	9
611.107	1	4
612.295	1	2
613.483	1	0
614.671	1	-2
615.858	1	8
617.046	1	-5
618.234	1	-5
619.422	1	-8
620.609	1	6
621.797	1	-12
622.985	1	3
624.172	1	1
625.360	1	5
626.547	1	7
627.735	1	0
628.922	1	7
630.109	1	-8
631.297	1	2
632.484	1	-4
633.671	1	-6
634.858	1	-1
636.045	1	7
637.232	1	-3
638.419	1	1
639.606	1	11
640.793	1	13
641.980	1	10
643.167	1	-6
644.354	1	8
645.541	1	6
646.728	1	4
647.914	1	3
649.101	1	-6
650.288	1	5
651.474	1	0
652.661	1	1
653.847	1	6
655.034	1	8
656.220	1	3
657.406	1	7
658.593	1	3
659.779	1	0
660.965	1	5
662.152	1	5
663.338	1	8
664.524	1	6
665.710	1	-2
666.896	1	-9
668.082	1	4
669.268	1	1
670.454	1	3
671.640	1	4
672.826	1	-1
674.011	1	-3
675.197	1	-13
676.383	1	4
677.569	1	-2
678.754	1	0
679.940	1	0
681.125	1	2
682.311	1	8
683.496	1	-1
684.682	1	-4
685.867	1	4
687.053	1	1
688.238	1	14
688.746	1	-2