File: Data/GaN_200K_800ms/GaN_sample F_spot 12_UVVIS_200 K_200um_800 ms 2x2mm1_73.txt
340.368	1	8
341.565	1	-6
342.763	1	7
343.960	1	4
345.157	1	-1
346.354	1	9
347.552	1	-1
348.749	1	0
349.946	1	-6
351.143	1	5
352.340	1	17
353.537	1	15
354.734	1	22
355.931	1	11
357.127	1	16
358.324	1	17
359.521	1	26
360.718	1	40
361.914	1	48
363.111	1	53
364.308	1	70
365.504	1	106
366.701	1	138
367.897	1	152
369.093	1	190
370.290	1	183
371.486	1	161
372.682	1	140
373.879	1	121
375.075	1	99
376.271	1	97
377.467	1	79
378.663	1	66
379.859	1	55
381.055	1	51
382.251	1	35
383.447	1	34
384.643	1	44
385.839	1	32
387.035	1	24
388.230	1	23
389.426	1	28
390.622	1	9
391.817	1	13
393.013	1	12
394.208	1	11
395.404	1	14
396.599	1	7
397.795	1	3
398.990	1	5
400.186	1	13
401.381	1	6
402.576	1	-2
403.771	1	13
404.967	1	-2
406.162	1	12
407.357	1	7
408.552	1	3
409.747	1	1
410.942	1	8
412.137	1	14
413.332	1	8
414.526	1	4
415.721	1	4
416.916	1	-2
418.111	1	5
419.305	1	7
420.500	1	-7
421.695	1	-5
422.889	1	-1
424.084	1	3
425.278	1	14
426.472	1	4
427.667	1	8
428.861	1	6
430.055	1	13
431.250	1	-5
432.444	1	13
433.638	1	-1
434.832	1	15
436.026	1	6
437.220	1	3
438.414	1	-4
439.608	1	-5
440.802	1	-5
441.996	1	9
443.190	1	1
444.384	1	-2
445.578	1	-3
446.771	1	20
447.965	1	0
449.159	1	-1
450.352	1	6
451.546	1	-3
452.739	1	4
453.933	1	-2
455.126	1	4
456.320	1	6
457.513	1	13
458.706	1	8
459.899	1	6
461.093	1	-2
462.286	1	6
463.479	1	8
464.672	1	3
465.865	1	-6
467.058	1	8
468.251	1	1
469.444	1	3
470.637	1	11
471.830	1	6
473.023	1	10
474.215	1	5
475.408	1	-2
476.601	1	4
477.793	1	11
478.986	1	-6
480.179	1	-2
481.371	1	5
482.564	1	6
483.756	1	10
484.948	1	1
486.141	1	-4
487.333	1	8
488.525	1	3
489.718	1	7
490.910	1	3
492.102	1	-1
493.294	1	4
494.486	1	11
495.678	1	17
496.870	1	11
498.062	1	6
499.254	1	1
500.446	1	-5
501.638	1	5
502.829	1	9
504.021	1	5
505.213	1	16
506.404	1	10
507.596	1	16
508.788	1	27
509.979	1	6
511.171	1	9
512.362	1	3
513.553	1	7
514.745	1	9
515.936	1	20
517.127	1	11
518.319	1	11
519.510	1	18
520.701	1	19
521.892	1	10
523.083	1	15
524.274	1	10
525.465	1	17
526.656	1	10
527.847	1	12
529.038	1	14
530.229	1	20
531.419	1	18
532.610	1	15
533.801	1	26
534.991	1	17
536.182	1	15
537.373	1	14
538.563	1	16
539.754	1	25
540.944	1	20
542.134	1	30
543.325	1	18
544.515	1	12
545.705	1	22
546.896	1	21
548.086	1	22
549.276	1	15
550.466	1	25
551.656	1	25
552.846	1	24
554.036	1	28
555.226	1	23
556.416	1	11
557.606	1	17
558.796	1	13
559.986	1	14
561.175	1	19
562.365	1	24
563.555	1	20
564.744	1	20
565.934	1	30
567.123	1	25
568.313	1	17
569.502	1	14
570.692	1	21
571.881	1	32
573.070	1	8
574.260	1	19
575.449	1	16
576.638	1	9
577.827	1	13
579.016	1	40
580.205	1	17
581.394	1	9
582.583	1	29
583.772	1	10
584.961	1	22
586.150	1	29
587.339	1	18
588.528	1	19
589.717	1	24
590.905	1	6
592.094	1	10
593.283	1	10
594.471	1	22
595.660	1	24
596.848	1	11
598.037	1	17
599.225	1	6
600.413	1	25
601.602	1	18
602.790	1	12
603.978	1	13
605.166	1	17
606.355	1	17
607.543	1	20
608.731	1	10
609.919	1	12
611.107	1	16
612.295	1	3
613.483	1	25
614.671	1	17
615.858	1	15
617.046	1	12
618.234	1	9
619.422	1	3
620.609	1	12
621.797	1	11
622.985	1	5
624.172	1	9
625.360	1	18
626.547	1	10
627.735	1	18
628.922	1	14
630.109	1	-4
631.297	1	14
632.484	1	7
633.671	1	6
634.858	1	0
636.045	1	25
637.232	1	5
638.419	1	2
639.606	1	18
640.793	1	18
641.980	1	8
643.167	1	5
644.354	1	10
645.541	1	5
646.728	1	7
647.914	1	6
649.101	1	6
650.288	1	12
651.474	1	8
652.661	1	3
653.847	1	12
655.034	1	3
656.220	1	2
657.406	1	12
658.593	1	18
659.779	1	10
660.965	1	17
662.152	1	10
663.338	1	7
664.524	1	3
665.710	1	6
666.896	1	3
668.082	1	16
669.268	1	1
670.454	1	17
671.640	1	9
672.826	1	7
674.011	1	8
675.197	1	-8
676.383	1	12
677.569	1	9
678.754	1	7
679.940	1	14
681.125	1	9
682.311	1	10
683.496	1	6
684.682	1	-3
685.867	1	3
687.053	1	10
688.238	1	8
688.746	1	9