File: Data/GaN_200K_800ms/GaN_sample F_spot 12_UVVIS_200 K_200um_800 ms 2x2mm1_165.txt
340.368	1	3
341.565	1	-13
342.763	1	1
343.960	1	-6
345.157	1	-6
346.354	1	0
347.552	1	-6
348.749	1	-7
349.946	1	-5
351.143	1	-10
352.340	1	8
353.537	1	4
354.734	1	13
355.931	1	5
357.127	1	-4
358.324	1	-9
359.521	1	10
360.718	1	7
361.914	1	12
363.111	1	6
364.308	1	13
365.504	1	43
366.701	1	36
367.897	1	42
369.093	1	33
370.290	1	48
371.486	1	46
372.682	1	44
373.879	1	20
375.075	1	33
376.271	1	24
377.467	1	22
378.663	1	10
379.859	1	18
381.055	1	17
382.251	1	5
383.447	1	14
384.643	1	13
385.839	1	11
387.035	1	17
388.230	1	19
389.426	1	1
390.622	1	12
391.817	1	8
393.013	1	5
394.208	1	-2
395.404	1	1
396.599	1	2
397.795	1	4
398.990	1	5
400.186	1	4
401.381	1	-9
402.576	1	4
403.771	1	3
404.967	1	-2
406.162	1	14
407.357	1	-2
408.552	1	1
409.747	1	1
410.942	1	12
412.137	1	2
413.332	1	4
414.526	1	1
415.721	1	2
416.916	1	2
418.111	1	-2
419.305	1	2
420.500	1	-3
421.695	1	-5
422.889	1	-22
424.084	1	0
425.278	1	13
426.472	1	-4
427.667	1	3
428.861	1	1
430.055	1	6
431.250	1	-4
432.444	1	4
433.638	1	-2
434.832	1	0
436.026	1	2
437.220	1	-8
438.414	1	3
439.608	1	-6
440.802	1	-1
441.996	1	1
443.190	1	0
444.384	1	-8
445.578	1	-4
446.771	1	11
447.965	1	1
449.159	1	-2
450.352	1	5
451.546	1	2
452.739	1	12
453.933	1	8
455.126	1	-7
456.320	1	-8
457.513	1	12
458.706	1	9
459.899	1	1
461.093	1	0
462.286	1	3
463.479	1	1
464.672	1	-6
465.865	1	-7
467.058	1	4
468.251	1	1
469.444	1	-9
470.637	1	0
471.830	1	1
473.023	1	4
474.215	1	17
475.408	1	7
476.601	1	-5
477.793	1	4
478.986	1	-2
480.179	1	6
481.371	1	-1
482.564	1	-2
483.756	1	8
484.948	1	-4
486.141	1	1
487.333	1	4
488.525	1	2
489.718	1	-2
490.910	1	-3
492.102	1	-1
493.294	1	0
494.486	1	10
495.678	1	-5
496.870	1	3
498.062	1	4
499.254	1	-3
500.446	1	-14
501.638	1	6
502.829	1	3
504.021	1	2
505.213	1	5
506.404	1	5
507.596	1	6
508.788	1	10
509.979	1	-3
511.171	1	0
512.362	1	-4
513.553	1	-7
514.745	1	1
515.936	1	-11
517.127	1	7
518.319	1	4
519.510	1	6
520.701	1	1
521.892	1	-2
523.083	1	9
524.274	1	-3
525.465	1	11
526.656	1	2
527.847	1	9
529.038	1	-6
530.229	1	11
531.419	1	12
532.610	1	-7
533.801	1	16
534.991	1	3
536.182	1	3
537.373	1	3
538.563	1	11
539.754	1	11
540.944	1	-12
542.134	1	2
543.325	1	10
544.515	1	3
545.705	1	-9
546.896	1	1
548.086	1	6
549.276	1	1
550.466	1	3
551.656	1	13
552.846	1	1
554.036	1	9
555.226	1	-10
556.416	1	-9
557.606	1	9
558.796	1	5
559.986	1	5
561.175	1	11
562.365	1	11
563.555	1	6
564.744	1	5
565.934	1	16
567.123	1	10
568.313	1	5
569.502	1	1
570.692	1	19
571.881	1	11
573.070	1	6
574.260	1	10
575.449	1	6
576.638	1	-6
577.827	1	9
579.016	1	16
580.205	1	-4
581.394	1	3
582.583	1	12
583.772	1	20
584.961	1	0
586.150	1	8
587.339	1	16
588.528	1	-5
589.717	1	8
590.905	1	1
592.094	1	-3
593.283	1	6
594.471	1	17
595.660	1	6
596.848	1	4
598.037	1	6
599.225	1	1
600.413	1	9
601.602	1	7
602.790	1	-1
603.978	1	9
605.166	1	-2
606.355	1	12
607.543	1	-5
608.731	1	-1
609.919	1	12
611.107	1	-7
612.295	1	1
613.483	1	3
614.671	1	9
615.858	1	8
617.046	1	9
618.234	1	5
619.422	1	-9
620.609	1	2
621.797	1	7
622.985	1	2
624.172	1	-8
625.360	1	5
626.547	1	-2
627.735	1	-2
628.922	1	4
630.109	1	-3
631.297	1	1
632.484	1	-2
633.671	1	4
634.858	1	1
636.045	1	6
637.232	1	3
638.419	1	-3
639.606	1	9
640.793	1	7
641.980	1	10
643.167	1	-1
644.354	1	5
645.541	1	4
646.728	1	-5
647.914	1	7
649.101	1	-5
650.288	1	3
651.474	1	-3
652.661	1	-1
653.847	1	5
655.034	1	4
656.220	1	-6
657.406	1	7
658.593	1	12
659.779	1	1
660.965	1	9
662.152	1	3
663.338	1	12
664.524	1	0
665.710	1	6
666.896	1	5
668.082	1	6
669.268	1	-1
670.454	1	8
671.640	1	12
672.826	1	2
674.011	1	3
675.197	1	-9
676.383	1	2
677.569	1	-4
678.754	1	-2
679.940	1	3
681.125	1	4
682.311	1	9
683.496	1	2
684.682	1	-7
685.867	1	-6
687.053	1	2
688.238	1	4
688.746	1	4