File: Data/GaN_200K_800ms/GaN_sample F_spot 12_UVVIS_200 K_200um_800 ms 2x2mm1_6.txt
340.368	1	-4
341.565	1	2
342.763	1	2
343.960	1	-2
345.157	1	1
346.354	1	-2
347.552	1	-6
348.749	1	-6
349.946	1	-3
351.143	1	-1
352.340	1	4
353.537	1	6
354.734	1	2
355.931	1	0
357.127	1	-4
358.324	1	-8
359.521	1	4
360.718	1	0
361.914	1	14
363.111	1	-3
364.308	1	-1
365.504	1	7
366.701	1	-1
367.897	1	1
369.093	1	-2
370.290	1	0
371.486	1	7
372.682	1	4
373.879	1	-8
375.075	1	-5
376.271	1	-8
377.467	1	-13
378.663	1	-4
379.859	1	4
381.055	1	2
382.251	1	1
383.447	1	1
384.643	1	4
385.839	1	0
387.035	1	2
388.230	1	9
389.426	1	-3
390.622	1	9
391.817	1	7
393.013	1	0
394.208	1	5
395.404	1	-9
396.599	1	-9
397.795	1	4
398.990	1	3
400.186	1	-2
401.381	1	-4
402.576	1	0
403.771	1	0
404.967	1	0
406.162	1	12
407.357	1	-5
408.552	1	-6
409.747	1	6
410.942	1	5
412.137	1	4
413.332	1	0
414.526	1	0
415.721	1	2
416.916	1	-6
418.111	1	-3
419.305	1	3
420.500	1	5
421.695	1	0
422.889	1	-7
424.084	1	2
425.278	1	14
426.472	1	-1
427.667	1	12
428.861	1	-1
430.055	1	5
431.250	1	5
432.444	1	7
433.638	1	-7
434.832	1	1
436.026	1	2
437.220	1	7
438.414	1	-12
439.608	1	-12
440.802	1	-3
441.996	1	5
443.190	1	2
444.384	1	-11
445.578	1	-14
446.771	1	5
447.965	1	0
449.159	1	-5
450.352	1	-1
451.546	1	7
452.739	1	7
453.933	1	-7
455.126	1	-10
456.320	1	0
457.513	1	6
458.706	1	-3
459.899	1	11
461.093	1	4
462.286	1	2
463.479	1	-1
464.672	1	-4
465.865	1	-2
467.058	1	0
468.251	1	-1
469.444	1	1
470.637	1	4
471.830	1	-1
473.023	1	-5
474.215	1	11
475.408	1	3
476.601	1	3
477.793	1	1
478.986	1	-2
480.179	1	6
481.371	1	1
482.564	1	3
483.756	1	7
484.948	1	-12
486.141	1	-1
487.333	1	2
488.525	1	-5
489.718	1	4
490.910	1	0
492.102	1	-4
493.294	1	-2
494.486	1	0
495.678	1	4
496.870	1	-2
498.062	1	4
499.254	1	2
500.446	1	-7
501.638	1	-3
502.829	1	-3
504.021	1	-1
505.213	1	-1
506.404	1	1
507.596	1	3
508.788	1	12
509.979	1	4
511.171	1	-8
512.362	1	-7
513.553	1	-2
514.745	1	-4
515.936	1	-5
517.127	1	2
518.319	1	-3
519.510	1	-3
520.701	1	-3
521.892	1	3
523.083	1	1
524.274	1	3
525.465	1	3
526.656	1	-1
527.847	1	-2
529.038	1	4
530.229	1	4
531.419	1	7
532.610	1	-5
533.801	1	12
534.991	1	4
536.182	1	-1
537.373	1	3
538.563	1	10
539.754	1	2
540.944	1	-1
542.134	1	0
543.325	1	-4
544.515	1	5
545.705	1	0
546.896	1	4
548.086	1	5
549.276	1	-6
550.466	1	3
551.656	1	2
552.846	1	-2
554.036	1	-9
555.226	1	-2
556.416	1	-2
557.606	1	1
558.796	1	-2
559.986	1	-8
561.175	1	3
562.365	1	2
563.555	1	-9
564.744	1	4
565.934	1	3
567.123	1	4
568.313	1	1
569.502	1	-3
570.692	1	-1
571.881	1	9
573.070	1	-1
574.260	1	5
575.449	1	5
576.638	1	-11
577.827	1	-5
579.016	1	9
580.205	1	-7
581.394	1	-9
582.583	1	17
583.772	1	4
584.961	1	-1
586.150	1	-11
587.339	1	-7
588.528	1	11
589.717	1	-1
590.905	1	-7
592.094	1	-6
593.283	1	1
594.471	1	8
595.660	1	9
596.848	1	7
598.037	1	-7
599.225	1	-12
600.413	1	5
601.602	1	5
602.790	1	1
603.978	1	7
605.166	1	2
606.355	1	-6
607.543	1	-3
608.731	1	2
609.919	1	5
611.107	1	-5
612.295	1	-9
613.483	1	4
614.671	1	5
615.858	1	-7
617.046	1	3
618.234	1	-3
619.422	1	-7
620.609	1	5
621.797	1	2
622.985	1	0
624.172	1	9
625.360	1	-3
626.547	1	6
627.735	1	5
628.922	1	-1
630.109	1	0
631.297	1	8
632.484	1	-3
633.671	1	0
634.858	1	-5
636.045	1	15
637.232	1	-6
638.419	1	-12
639.606	1	9
640.793	1	5
641.980	1	5
643.167	1	-3
644.354	1	5
645.541	1	3
646.728	1	-7
647.914	1	-4
649.101	1	4
650.288	1	3
651.474	1	-5
652.661	1	-3
653.847	1	7
655.034	1	2
656.220	1	-6
657.406	1	11
658.593	1	7
659.779	1	1
660.965	1	5
662.152	1	3
663.338	1	9
664.524	1	-6
665.710	1	1
666.896	1	-2
668.082	1	8
669.268	1	-8
670.454	1	7
671.640	1	3
672.826	1	1
674.011	1	-5
675.197	1	-6
676.383	1	10
677.569	1	-9
678.754	1	-5
679.940	1	0
681.125	1	9
682.311	1	6
683.496	1	10
684.682	1	-10
685.867	1	6
687.053	1	-8
688.238	1	4
688.746	1	3