File: Data/GaN_200K_800ms/GaN_sample F_spot 12_UVVIS_200 K_200um_800 ms 2x2mm1_369.txt
340.368	1	6
341.565	1	-11
342.763	1	5
343.960	1	5
345.157	1	-1
346.354	1	-4
347.552	1	-2
348.749	1	-7
349.946	1	-3
351.143	1	-1
352.340	1	-4
353.537	1	-5
354.734	1	4
355.931	1	6
357.127	1	5
358.324	1	1
359.521	1	2
360.718	1	-2
361.914	1	1
363.111	1	2
364.308	1	6
365.504	1	6
366.701	1	11
367.897	1	9
369.093	1	12
370.290	1	11
371.486	1	16
372.682	1	7
373.879	1	5
375.075	1	1
376.271	1	7
377.467	1	12
378.663	1	0
379.859	1	-7
381.055	1	13
382.251	1	1
383.447	1	1
384.643	1	10
385.839	1	0
387.035	1	1
388.230	1	5
389.426	1	0
390.622	1	-4
391.817	1	3
393.013	1	-3
394.208	1	-2
395.404	1	-1
396.599	1	-2
397.795	1	-2
398.990	1	7
400.186	1	-4
401.381	1	-14
402.576	1	-2
403.771	1	2
404.967	1	4
406.162	1	3
407.357	1	-7
408.552	1	-6
409.747	1	-5
410.942	1	4
412.137	1	11
413.332	1	-4
414.526	1	-5
415.721	1	-3
416.916	1	1
418.111	1	5
419.305	1	4
420.500	1	-18
421.695	1	0
422.889	1	-12
424.084	1	0
425.278	1	2
426.472	1	4
427.667	1	5
428.861	1	-4
430.055	1	0
431.250	1	-4
432.444	1	9
433.638	1	4
434.832	1	1
436.026	1	5
437.220	1	4
438.414	1	-7
439.608	1	-8
440.802	1	-3
441.996	1	-3
443.190	1	1
444.384	1	-2
445.578	1	-6
446.771	1	11
447.965	1	-4
449.159	1	-2
450.352	1	4
451.546	1	4
452.739	1	-2
453.933	1	-2
455.126	1	-3
456.320	1	-3
457.513	1	3
458.706	1	-10
459.899	1	-4
461.093	1	3
462.286	1	0
463.479	1	-3
464.672	1	-2
465.865	1	-6
467.058	1	-1
468.251	1	-4
469.444	1	-6
470.637	1	0
471.830	1	-4
473.023	1	2
474.215	1	10
475.408	1	0
476.601	1	-12
477.793	1	-2
478.986	1	1
480.179	1	0
481.371	1	2
482.564	1	8
483.756	1	8
484.948	1	-9
486.141	1	-1
487.333	1	2
488.525	1	-17
489.718	1	0
490.910	1	0
492.102	1	-4
493.294	1	-2
494.486	1	6
495.678	1	-6
496.870	1	1
498.062	1	5
499.254	1	-1
500.446	1	-4
501.638	1	-4
502.829	1	-1
504.021	1	-3
505.213	1	4
506.404	1	0
507.596	1	5
508.788	1	9
509.979	1	-1
511.171	1	-3
512.362	1	-8
513.553	1	-13
514.745	1	1
515.936	1	-2
517.127	1	0
518.319	1	-3
519.510	1	4
520.701	1	9
521.892	1	-1
523.083	1	-2
524.274	1	-8
525.465	1	3
526.656	1	-6
527.847	1	0
529.038	1	-5
530.229	1	-1
531.419	1	-1
532.610	1	-9
533.801	1	10
534.991	1	3
536.182	1	3
537.373	1	7
538.563	1	7
539.754	1	5
540.944	1	-3
542.134	1	6
543.325	1	-1
544.515	1	0
545.705	1	5
546.896	1	-3
548.086	1	-7
549.276	1	-3
550.466	1	4
551.656	1	9
552.846	1	-7
554.036	1	-3
555.226	1	-9
556.416	1	0
557.606	1	3
558.796	1	1
559.986	1	0
561.175	1	0
562.365	1	3
563.555	1	-5
564.744	1	7
565.934	1	9
567.123	1	7
568.313	1	3
569.502	1	1
570.692	1	9
571.881	1	10
573.070	1	1
574.260	1	9
575.449	1	-1
576.638	1	1
577.827	1	-5
579.016	1	7
580.205	1	0
581.394	1	-4
582.583	1	12
583.772	1	4
584.961	1	-2
586.150	1	0
587.339	1	2
588.528	1	1
589.717	1	3
590.905	1	3
592.094	1	-5
593.283	1	10
594.471	1	3
595.660	1	3
596.848	1	0
598.037	1	-5
599.225	1	-13
600.413	1	9
601.602	1	12
602.790	1	3
603.978	1	0
605.166	1	4
606.355	1	8
607.543	1	-2
608.731	1	-1
609.919	1	5
611.107	1	-1
612.295	1	-5
613.483	1	3
614.671	1	3
615.858	1	-1
617.046	1	-2
618.234	1	-1
619.422	1	-12
620.609	1	1
621.797	1	-5
622.985	1	-5
624.172	1	6
625.360	1	1
626.547	1	-4
627.735	1	1
628.922	1	2
630.109	1	-13
631.297	1	-3
632.484	1	-6
633.671	1	2
634.858	1	-6
636.045	1	10
637.232	1	-3
638.419	1	-4
639.606	1	4
640.793	1	4
641.980	1	11
643.167	1	3
644.354	1	6
645.541	1	7
646.728	1	-12
647.914	1	-8
649.101	1	-2
650.288	1	-2
651.474	1	0
652.661	1	-7
653.847	1	6
655.034	1	-3
656.220	1	-9
657.406	1	5
658.593	1	11
659.779	1	7
660.965	1	9
662.152	1	2
663.338	1	13
664.524	1	-3
665.710	1	-2
666.896	1	-2
668.082	1	-2
669.268	1	-3
670.454	1	2
671.640	1	-2
672.826	1	-3
674.011	1	0
675.197	1	-12
676.383	1	-1
677.569	1	-10
678.754	1	-9
679.940	1	-5
681.125	1	2
682.311	1	4
683.496	1	-9
684.682	1	-9
685.867	1	-10
687.053	1	0
688.238	1	1
688.746	1	0