File: Data/GaN_200K_800ms/GaN_sample F_spot 12_UVVIS_200 K_200um_800 ms 2x2mm1_166.txt
340.368	1	4
341.565	1	1
342.763	1	-1
343.960	1	1
345.157	1	-1
346.354	1	-3
347.552	1	-8
348.749	1	-6
349.946	1	-2
351.143	1	5
352.340	1	5
353.537	1	6
354.734	1	2
355.931	1	2
357.127	1	1
358.324	1	5
359.521	1	5
360.718	1	14
361.914	1	14
363.111	1	16
364.308	1	20
365.504	1	41
366.701	1	37
367.897	1	35
369.093	1	39
370.290	1	36
371.486	1	45
372.682	1	34
373.879	1	27
375.075	1	24
376.271	1	27
377.467	1	24
378.663	1	9
379.859	1	23
381.055	1	24
382.251	1	2
383.447	1	17
384.643	1	13
385.839	1	15
387.035	1	3
388.230	1	8
389.426	1	10
390.622	1	6
391.817	1	8
393.013	1	1
394.208	1	5
395.404	1	5
396.599	1	2
397.795	1	-4
398.990	1	7
400.186	1	1
401.381	1	1
402.576	1	9
403.771	1	8
404.967	1	2
406.162	1	1
407.357	1	-1
408.552	1	-6
409.747	1	7
410.942	1	16
412.137	1	0
413.332	1	4
414.526	1	-4
415.721	1	1
416.916	1	-8
418.111	1	2
419.305	1	-1
420.500	1	-8
421.695	1	0
422.889	1	-10
424.084	1	-8
425.278	1	8
426.472	1	4
427.667	1	6
428.861	1	-9
430.055	1	2
431.250	1	2
432.444	1	-1
433.638	1	0
434.832	1	9
436.026	1	5
437.220	1	2
438.414	1	-4
439.608	1	-6
440.802	1	-1
441.996	1	-2
443.190	1	-1
444.384	1	-10
445.578	1	-7
446.771	1	20
447.965	1	0
449.159	1	-7
450.352	1	-4
451.546	1	0
452.739	1	3
453.933	1	3
455.126	1	-8
456.320	1	-6
457.513	1	5
458.706	1	-3
459.899	1	6
461.093	1	3
462.286	1	0
463.479	1	-7
464.672	1	-5
465.865	1	-7
467.058	1	0
468.251	1	2
469.444	1	-8
470.637	1	3
471.830	1	2
473.023	1	9
474.215	1	5
475.408	1	9
476.601	1	5
477.793	1	-8
478.986	1	-1
480.179	1	-6
481.371	1	3
482.564	1	4
483.756	1	7
484.948	1	-11
486.141	1	5
487.333	1	7
488.525	1	0
489.718	1	-1
490.910	1	5
492.102	1	-3
493.294	1	-6
494.486	1	8
495.678	1	2
496.870	1	5
498.062	1	0
499.254	1	-3
500.446	1	-8
501.638	1	-3
502.829	1	6
504.021	1	6
505.213	1	9
506.404	1	1
507.596	1	-2
508.788	1	20
509.979	1	-5
511.171	1	1
512.362	1	4
513.553	1	-3
514.745	1	5
515.936	1	-2
517.127	1	4
518.319	1	4
519.510	1	4
520.701	1	1
521.892	1	4
523.083	1	-2
524.274	1	4
525.465	1	5
526.656	1	3
527.847	1	4
529.038	1	4
530.229	1	7
531.419	1	1
532.610	1	-3
533.801	1	23
534.991	1	2
536.182	1	2
537.373	1	4
538.563	1	7
539.754	1	4
540.944	1	-1
542.134	1	13
543.325	1	1
544.515	1	7
545.705	1	6
546.896	1	0
548.086	1	4
549.276	1	3
550.466	1	11
551.656	1	10
552.846	1	6
554.036	1	8
555.226	1	-5
556.416	1	7
557.606	1	11
558.796	1	8
559.986	1	-1
561.175	1	11
562.365	1	9
563.555	1	-1
564.744	1	10
565.934	1	18
567.123	1	3
568.313	1	9
569.502	1	-1
570.692	1	11
571.881	1	17
573.070	1	3
574.260	1	12
575.449	1	7
576.638	1	1
577.827	1	0
579.016	1	23
580.205	1	-8
581.394	1	5
582.583	1	19
583.772	1	13
584.961	1	12
586.150	1	-5
587.339	1	4
588.528	1	2
589.717	1	11
590.905	1	5
592.094	1	4
593.283	1	5
594.471	1	16
595.660	1	6
596.848	1	13
598.037	1	-1
599.225	1	-3
600.413	1	12
601.602	1	8
602.790	1	4
603.978	1	-1
605.166	1	7
606.355	1	18
607.543	1	8
608.731	1	11
609.919	1	6
611.107	1	-2
612.295	1	3
613.483	1	15
614.671	1	12
615.858	1	11
617.046	1	8
618.234	1	3
619.422	1	-6
620.609	1	6
621.797	1	-8
622.985	1	0
624.172	1	8
625.360	1	-3
626.547	1	8
627.735	1	9
628.922	1	7
630.109	1	-4
631.297	1	1
632.484	1	-1
633.671	1	-7
634.858	1	0
636.045	1	5
637.232	1	-5
638.419	1	4
639.606	1	11
640.793	1	9
641.980	1	2
643.167	1	2
644.354	1	-7
645.541	1	4
646.728	1	-1
647.914	1	3
649.101	1	-11
650.288	1	12
651.474	1	-1
652.661	1	-5
653.847	1	8
655.034	1	5
656.220	1	-4
657.406	1	4
658.593	1	7
659.779	1	0
660.965	1	9
662.152	1	4
663.338	1	14
664.524	1	1
665.710	1	4
666.896	1	3
668.082	1	13
669.268	1	2
670.454	1	4
671.640	1	6
672.826	1	2
674.011	1	1
675.197	1	-2
676.383	1	3
677.569	1	-4
678.754	1	-5
679.940	1	-5
681.125	1	-6
682.311	1	6
683.496	1	7
684.682	1	-7
685.867	1	-3
687.053	1	-1
688.238	1	6
688.746	1	0