File: Data/GaN_200K_800ms/GaN_sample F_spot 12_UVVIS_200 K_200um_800 ms 2x2mm1_466.txt
340.368	1	-2
341.565	1	-8
342.763	1	-1
343.960	1	-1
345.157	1	-11
346.354	1	-7
347.552	1	-2
348.749	1	-8
349.946	1	-7
351.143	1	-4
352.340	1	4
353.537	1	-3
354.734	1	-8
355.931	1	0
357.127	1	-1
358.324	1	-11
359.521	1	6
360.718	1	-2
361.914	1	1
363.111	1	1
364.308	1	-1
365.504	1	13
366.701	1	6
367.897	1	17
369.093	1	0
370.290	1	3
371.486	1	15
372.682	1	4
373.879	1	3
375.075	1	2
376.271	1	3
377.467	1	-1
378.663	1	5
379.859	1	-3
381.055	1	5
382.251	1	-9
383.447	1	0
384.643	1	8
385.839	1	-8
387.035	1	4
388.230	1	7
389.426	1	2
390.622	1	-7
391.817	1	-2
393.013	1	-3
394.208	1	-7
395.404	1	-5
396.599	1	-8
397.795	1	0
398.990	1	-2
400.186	1	-5
401.381	1	0
402.576	1	-1
403.771	1	1
404.967	1	11
406.162	1	7
407.357	1	-3
408.552	1	5
409.747	1	0
410.942	1	5
412.137	1	9
413.332	1	5
414.526	1	-3
415.721	1	-6
416.916	1	-9
418.111	1	2
419.305	1	7
420.500	1	-7
421.695	1	-4
422.889	1	-4
424.084	1	-3
425.278	1	13
426.472	1	-8
427.667	1	-1
428.861	1	2
430.055	1	6
431.250	1	4
432.444	1	5
433.638	1	3
434.832	1	6
436.026	1	6
437.220	1	3
438.414	1	-7
439.608	1	-6
440.802	1	0
441.996	1	7
443.190	1	1
444.384	1	-9
445.578	1	-8
446.771	1	9
447.965	1	-7
449.159	1	-3
450.352	1	-2
451.546	1	10
452.739	1	0
453.933	1	-5
455.126	1	1
456.320	1	-1
457.513	1	1
458.706	1	-4
459.899	1	1
461.093	1	-1
462.286	1	-1
463.479	1	-2
464.672	1	-1
465.865	1	1
467.058	1	-5
468.251	1	6
469.444	1	-9
470.637	1	-3
471.830	1	2
473.023	1	-2
474.215	1	7
475.408	1	-10
476.601	1	0
477.793	1	-5
478.986	1	0
480.179	1	5
481.371	1	-7
482.564	1	7
483.756	1	6
484.948	1	-5
486.141	1	-4
487.333	1	-7
488.525	1	-7
489.718	1	-1
490.910	1	0
492.102	1	-11
493.294	1	-5
494.486	1	17
495.678	1	6
496.870	1	1
498.062	1	-2
499.254	1	-6
500.446	1	-14
501.638	1	-4
502.829	1	-1
504.021	1	-1
505.213	1	6
506.404	1	5
507.596	1	-5
508.788	1	16
509.979	1	-1
511.171	1	-7
512.362	1	-4
513.553	1	-8
514.745	1	-13
515.936	1	1
517.127	1	-2
518.319	1	-3
519.510	1	3
520.701	1	-1
521.892	1	5
523.083	1	1
524.274	1	-6
525.465	1	-1
526.656	1	1
527.847	1	0
529.038	1	0
530.229	1	-2
531.419	1	0
532.610	1	-2
533.801	1	12
534.991	1	0
536.182	1	5
537.373	1	6
538.563	1	1
539.754	1	5
540.944	1	-6
542.134	1	5
543.325	1	8
544.515	1	-2
545.705	1	-2
546.896	1	-2
548.086	1	-2
549.276	1	8
550.466	1	9
551.656	1	-6
552.846	1	-1
554.036	1	1
555.226	1	-8
556.416	1	-4
557.606	1	3
558.796	1	2
559.986	1	-8
561.175	1	3
562.365	1	2
563.555	1	4
564.744	1	0
565.934	1	4
567.123	1	8
568.313	1	12
569.502	1	-13
570.692	1	1
571.881	1	8
573.070	1	-1
574.260	1	11
575.449	1	1
576.638	1	-9
577.827	1	-4
579.016	1	4
580.205	1	-1
581.394	1	0
582.583	1	12
583.772	1	-2
584.961	1	-7
586.150	1	4
587.339	1	-3
588.528	1	-2
589.717	1	-3
590.905	1	-8
592.094	1	4
593.283	1	-4
594.471	1	8
595.660	1	1
596.848	1	3
598.037	1	-1
599.225	1	-10
600.413	1	12
601.602	1	8
602.790	1	2
603.978	1	7
605.166	1	16
606.355	1	1
607.543	1	-2
608.731	1	0
609.919	1	14
611.107	1	-6
612.295	1	-3
613.483	1	4
614.671	1	9
615.858	1	2
617.046	1	0
618.234	1	-3
619.422	1	-4
620.609	1	8
621.797	1	-7
622.985	1	-2
624.172	1	1
625.360	1	-2
626.547	1	7
627.735	1	-2
628.922	1	-3
630.109	1	-8
631.297	1	1
632.484	1	-8
633.671	1	-4
634.858	1	-2
636.045	1	10
637.232	1	-3
638.419	1	-10
639.606	1	0
640.793	1	9
641.980	1	2
643.167	1	-11
644.354	1	4
645.541	1	1
646.728	1	-5
647.914	1	3
649.101	1	-4
650.288	1	8
651.474	1	-3
652.661	1	0
653.847	1	11
655.034	1	-1
656.220	1	-5
657.406	1	8
658.593	1	5
659.779	1	-3
660.965	1	8
662.152	1	1
663.338	1	5
664.524	1	6
665.710	1	-1
666.896	1	-7
668.082	1	7
669.268	1	3
670.454	1	0
671.640	1	4
672.826	1	3
674.011	1	6
675.197	1	-6
676.383	1	-1
677.569	1	0
678.754	1	-6
679.940	1	-3
681.125	1	2
682.311	1	2
683.496	1	10
684.682	1	-4
685.867	1	-10
687.053	1	-7
688.238	1	5
688.746	1	3