File: Data/GaN_200K_800ms/GaN_sample F_spot 12_UVVIS_200 K_200um_800 ms 2x2mm1_221.txt
340.368	1	4
341.565	1	-7
342.763	1	10
343.960	1	8
345.157	1	-9
346.354	1	0
347.552	1	-4
348.749	1	2
349.946	1	-3
351.143	1	-1
352.340	1	6
353.537	1	3
354.734	1	-5
355.931	1	4
357.127	1	-2
358.324	1	-1
359.521	1	16
360.718	1	10
361.914	1	8
363.111	1	9
364.308	1	18
365.504	1	16
366.701	1	13
367.897	1	32
369.093	1	15
370.290	1	32
371.486	1	36
372.682	1	32
373.879	1	13
375.075	1	14
376.271	1	24
377.467	1	10
378.663	1	2
379.859	1	7
381.055	1	15
382.251	1	1
383.447	1	6
384.643	1	14
385.839	1	2
387.035	1	0
388.230	1	13
389.426	1	-1
390.622	1	2
391.817	1	-8
393.013	1	3
394.208	1	5
395.404	1	-4
396.599	1	2
397.795	1	1
398.990	1	4
400.186	1	1
401.381	1	-4
402.576	1	2
403.771	1	7
404.967	1	-2
406.162	1	8
407.357	1	1
408.552	1	0
409.747	1	2
410.942	1	11
412.137	1	-1
413.332	1	3
414.526	1	-8
415.721	1	7
416.916	1	-2
418.111	1	-5
419.305	1	2
420.500	1	-3
421.695	1	0
422.889	1	-9
424.084	1	4
425.278	1	14
426.472	1	-4
427.667	1	6
428.861	1	-7
430.055	1	5
431.250	1	-4
432.444	1	13
433.638	1	-13
434.832	1	10
436.026	1	3
437.220	1	8
438.414	1	-11
439.608	1	-8
440.802	1	0
441.996	1	6
443.190	1	-2
444.384	1	-11
445.578	1	-3
446.771	1	20
447.965	1	-5
449.159	1	-7
450.352	1	6
451.546	1	3
452.739	1	8
453.933	1	9
455.126	1	-4
456.320	1	-7
457.513	1	-2
458.706	1	-2
459.899	1	-5
461.093	1	-3
462.286	1	-2
463.479	1	-1
464.672	1	3
465.865	1	-2
467.058	1	-3
468.251	1	-5
469.444	1	-4
470.637	1	-2
471.830	1	4
473.023	1	-1
474.215	1	13
475.408	1	-8
476.601	1	1
477.793	1	-7
478.986	1	2
480.179	1	9
481.371	1	8
482.564	1	10
483.756	1	6
484.948	1	-6
486.141	1	4
487.333	1	-2
488.525	1	-3
489.718	1	2
490.910	1	1
492.102	1	-10
493.294	1	1
494.486	1	-6
495.678	1	-4
496.870	1	3
498.062	1	0
499.254	1	-2
500.446	1	-5
501.638	1	-7
502.829	1	5
504.021	1	-5
505.213	1	8
506.404	1	3
507.596	1	0
508.788	1	26
509.979	1	-5
511.171	1	1
512.362	1	-1
513.553	1	-12
514.745	1	5
515.936	1	5
517.127	1	-1
518.319	1	-2
519.510	1	15
520.701	1	2
521.892	1	1
523.083	1	-2
524.274	1	2
525.465	1	9
526.656	1	-9
527.847	1	2
529.038	1	9
530.229	1	3
531.419	1	8
532.610	1	-3
533.801	1	16
534.991	1	4
536.182	1	5
537.373	1	-2
538.563	1	7
539.754	1	10
540.944	1	4
542.134	1	9
543.325	1	6
544.515	1	4
545.705	1	8
546.896	1	1
548.086	1	7
549.276	1	3
550.466	1	3
551.656	1	3
552.846	1	6
554.036	1	-2
555.226	1	-3
556.416	1	8
557.606	1	8
558.796	1	0
559.986	1	-3
561.175	1	5
562.365	1	6
563.555	1	3
564.744	1	4
565.934	1	13
567.123	1	4
568.313	1	13
569.502	1	-3
570.692	1	9
571.881	1	13
573.070	1	4
574.260	1	13
575.449	1	-2
576.638	1	0
577.827	1	-2
579.016	1	9
580.205	1	5
581.394	1	1
582.583	1	13
583.772	1	7
584.961	1	11
586.150	1	2
587.339	1	9
588.528	1	12
589.717	1	3
590.905	1	6
592.094	1	-2
593.283	1	6
594.471	1	8
595.660	1	15
596.848	1	-1
598.037	1	8
599.225	1	-10
600.413	1	13
601.602	1	10
602.790	1	4
603.978	1	0
605.166	1	10
606.355	1	10
607.543	1	5
608.731	1	-2
609.919	1	3
611.107	1	4
612.295	1	-1
613.483	1	5
614.671	1	0
615.858	1	1
617.046	1	12
618.234	1	3
619.422	1	-5
620.609	1	0
621.797	1	0
622.985	1	0
624.172	1	1
625.360	1	5
626.547	1	2
627.735	1	-1
628.922	1	6
630.109	1	-14
631.297	1	0
632.484	1	4
633.671	1	-2
634.858	1	-4
636.045	1	8
637.232	1	-15
638.419	1	6
639.606	1	10
640.793	1	11
641.980	1	8
643.167	1	0
644.354	1	7
645.541	1	5
646.728	1	-8
647.914	1	3
649.101	1	-2
650.288	1	6
651.474	1	-6
652.661	1	-3
653.847	1	14
655.034	1	-2
656.220	1	-12
657.406	1	9
658.593	1	11
659.779	1	1
660.965	1	9
662.152	1	2
663.338	1	17
664.524	1	-4
665.710	1	0
666.896	1	2
668.082	1	2
669.268	1	2
670.454	1	6
671.640	1	2
672.826	1	1
674.011	1	5
675.197	1	-1
676.383	1	0
677.569	1	-7
678.754	1	-10
679.940	1	-10
681.125	1	4
682.311	1	10
683.496	1	5
684.682	1	-4
685.867	1	3
687.053	1	1
688.238	1	9
688.746	1	5