File: Data/GaN_200K_800ms/GaN_sample F_spot 12_UVVIS_200 K_200um_800 ms 2x2mm1_57.txt
340.368	1	9
341.565	1	0
342.763	1	6
343.960	1	13
345.157	1	-2
346.354	1	5
347.552	1	6
348.749	1	0
349.946	1	3
351.143	1	13
352.340	1	9
353.537	1	6
354.734	1	8
355.931	1	18
357.127	1	35
358.324	1	32
359.521	1	57
360.718	1	47
361.914	1	70
363.111	1	90
364.308	1	125
365.504	1	182
366.701	1	237
367.897	1	284
369.093	1	327
370.290	1	323
371.486	1	296
372.682	1	253
373.879	1	213
375.075	1	171
376.271	1	157
377.467	1	134
378.663	1	108
379.859	1	85
381.055	1	84
382.251	1	65
383.447	1	60
384.643	1	42
385.839	1	53
387.035	1	40
388.230	1	41
389.426	1	31
390.622	1	28
391.817	1	25
393.013	1	19
394.208	1	19
395.404	1	15
396.599	1	15
397.795	1	14
398.990	1	11
400.186	1	13
401.381	1	3
402.576	1	10
403.771	1	13
404.967	1	20
406.162	1	20
407.357	1	2
408.552	1	-3
409.747	1	14
410.942	1	11
412.137	1	12
413.332	1	7
414.526	1	-1
415.721	1	5
416.916	1	-1
418.111	1	9
419.305	1	3
420.500	1	-1
421.695	1	1
422.889	1	0
424.084	1	13
425.278	1	23
426.472	1	7
427.667	1	0
428.861	1	3
430.055	1	7
431.250	1	-3
432.444	1	14
433.638	1	5
434.832	1	6
436.026	1	9
437.220	1	11
438.414	1	5
439.608	1	2
440.802	1	-1
441.996	1	9
443.190	1	8
444.384	1	4
445.578	1	2
446.771	1	12
447.965	1	3
449.159	1	2
450.352	1	-2
451.546	1	3
452.739	1	18
453.933	1	-5
455.126	1	-10
456.320	1	0
457.513	1	9
458.706	1	5
459.899	1	-8
461.093	1	15
462.286	1	7
463.479	1	1
464.672	1	12
465.865	1	4
467.058	1	-1
468.251	1	0
469.444	1	-5
470.637	1	5
471.830	1	7
473.023	1	3
474.215	1	18
475.408	1	2
476.601	1	5
477.793	1	6
478.986	1	-2
480.179	1	9
481.371	1	7
482.564	1	7
483.756	1	16
484.948	1	1
486.141	1	5
487.333	1	5
488.525	1	7
489.718	1	9
490.910	1	14
492.102	1	4
493.294	1	5
494.486	1	10
495.678	1	8
496.870	1	11
498.062	1	18
499.254	1	13
500.446	1	9
501.638	1	-2
502.829	1	17
504.021	1	16
505.213	1	25
506.404	1	18
507.596	1	18
508.788	1	24
509.979	1	13
511.171	1	9
512.362	1	4
513.553	1	5
514.745	1	13
515.936	1	19
517.127	1	21
518.319	1	18
519.510	1	25
520.701	1	15
521.892	1	18
523.083	1	12
524.274	1	30
525.465	1	36
526.656	1	29
527.847	1	27
529.038	1	26
530.229	1	35
531.419	1	37
532.610	1	20
533.801	1	44
534.991	1	28
536.182	1	21
537.373	1	28
538.563	1	30
539.754	1	33
540.944	1	19
542.134	1	28
543.325	1	38
544.515	1	13
545.705	1	32
546.896	1	23
548.086	1	39
549.276	1	35
550.466	1	42
551.656	1	39
552.846	1	35
554.036	1	37
555.226	1	20
556.416	1	30
557.606	1	46
558.796	1	32
559.986	1	22
561.175	1	31
562.365	1	34
563.555	1	28
564.744	1	39
565.934	1	36
567.123	1	33
568.313	1	27
569.502	1	32
570.692	1	45
571.881	1	38
573.070	1	27
574.260	1	40
575.449	1	25
576.638	1	24
577.827	1	34
579.016	1	31
580.205	1	28
581.394	1	30
582.583	1	47
583.772	1	40
584.961	1	28
586.150	1	28
587.339	1	25
588.528	1	33
589.717	1	26
590.905	1	19
592.094	1	18
593.283	1	17
594.471	1	35
595.660	1	25
596.848	1	21
598.037	1	24
599.225	1	-1
600.413	1	28
601.602	1	28
602.790	1	22
603.978	1	25
605.166	1	18
606.355	1	33
607.543	1	23
608.731	1	23
609.919	1	35
611.107	1	14
612.295	1	22
613.483	1	27
614.671	1	14
615.858	1	26
617.046	1	18
618.234	1	15
619.422	1	12
620.609	1	21
621.797	1	12
622.985	1	11
624.172	1	2
625.360	1	19
626.547	1	12
627.735	1	10
628.922	1	12
630.109	1	4
631.297	1	9
632.484	1	7
633.671	1	10
634.858	1	12
636.045	1	21
637.232	1	10
638.419	1	0
639.606	1	17
640.793	1	24
641.980	1	15
643.167	1	11
644.354	1	19
645.541	1	11
646.728	1	10
647.914	1	17
649.101	1	4
650.288	1	12
651.474	1	3
652.661	1	6
653.847	1	24
655.034	1	7
656.220	1	6
657.406	1	16
658.593	1	18
659.779	1	15
660.965	1	18
662.152	1	1
663.338	1	19
664.524	1	-1
665.710	1	3
666.896	1	9
668.082	1	11
669.268	1	1
670.454	1	18
671.640	1	7
672.826	1	10
674.011	1	10
675.197	1	4
676.383	1	6
677.569	1	1
678.754	1	5
679.940	1	9
681.125	1	21
682.311	1	12
683.496	1	13
684.682	1	4
685.867	1	5
687.053	1	16
688.238	1	15
688.746	1	5