File: Data/GaN_200K_800ms/GaN_sample F_spot 12_UVVIS_200 K_200um_800 ms 2x2mm1_145.txt
340.368	1	7
341.565	1	-10
342.763	1	0
343.960	1	2
345.157	1	-7
346.354	1	2
347.552	1	-1
348.749	1	-14
349.946	1	-2
351.143	1	-2
352.340	1	5
353.537	1	4
354.734	1	15
355.931	1	-11
357.127	1	6
358.324	1	1
359.521	1	21
360.718	1	15
361.914	1	15
363.111	1	15
364.308	1	11
365.504	1	37
366.701	1	44
367.897	1	57
369.093	1	46
370.290	1	52
371.486	1	55
372.682	1	46
373.879	1	35
375.075	1	28
376.271	1	40
377.467	1	29
378.663	1	15
379.859	1	18
381.055	1	22
382.251	1	7
383.447	1	10
384.643	1	21
385.839	1	11
387.035	1	18
388.230	1	15
389.426	1	11
390.622	1	0
391.817	1	6
393.013	1	4
394.208	1	10
395.404	1	3
396.599	1	3
397.795	1	3
398.990	1	7
400.186	1	-1
401.381	1	5
402.576	1	2
403.771	1	5
404.967	1	6
406.162	1	4
407.357	1	0
408.552	1	3
409.747	1	3
410.942	1	9
412.137	1	3
413.332	1	7
414.526	1	2
415.721	1	-3
416.916	1	-8
418.111	1	-1
419.305	1	11
420.500	1	-5
421.695	1	4
422.889	1	-7
424.084	1	-3
425.278	1	11
426.472	1	2
427.667	1	5
428.861	1	5
430.055	1	1
431.250	1	4
432.444	1	9
433.638	1	-3
434.832	1	3
436.026	1	7
437.220	1	9
438.414	1	-5
439.608	1	-6
440.802	1	-5
441.996	1	4
443.190	1	0
444.384	1	-9
445.578	1	-7
446.771	1	7
447.965	1	1
449.159	1	-5
450.352	1	-4
451.546	1	3
452.739	1	1
453.933	1	2
455.126	1	2
456.320	1	-2
457.513	1	-3
458.706	1	1
459.899	1	5
461.093	1	4
462.286	1	4
463.479	1	-2
464.672	1	6
465.865	1	-5
467.058	1	0
468.251	1	4
469.444	1	-10
470.637	1	4
471.830	1	5
473.023	1	4
474.215	1	9
475.408	1	4
476.601	1	3
477.793	1	-4
478.986	1	-1
480.179	1	4
481.371	1	5
482.564	1	6
483.756	1	11
484.948	1	6
486.141	1	5
487.333	1	-3
488.525	1	2
489.718	1	0
490.910	1	0
492.102	1	-2
493.294	1	-9
494.486	1	10
495.678	1	3
496.870	1	4
498.062	1	-1
499.254	1	8
500.446	1	-7
501.638	1	-1
502.829	1	6
504.021	1	5
505.213	1	4
506.404	1	13
507.596	1	-8
508.788	1	13
509.979	1	1
511.171	1	7
512.362	1	0
513.553	1	1
514.745	1	0
515.936	1	7
517.127	1	3
518.319	1	6
519.510	1	4
520.701	1	10
521.892	1	4
523.083	1	-4
524.274	1	2
525.465	1	11
526.656	1	-2
527.847	1	7
529.038	1	2
530.229	1	3
531.419	1	7
532.610	1	-6
533.801	1	16
534.991	1	9
536.182	1	1
537.373	1	8
538.563	1	15
539.754	1	14
540.944	1	1
542.134	1	10
543.325	1	4
544.515	1	4
545.705	1	1
546.896	1	14
548.086	1	2
549.276	1	8
550.466	1	14
551.656	1	14
552.846	1	11
554.036	1	-1
555.226	1	-2
556.416	1	4
557.606	1	1
558.796	1	4
559.986	1	-1
561.175	1	10
562.365	1	13
563.555	1	-2
564.744	1	13
565.934	1	18
567.123	1	7
568.313	1	17
569.502	1	6
570.692	1	8
571.881	1	22
573.070	1	10
574.260	1	9
575.449	1	1
576.638	1	2
577.827	1	-3
579.016	1	12
580.205	1	1
581.394	1	6
582.583	1	13
583.772	1	18
584.961	1	13
586.150	1	-4
587.339	1	4
588.528	1	4
589.717	1	10
590.905	1	10
592.094	1	1
593.283	1	6
594.471	1	9
595.660	1	7
596.848	1	6
598.037	1	-2
599.225	1	4
600.413	1	10
601.602	1	6
602.790	1	3
603.978	1	5
605.166	1	7
606.355	1	9
607.543	1	8
608.731	1	7
609.919	1	13
611.107	1	3
612.295	1	1
613.483	1	10
614.671	1	7
615.858	1	8
617.046	1	7
618.234	1	4
619.422	1	-2
620.609	1	8
621.797	1	5
622.985	1	14
624.172	1	3
625.360	1	8
626.547	1	1
627.735	1	5
628.922	1	6
630.109	1	-6
631.297	1	1
632.484	1	-1
633.671	1	-1
634.858	1	-1
636.045	1	8
637.232	1	-1
638.419	1	-7
639.606	1	7
640.793	1	14
641.980	1	2
643.167	1	0
644.354	1	7
645.541	1	2
646.728	1	8
647.914	1	1
649.101	1	9
650.288	1	3
651.474	1	-1
652.661	1	9
653.847	1	5
655.034	1	10
656.220	1	2
657.406	1	14
658.593	1	4
659.779	1	3
660.965	1	5
662.152	1	6
663.338	1	3
664.524	1	-1
665.710	1	-3
666.896	1	-5
668.082	1	8
669.268	1	2
670.454	1	-5
671.640	1	10
672.826	1	-5
674.011	1	2
675.197	1	-8
676.383	1	-2
677.569	1	9
678.754	1	-4
679.940	1	0
681.125	1	0
682.311	1	3
683.496	1	1
684.682	1	-4
685.867	1	-4
687.053	1	3
688.238	1	6
688.746	1	3