File: Data/GaN_200K_800ms/GaN_sample F_spot 12_UVVIS_200 K_200um_800 ms 2x2mm1_430.txt
340.368	1	2
341.565	1	-15
342.763	1	-2
343.960	1	-4
345.157	1	-8
346.354	1	-1
347.552	1	1
348.749	1	-12
349.946	1	-5
351.143	1	0
352.340	1	4
353.537	1	1
354.734	1	3
355.931	1	-3
357.127	1	2
358.324	1	0
359.521	1	1
360.718	1	13
361.914	1	10
363.111	1	1
364.308	1	8
365.504	1	20
366.701	1	4
367.897	1	5
369.093	1	8
370.290	1	4
371.486	1	1
372.682	1	8
373.879	1	1
375.075	1	1
376.271	1	5
377.467	1	2
378.663	1	-5
379.859	1	-5
381.055	1	10
382.251	1	-8
383.447	1	-8
384.643	1	9
385.839	1	-1
387.035	1	5
388.230	1	6
389.426	1	-3
390.622	1	-6
391.817	1	2
393.013	1	5
394.208	1	5
395.404	1	-5
396.599	1	-5
397.795	1	-2
398.990	1	-8
400.186	1	1
401.381	1	-5
402.576	1	0
403.771	1	6
404.967	1	3
406.162	1	-3
407.357	1	-2
408.552	1	-5
409.747	1	-1
410.942	1	8
412.137	1	9
413.332	1	4
414.526	1	-8
415.721	1	2
416.916	1	-7
418.111	1	-2
419.305	1	3
420.500	1	-2
421.695	1	-9
422.889	1	-8
424.084	1	-11
425.278	1	9
426.472	1	-7
427.667	1	10
428.861	1	-2
430.055	1	4
431.250	1	-3
432.444	1	3
433.638	1	4
434.832	1	-1
436.026	1	4
437.220	1	5
438.414	1	-15
439.608	1	-8
440.802	1	-1
441.996	1	1
443.190	1	-5
444.384	1	-6
445.578	1	-17
446.771	1	8
447.965	1	-6
449.159	1	-2
450.352	1	-8
451.546	1	-1
452.739	1	5
453.933	1	-8
455.126	1	-6
456.320	1	3
457.513	1	2
458.706	1	-2
459.899	1	-2
461.093	1	-1
462.286	1	-3
463.479	1	-6
464.672	1	2
465.865	1	2
467.058	1	-5
468.251	1	-2
469.444	1	-1
470.637	1	2
471.830	1	1
473.023	1	3
474.215	1	9
475.408	1	-6
476.601	1	-1
477.793	1	-8
478.986	1	-14
480.179	1	1
481.371	1	3
482.564	1	2
483.756	1	12
484.948	1	-10
486.141	1	-7
487.333	1	-5
488.525	1	1
489.718	1	-3
490.910	1	4
492.102	1	-10
493.294	1	-1
494.486	1	5
495.678	1	-4
496.870	1	-1
498.062	1	-2
499.254	1	-9
500.446	1	-7
501.638	1	4
502.829	1	-1
504.021	1	1
505.213	1	5
506.404	1	-2
507.596	1	3
508.788	1	6
509.979	1	-2
511.171	1	-2
512.362	1	-1
513.553	1	-11
514.745	1	-2
515.936	1	-2
517.127	1	-9
518.319	1	-11
519.510	1	-2
520.701	1	-6
521.892	1	7
523.083	1	-4
524.274	1	-6
525.465	1	11
526.656	1	-3
527.847	1	2
529.038	1	-1
530.229	1	-3
531.419	1	0
532.610	1	-6
533.801	1	7
534.991	1	-5
536.182	1	6
537.373	1	-3
538.563	1	3
539.754	1	-2
540.944	1	-1
542.134	1	6
543.325	1	-1
544.515	1	-3
545.705	1	-1
546.896	1	-9
548.086	1	-7
549.276	1	1
550.466	1	-2
551.656	1	8
552.846	1	0
554.036	1	0
555.226	1	-9
556.416	1	-5
557.606	1	8
558.796	1	1
559.986	1	-7
561.175	1	-2
562.365	1	0
563.555	1	4
564.744	1	-2
565.934	1	17
567.123	1	0
568.313	1	3
569.502	1	-1
570.692	1	2
571.881	1	2
573.070	1	-1
574.260	1	7
575.449	1	-1
576.638	1	-2
577.827	1	0
579.016	1	3
580.205	1	-1
581.394	1	0
582.583	1	11
583.772	1	9
584.961	1	4
586.150	1	-1
587.339	1	6
588.528	1	3
589.717	1	0
590.905	1	-2
592.094	1	-3
593.283	1	-4
594.471	1	6
595.660	1	1
596.848	1	-4
598.037	1	-10
599.225	1	-3
600.413	1	8
601.602	1	11
602.790	1	3
603.978	1	-3
605.166	1	1
606.355	1	-2
607.543	1	0
608.731	1	-1
609.919	1	0
611.107	1	-2
612.295	1	-3
613.483	1	-7
614.671	1	-1
615.858	1	3
617.046	1	5
618.234	1	6
619.422	1	-4
620.609	1	5
621.797	1	3
622.985	1	-1
624.172	1	0
625.360	1	0
626.547	1	-2
627.735	1	2
628.922	1	-3
630.109	1	-5
631.297	1	-2
632.484	1	-11
633.671	1	-3
634.858	1	-4
636.045	1	9
637.232	1	-4
638.419	1	-2
639.606	1	-2
640.793	1	7
641.980	1	1
643.167	1	-8
644.354	1	1
645.541	1	-3
646.728	1	-2
647.914	1	-2
649.101	1	-7
650.288	1	0
651.474	1	-14
652.661	1	-5
653.847	1	9
655.034	1	-8
656.220	1	-6
657.406	1	1
658.593	1	9
659.779	1	2
660.965	1	-1
662.152	1	2
663.338	1	10
664.524	1	-1
665.710	1	1
666.896	1	-3
668.082	1	-11
669.268	1	-8
670.454	1	3
671.640	1	7
672.826	1	-6
674.011	1	5
675.197	1	-4
676.383	1	5
677.569	1	0
678.754	1	0
679.940	1	0
681.125	1	-2
682.311	1	11
683.496	1	9
684.682	1	-10
685.867	1	-4
687.053	1	-10
688.238	1	3
688.746	1	-8