File: Data/GaN_200K_800ms/GaN_sample F_spot 12_UVVIS_200 K_200um_800 ms 2x2mm1_358.txt
340.368	1	9
341.565	1	-17
342.763	1	1
343.960	1	-3
345.157	1	-2
346.354	1	-5
347.552	1	-9
348.749	1	-6
349.946	1	3
351.143	1	4
352.340	1	6
353.537	1	-2
354.734	1	9
355.931	1	-10
357.127	1	-2
358.324	1	-4
359.521	1	4
360.718	1	-1
361.914	1	-1
363.111	1	1
364.308	1	3
365.504	1	11
366.701	1	9
367.897	1	10
369.093	1	7
370.290	1	3
371.486	1	15
372.682	1	20
373.879	1	0
375.075	1	7
376.271	1	11
377.467	1	6
378.663	1	-3
379.859	1	-2
381.055	1	3
382.251	1	-3
383.447	1	1
384.643	1	9
385.839	1	10
387.035	1	-4
388.230	1	9
389.426	1	0
390.622	1	-3
391.817	1	-3
393.013	1	-6
394.208	1	-2
395.404	1	1
396.599	1	-4
397.795	1	-6
398.990	1	1
400.186	1	2
401.381	1	-4
402.576	1	-9
403.771	1	6
404.967	1	6
406.162	1	5
407.357	1	-12
408.552	1	4
409.747	1	-4
410.942	1	-1
412.137	1	7
413.332	1	7
414.526	1	-1
415.721	1	1
416.916	1	-3
418.111	1	2
419.305	1	5
420.500	1	-13
421.695	1	-5
422.889	1	-7
424.084	1	3
425.278	1	10
426.472	1	-6
427.667	1	5
428.861	1	-7
430.055	1	-1
431.250	1	4
432.444	1	0
433.638	1	-7
434.832	1	-4
436.026	1	3
437.220	1	6
438.414	1	-4
439.608	1	-4
440.802	1	-4
441.996	1	1
443.190	1	2
444.384	1	-1
445.578	1	-9
446.771	1	16
447.965	1	-1
449.159	1	-2
450.352	1	-8
451.546	1	-4
452.739	1	-6
453.933	1	-2
455.126	1	-10
456.320	1	-11
457.513	1	2
458.706	1	4
459.899	1	6
461.093	1	1
462.286	1	2
463.479	1	-6
464.672	1	0
465.865	1	2
467.058	1	0
468.251	1	0
469.444	1	-3
470.637	1	-9
471.830	1	-6
473.023	1	8
474.215	1	12
475.408	1	-6
476.601	1	0
477.793	1	-3
478.986	1	-5
480.179	1	3
481.371	1	9
482.564	1	-5
483.756	1	9
484.948	1	-4
486.141	1	-2
487.333	1	-5
488.525	1	-4
489.718	1	1
490.910	1	-3
492.102	1	-5
493.294	1	-2
494.486	1	3
495.678	1	1
496.870	1	5
498.062	1	-2
499.254	1	-3
500.446	1	-9
501.638	1	-8
502.829	1	1
504.021	1	4
505.213	1	10
506.404	1	12
507.596	1	7
508.788	1	8
509.979	1	-7
511.171	1	-6
512.362	1	-5
513.553	1	-9
514.745	1	-9
515.936	1	-8
517.127	1	-4
518.319	1	2
519.510	1	3
520.701	1	-2
521.892	1	7
523.083	1	-1
524.274	1	0
525.465	1	4
526.656	1	-5
527.847	1	2
529.038	1	0
530.229	1	7
531.419	1	4
532.610	1	-12
533.801	1	4
534.991	1	3
536.182	1	-1
537.373	1	3
538.563	1	8
539.754	1	7
540.944	1	-3
542.134	1	2
543.325	1	-4
544.515	1	-5
545.705	1	4
546.896	1	-12
548.086	1	3
549.276	1	-10
550.466	1	0
551.656	1	1
552.846	1	1
554.036	1	0
555.226	1	-11
556.416	1	-5
557.606	1	3
558.796	1	4
559.986	1	-7
561.175	1	0
562.365	1	1
563.555	1	-1
564.744	1	-2
565.934	1	1
567.123	1	7
568.313	1	8
569.502	1	-3
570.692	1	-5
571.881	1	5
573.070	1	-1
574.260	1	5
575.449	1	-4
576.638	1	-3
577.827	1	-3
579.016	1	13
580.205	1	-3
581.394	1	-9
582.583	1	15
583.772	1	4
584.961	1	4
586.150	1	-4
587.339	1	-5
588.528	1	-6
589.717	1	-7
590.905	1	1
592.094	1	-3
593.283	1	3
594.471	1	6
595.660	1	-3
596.848	1	-1
598.037	1	5
599.225	1	-11
600.413	1	6
601.602	1	13
602.790	1	6
603.978	1	5
605.166	1	6
606.355	1	-10
607.543	1	-2
608.731	1	1
609.919	1	3
611.107	1	-1
612.295	1	-5
613.483	1	-6
614.671	1	1
615.858	1	4
617.046	1	7
618.234	1	2
619.422	1	-5
620.609	1	5
621.797	1	1
622.985	1	-3
624.172	1	-4
625.360	1	-4
626.547	1	3
627.735	1	10
628.922	1	-5
630.109	1	-12
631.297	1	-11
632.484	1	-8
633.671	1	-4
634.858	1	-2
636.045	1	16
637.232	1	-12
638.419	1	8
639.606	1	4
640.793	1	7
641.980	1	0
643.167	1	-2
644.354	1	-7
645.541	1	1
646.728	1	0
647.914	1	-1
649.101	1	-7
650.288	1	11
651.474	1	6
652.661	1	-9
653.847	1	3
655.034	1	5
656.220	1	-11
657.406	1	-1
658.593	1	4
659.779	1	0
660.965	1	8
662.152	1	7
663.338	1	0
664.524	1	-1
665.710	1	0
666.896	1	1
668.082	1	-1
669.268	1	-3
670.454	1	3
671.640	1	1
672.826	1	-1
674.011	1	-6
675.197	1	1
676.383	1	-8
677.569	1	2
678.754	1	-9
679.940	1	-5
681.125	1	2
682.311	1	6
683.496	1	2
684.682	1	-3
685.867	1	-2
687.053	1	-2
688.238	1	-3
688.746	1	2