File: Data/GaN_200K_800ms/GaN_sample F_spot 12_UVVIS_200 K_200um_800 ms 2x2mm1_197.txt
340.368	1	8
341.565	1	-7
342.763	1	5
343.960	1	7
345.157	1	-5
346.354	1	-2
347.552	1	-2
348.749	1	-2
349.946	1	0
351.143	1	6
352.340	1	1
353.537	1	-4
354.734	1	11
355.931	1	0
357.127	1	0
358.324	1	4
359.521	1	4
360.718	1	14
361.914	1	10
363.111	1	5
364.308	1	11
365.504	1	22
366.701	1	21
367.897	1	26
369.093	1	28
370.290	1	37
371.486	1	27
372.682	1	32
373.879	1	32
375.075	1	11
376.271	1	27
377.467	1	18
378.663	1	2
379.859	1	9
381.055	1	22
382.251	1	-8
383.447	1	10
384.643	1	18
385.839	1	6
387.035	1	10
388.230	1	5
389.426	1	-1
390.622	1	4
391.817	1	4
393.013	1	-4
394.208	1	4
395.404	1	2
396.599	1	-6
397.795	1	2
398.990	1	-1
400.186	1	2
401.381	1	3
402.576	1	2
403.771	1	5
404.967	1	6
406.162	1	12
407.357	1	-5
408.552	1	-9
409.747	1	9
410.942	1	8
412.137	1	7
413.332	1	9
414.526	1	-5
415.721	1	8
416.916	1	1
418.111	1	-3
419.305	1	3
420.500	1	-1
421.695	1	-7
422.889	1	-1
424.084	1	-2
425.278	1	11
426.472	1	5
427.667	1	6
428.861	1	-7
430.055	1	-1
431.250	1	-5
432.444	1	9
433.638	1	2
434.832	1	4
436.026	1	1
437.220	1	4
438.414	1	-10
439.608	1	-11
440.802	1	-8
441.996	1	1
443.190	1	6
444.384	1	-2
445.578	1	-3
446.771	1	14
447.965	1	5
449.159	1	-3
450.352	1	-1
451.546	1	4
452.739	1	4
453.933	1	0
455.126	1	1
456.320	1	4
457.513	1	9
458.706	1	4
459.899	1	1
461.093	1	-1
462.286	1	5
463.479	1	4
464.672	1	2
465.865	1	5
467.058	1	-7
468.251	1	3
469.444	1	-9
470.637	1	-1
471.830	1	3
473.023	1	7
474.215	1	8
475.408	1	0
476.601	1	0
477.793	1	-4
478.986	1	-6
480.179	1	7
481.371	1	-1
482.564	1	0
483.756	1	7
484.948	1	-12
486.141	1	-3
487.333	1	1
488.525	1	-3
489.718	1	-2
490.910	1	-1
492.102	1	-5
493.294	1	-12
494.486	1	6
495.678	1	-4
496.870	1	0
498.062	1	5
499.254	1	2
500.446	1	-11
501.638	1	0
502.829	1	-3
504.021	1	-1
505.213	1	-2
506.404	1	6
507.596	1	5
508.788	1	15
509.979	1	5
511.171	1	7
512.362	1	-8
513.553	1	-11
514.745	1	-4
515.936	1	-4
517.127	1	11
518.319	1	0
519.510	1	3
520.701	1	4
521.892	1	4
523.083	1	-7
524.274	1	2
525.465	1	1
526.656	1	-7
527.847	1	0
529.038	1	0
530.229	1	1
531.419	1	6
532.610	1	3
533.801	1	20
534.991	1	6
536.182	1	3
537.373	1	0
538.563	1	12
539.754	1	15
540.944	1	-11
542.134	1	9
543.325	1	9
544.515	1	-5
545.705	1	9
546.896	1	-1
548.086	1	0
549.276	1	-3
550.466	1	9
551.656	1	6
552.846	1	5
554.036	1	-1
555.226	1	-10
556.416	1	-1
557.606	1	3
558.796	1	1
559.986	1	0
561.175	1	0
562.365	1	4
563.555	1	1
564.744	1	2
565.934	1	12
567.123	1	2
568.313	1	3
569.502	1	3
570.692	1	7
571.881	1	9
573.070	1	0
574.260	1	7
575.449	1	8
576.638	1	-13
577.827	1	-2
579.016	1	12
580.205	1	0
581.394	1	3
582.583	1	10
583.772	1	14
584.961	1	9
586.150	1	-4
587.339	1	-4
588.528	1	4
589.717	1	3
590.905	1	0
592.094	1	4
593.283	1	7
594.471	1	9
595.660	1	6
596.848	1	4
598.037	1	4
599.225	1	-6
600.413	1	15
601.602	1	8
602.790	1	3
603.978	1	0
605.166	1	6
606.355	1	8
607.543	1	3
608.731	1	1
609.919	1	7
611.107	1	-1
612.295	1	-8
613.483	1	0
614.671	1	0
615.858	1	4
617.046	1	5
618.234	1	4
619.422	1	-6
620.609	1	3
621.797	1	-5
622.985	1	1
624.172	1	-1
625.360	1	0
626.547	1	1
627.735	1	3
628.922	1	2
630.109	1	-6
631.297	1	15
632.484	1	-2
633.671	1	-14
634.858	1	1
636.045	1	8
637.232	1	3
638.419	1	4
639.606	1	5
640.793	1	12
641.980	1	11
643.167	1	2
644.354	1	6
645.541	1	4
646.728	1	6
647.914	1	-6
649.101	1	-7
650.288	1	7
651.474	1	2
652.661	1	8
653.847	1	4
655.034	1	2
656.220	1	-5
657.406	1	8
658.593	1	3
659.779	1	-5
660.965	1	0
662.152	1	8
663.338	1	12
664.524	1	-3
665.710	1	5
666.896	1	-7
668.082	1	3
669.268	1	3
670.454	1	9
671.640	1	6
672.826	1	-3
674.011	1	2
675.197	1	-12
676.383	1	4
677.569	1	5
678.754	1	-3
679.940	1	1
681.125	1	-1
682.311	1	2
683.496	1	2
684.682	1	-11
685.867	1	2
687.053	1	10
688.238	1	15
688.746	1	6