File: Data/GaN_200K_800ms/GaN_sample F_spot 12_UVVIS_200 K_200um_800 ms 2x2mm1_267.txt
340.368	1	-1
341.565	1	-5
342.763	1	-1
343.960	1	-3
345.157	1	-6
346.354	1	-4
347.552	1	-2
348.749	1	-5
349.946	1	-12
351.143	1	5
352.340	1	3
353.537	1	2
354.734	1	4
355.931	1	-3
357.127	1	5
358.324	1	2
359.521	1	10
360.718	1	7
361.914	1	9
363.111	1	9
364.308	1	6
365.504	1	15
366.701	1	10
367.897	1	26
369.093	1	15
370.290	1	11
371.486	1	34
372.682	1	18
373.879	1	5
375.075	1	3
376.271	1	14
377.467	1	12
378.663	1	0
379.859	1	6
381.055	1	10
382.251	1	-5
383.447	1	0
384.643	1	11
385.839	1	1
387.035	1	4
388.230	1	19
389.426	1	1
390.622	1	0
391.817	1	1
393.013	1	0
394.208	1	8
395.404	1	-1
396.599	1	-2
397.795	1	1
398.990	1	0
400.186	1	5
401.381	1	-3
402.576	1	-2
403.771	1	11
404.967	1	7
406.162	1	5
407.357	1	-1
408.552	1	-5
409.747	1	-1
410.942	1	6
412.137	1	3
413.332	1	0
414.526	1	-5
415.721	1	-3
416.916	1	-9
418.111	1	-2
419.305	1	7
420.500	1	-12
421.695	1	-8
422.889	1	-7
424.084	1	5
425.278	1	7
426.472	1	-4
427.667	1	0
428.861	1	-6
430.055	1	4
431.250	1	-5
432.444	1	0
433.638	1	0
434.832	1	11
436.026	1	-2
437.220	1	-3
438.414	1	-1
439.608	1	-7
440.802	1	-5
441.996	1	2
443.190	1	-6
444.384	1	-9
445.578	1	-9
446.771	1	10
447.965	1	-7
449.159	1	2
450.352	1	4
451.546	1	-3
452.739	1	-1
453.933	1	-5
455.126	1	-4
456.320	1	1
457.513	1	5
458.706	1	-7
459.899	1	7
461.093	1	2
462.286	1	0
463.479	1	-11
464.672	1	-2
465.865	1	-7
467.058	1	-1
468.251	1	-3
469.444	1	2
470.637	1	-4
471.830	1	-8
473.023	1	4
474.215	1	3
475.408	1	5
476.601	1	-4
477.793	1	1
478.986	1	1
480.179	1	2
481.371	1	-4
482.564	1	-4
483.756	1	8
484.948	1	2
486.141	1	-3
487.333	1	-2
488.525	1	-2
489.718	1	-1
490.910	1	1
492.102	1	-1
493.294	1	-10
494.486	1	9
495.678	1	4
496.870	1	11
498.062	1	11
499.254	1	3
500.446	1	-8
501.638	1	-4
502.829	1	2
504.021	1	6
505.213	1	10
506.404	1	-2
507.596	1	0
508.788	1	11
509.979	1	6
511.171	1	2
512.362	1	-8
513.553	1	-14
514.745	1	7
515.936	1	-12
517.127	1	-1
518.319	1	4
519.510	1	-3
520.701	1	0
521.892	1	9
523.083	1	0
524.274	1	-6
525.465	1	5
526.656	1	-5
527.847	1	8
529.038	1	0
530.229	1	3
531.419	1	8
532.610	1	-6
533.801	1	18
534.991	1	-4
536.182	1	4
537.373	1	5
538.563	1	15
539.754	1	7
540.944	1	-3
542.134	1	6
543.325	1	8
544.515	1	-4
545.705	1	3
546.896	1	-4
548.086	1	10
549.276	1	1
550.466	1	0
551.656	1	-1
552.846	1	2
554.036	1	2
555.226	1	-8
556.416	1	-10
557.606	1	1
558.796	1	-4
559.986	1	-1
561.175	1	0
562.365	1	-1
563.555	1	-8
564.744	1	4
565.934	1	7
567.123	1	6
568.313	1	7
569.502	1	-4
570.692	1	3
571.881	1	4
573.070	1	1
574.260	1	15
575.449	1	0
576.638	1	1
577.827	1	-6
579.016	1	5
580.205	1	-5
581.394	1	-3
582.583	1	10
583.772	1	2
584.961	1	-3
586.150	1	-8
587.339	1	3
588.528	1	14
589.717	1	9
590.905	1	9
592.094	1	1
593.283	1	7
594.471	1	12
595.660	1	-6
596.848	1	5
598.037	1	0
599.225	1	1
600.413	1	13
601.602	1	17
602.790	1	-4
603.978	1	-2
605.166	1	0
606.355	1	5
607.543	1	-1
608.731	1	3
609.919	1	12
611.107	1	-3
612.295	1	0
613.483	1	3
614.671	1	7
615.858	1	0
617.046	1	7
618.234	1	0
619.422	1	-15
620.609	1	4
621.797	1	-5
622.985	1	0
624.172	1	1
625.360	1	4
626.547	1	5
627.735	1	1
628.922	1	15
630.109	1	-7
631.297	1	2
632.484	1	-6
633.671	1	-2
634.858	1	8
636.045	1	13
637.232	1	-1
638.419	1	-9
639.606	1	5
640.793	1	9
641.980	1	7
643.167	1	-4
644.354	1	0
645.541	1	1
646.728	1	-6
647.914	1	-5
649.101	1	2
650.288	1	0
651.474	1	-3
652.661	1	-9
653.847	1	5
655.034	1	3
656.220	1	-5
657.406	1	4
658.593	1	12
659.779	1	1
660.965	1	-1
662.152	1	7
663.338	1	11
664.524	1	-2
665.710	1	3
666.896	1	7
668.082	1	1
669.268	1	-6
670.454	1	5
671.640	1	-1
672.826	1	-4
674.011	1	0
675.197	1	-6
676.383	1	0
677.569	1	1
678.754	1	-4
679.940	1	-1
681.125	1	6
682.311	1	7
683.496	1	-1
684.682	1	-17
685.867	1	-3
687.053	1	-1
688.238	1	12
688.746	1	4