File: Data/GaN_200K_800ms/GaN_sample F_spot 12_UVVIS_200 K_200um_800 ms 2x2mm1_372.txt
340.368	1	4
341.565	1	-5
342.763	1	3
343.960	1	-3
345.157	1	-6
346.354	1	-1
347.552	1	-13
348.749	1	-10
349.946	1	-2
351.143	1	-8
352.340	1	1
353.537	1	2
354.734	1	-3
355.931	1	-4
357.127	1	2
358.324	1	-3
359.521	1	4
360.718	1	3
361.914	1	2
363.111	1	-1
364.308	1	0
365.504	1	12
366.701	1	8
367.897	1	3
369.093	1	10
370.290	1	5
371.486	1	13
372.682	1	16
373.879	1	11
375.075	1	5
376.271	1	14
377.467	1	13
378.663	1	0
379.859	1	1
381.055	1	7
382.251	1	0
383.447	1	0
384.643	1	6
385.839	1	-9
387.035	1	3
388.230	1	11
389.426	1	5
390.622	1	2
391.817	1	1
393.013	1	-3
394.208	1	-5
395.404	1	-3
396.599	1	-15
397.795	1	2
398.990	1	-2
400.186	1	1
401.381	1	-5
402.576	1	-5
403.771	1	4
404.967	1	-9
406.162	1	3
407.357	1	0
408.552	1	-9
409.747	1	-1
410.942	1	2
412.137	1	1
413.332	1	-4
414.526	1	-1
415.721	1	3
416.916	1	-15
418.111	1	-3
419.305	1	-4
420.500	1	-8
421.695	1	-1
422.889	1	-13
424.084	1	5
425.278	1	11
426.472	1	2
427.667	1	5
428.861	1	-8
430.055	1	-1
431.250	1	-3
432.444	1	10
433.638	1	-2
434.832	1	2
436.026	1	-4
437.220	1	6
438.414	1	-14
439.608	1	-6
440.802	1	-3
441.996	1	-3
443.190	1	2
444.384	1	-10
445.578	1	-10
446.771	1	17
447.965	1	-1
449.159	1	-15
450.352	1	1
451.546	1	-5
452.739	1	-3
453.933	1	-12
455.126	1	-6
456.320	1	0
457.513	1	5
458.706	1	-8
459.899	1	5
461.093	1	-1
462.286	1	-1
463.479	1	2
464.672	1	-14
465.865	1	-9
467.058	1	1
468.251	1	0
469.444	1	-4
470.637	1	1
471.830	1	-5
473.023	1	-2
474.215	1	7
475.408	1	0
476.601	1	4
477.793	1	-4
478.986	1	-10
480.179	1	-2
481.371	1	3
482.564	1	-1
483.756	1	0
484.948	1	-10
486.141	1	0
487.333	1	0
488.525	1	-6
489.718	1	-3
490.910	1	6
492.102	1	-8
493.294	1	-5
494.486	1	2
495.678	1	4
496.870	1	-1
498.062	1	1
499.254	1	-1
500.446	1	-8
501.638	1	-2
502.829	1	0
504.021	1	-1
505.213	1	4
506.404	1	5
507.596	1	-4
508.788	1	13
509.979	1	-3
511.171	1	-11
512.362	1	-4
513.553	1	-13
514.745	1	0
515.936	1	-4
517.127	1	-4
518.319	1	1
519.510	1	-1
520.701	1	0
521.892	1	3
523.083	1	1
524.274	1	-4
525.465	1	6
526.656	1	-6
527.847	1	-2
529.038	1	-2
530.229	1	7
531.419	1	4
532.610	1	-11
533.801	1	10
534.991	1	-2
536.182	1	-8
537.373	1	0
538.563	1	3
539.754	1	5
540.944	1	2
542.134	1	8
543.325	1	5
544.515	1	-5
545.705	1	2
546.896	1	-8
548.086	1	2
549.276	1	-5
550.466	1	-1
551.656	1	2
552.846	1	-5
554.036	1	-5
555.226	1	2
556.416	1	2
557.606	1	1
558.796	1	-3
559.986	1	-9
561.175	1	2
562.365	1	6
563.555	1	1
564.744	1	3
565.934	1	5
567.123	1	3
568.313	1	2
569.502	1	-2
570.692	1	-1
571.881	1	11
573.070	1	1
574.260	1	1
575.449	1	-5
576.638	1	-6
577.827	1	-7
579.016	1	15
580.205	1	0
581.394	1	-5
582.583	1	10
583.772	1	11
584.961	1	-1
586.150	1	2
587.339	1	-2
588.528	1	4
589.717	1	-7
590.905	1	-3
592.094	1	-10
593.283	1	3
594.471	1	10
595.660	1	9
596.848	1	2
598.037	1	-4
599.225	1	-7
600.413	1	11
601.602	1	8
602.790	1	3
603.978	1	-4
605.166	1	2
606.355	1	-1
607.543	1	-8
608.731	1	-2
609.919	1	5
611.107	1	-3
612.295	1	-5
613.483	1	1
614.671	1	1
615.858	1	2
617.046	1	-2
618.234	1	-4
619.422	1	-7
620.609	1	2
621.797	1	1
622.985	1	-2
624.172	1	2
625.360	1	-4
626.547	1	-1
627.735	1	4
628.922	1	-8
630.109	1	-17
631.297	1	-2
632.484	1	1
633.671	1	-7
634.858	1	-4
636.045	1	3
637.232	1	-4
638.419	1	0
639.606	1	1
640.793	1	9
641.980	1	-5
643.167	1	2
644.354	1	-1
645.541	1	-6
646.728	1	0
647.914	1	-1
649.101	1	-3
650.288	1	6
651.474	1	-5
652.661	1	1
653.847	1	0
655.034	1	-6
656.220	1	-6
657.406	1	-4
658.593	1	-4
659.779	1	-6
660.965	1	6
662.152	1	7
663.338	1	2
664.524	1	8
665.710	1	1
666.896	1	-1
668.082	1	-1
669.268	1	-10
670.454	1	1
671.640	1	-6
672.826	1	-4
674.011	1	-1
675.197	1	-10
676.383	1	0
677.569	1	-6
678.754	1	-4
679.940	1	-5
681.125	1	6
682.311	1	6
683.496	1	-1
684.682	1	-8
685.867	1	-1
687.053	1	-2
688.238	1	3
688.746	1	6