File: Data/GaN_200K_800ms/GaN_sample F_spot 12_UVVIS_200 K_200um_800 ms 2x2mm1_241.txt
340.368	1	2
341.565	1	-14
342.763	1	8
343.960	1	1
345.157	1	-5
346.354	1	-2
347.552	1	-3
348.749	1	-7
349.946	1	-11
351.143	1	10
352.340	1	3
353.537	1	8
354.734	1	5
355.931	1	-2
357.127	1	-8
358.324	1	4
359.521	1	13
360.718	1	7
361.914	1	5
363.111	1	9
364.308	1	9
365.504	1	16
366.701	1	15
367.897	1	24
369.093	1	21
370.290	1	30
371.486	1	28
372.682	1	20
373.879	1	13
375.075	1	16
376.271	1	13
377.467	1	9
378.663	1	7
379.859	1	2
381.055	1	11
382.251	1	5
383.447	1	-8
384.643	1	22
385.839	1	5
387.035	1	10
388.230	1	10
389.426	1	3
390.622	1	1
391.817	1	13
393.013	1	-5
394.208	1	11
395.404	1	0
396.599	1	1
397.795	1	5
398.990	1	-4
400.186	1	0
401.381	1	2
402.576	1	-4
403.771	1	2
404.967	1	-1
406.162	1	7
407.357	1	4
408.552	1	7
409.747	1	-6
410.942	1	10
412.137	1	8
413.332	1	-7
414.526	1	-1
415.721	1	0
416.916	1	-10
418.111	1	6
419.305	1	8
420.500	1	1
421.695	1	-8
422.889	1	-4
424.084	1	-6
425.278	1	13
426.472	1	4
427.667	1	-6
428.861	1	2
430.055	1	0
431.250	1	-1
432.444	1	3
433.638	1	-10
434.832	1	10
436.026	1	3
437.220	1	8
438.414	1	-7
439.608	1	-7
440.802	1	-3
441.996	1	-2
443.190	1	0
444.384	1	-6
445.578	1	-5
446.771	1	15
447.965	1	-1
449.159	1	-2
450.352	1	5
451.546	1	4
452.739	1	5
453.933	1	-7
455.126	1	-5
456.320	1	-1
457.513	1	5
458.706	1	7
459.899	1	3
461.093	1	-2
462.286	1	-3
463.479	1	-5
464.672	1	3
465.865	1	-2
467.058	1	1
468.251	1	8
469.444	1	-5
470.637	1	-4
471.830	1	-6
473.023	1	3
474.215	1	5
475.408	1	-6
476.601	1	7
477.793	1	-5
478.986	1	-4
480.179	1	-2
481.371	1	2
482.564	1	2
483.756	1	-4
484.948	1	3
486.141	1	-6
487.333	1	6
488.525	1	0
489.718	1	8
490.910	1	-4
492.102	1	-1
493.294	1	-3
494.486	1	12
495.678	1	-3
496.870	1	1
498.062	1	-2
499.254	1	-4
500.446	1	-9
501.638	1	0
502.829	1	13
504.021	1	1
505.213	1	5
506.404	1	5
507.596	1	8
508.788	1	15
509.979	1	4
511.171	1	8
512.362	1	0
513.553	1	-9
514.745	1	-1
515.936	1	2
517.127	1	-6
518.319	1	4
519.510	1	13
520.701	1	-2
521.892	1	5
523.083	1	0
524.274	1	1
525.465	1	2
526.656	1	-8
527.847	1	6
529.038	1	2
530.229	1	9
531.419	1	7
532.610	1	-2
533.801	1	17
534.991	1	7
536.182	1	9
537.373	1	4
538.563	1	-1
539.754	1	6
540.944	1	-2
542.134	1	6
543.325	1	0
544.515	1	-7
545.705	1	-2
546.896	1	-2
548.086	1	-1
549.276	1	5
550.466	1	6
551.656	1	3
552.846	1	1
554.036	1	7
555.226	1	-5
556.416	1	3
557.606	1	4
558.796	1	-1
559.986	1	-7
561.175	1	0
562.365	1	8
563.555	1	7
564.744	1	2
565.934	1	3
567.123	1	-3
568.313	1	7
569.502	1	-2
570.692	1	5
571.881	1	13
573.070	1	8
574.260	1	9
575.449	1	-5
576.638	1	-5
577.827	1	-4
579.016	1	3
580.205	1	-5
581.394	1	-1
582.583	1	14
583.772	1	2
584.961	1	-2
586.150	1	0
587.339	1	-1
588.528	1	2
589.717	1	2
590.905	1	-2
592.094	1	-7
593.283	1	-1
594.471	1	16
595.660	1	-9
596.848	1	-3
598.037	1	4
599.225	1	3
600.413	1	7
601.602	1	11
602.790	1	4
603.978	1	0
605.166	1	4
606.355	1	3
607.543	1	0
608.731	1	1
609.919	1	4
611.107	1	4
612.295	1	-6
613.483	1	4
614.671	1	-3
615.858	1	-2
617.046	1	-3
618.234	1	3
619.422	1	-11
620.609	1	2
621.797	1	-5
622.985	1	0
624.172	1	-10
625.360	1	6
626.547	1	3
627.735	1	-5
628.922	1	6
630.109	1	-6
631.297	1	7
632.484	1	-5
633.671	1	4
634.858	1	1
636.045	1	14
637.232	1	0
638.419	1	-3
639.606	1	1
640.793	1	5
641.980	1	9
643.167	1	-6
644.354	1	-6
645.541	1	4
646.728	1	3
647.914	1	1
649.101	1	5
650.288	1	9
651.474	1	0
652.661	1	-1
653.847	1	-2
655.034	1	2
656.220	1	-5
657.406	1	8
658.593	1	1
659.779	1	5
660.965	1	-3
662.152	1	-2
663.338	1	4
664.524	1	6
665.710	1	-5
666.896	1	-6
668.082	1	0
669.268	1	1
670.454	1	2
671.640	1	4
672.826	1	-8
674.011	1	-1
675.197	1	0
676.383	1	-3
677.569	1	-10
678.754	1	0
679.940	1	2
681.125	1	0
682.311	1	1
683.496	1	2
684.682	1	-1
685.867	1	5
687.053	1	0
688.238	1	6
688.746	1	-2