File: Data/GaN_200K_800ms/GaN_sample F_spot 12_UVVIS_200 K_200um_800 ms 2x2mm1_107.txt
340.368	1	9
341.565	1	-9
342.763	1	8
343.960	1	6
345.157	1	-9
346.354	1	8
347.552	1	4
348.749	1	-7
349.946	1	-4
351.143	1	2
352.340	1	8
353.537	1	6
354.734	1	10
355.931	1	10
357.127	1	8
358.324	1	10
359.521	1	15
360.718	1	24
361.914	1	30
363.111	1	19
364.308	1	39
365.504	1	67
366.701	1	73
367.897	1	90
369.093	1	84
370.290	1	79
371.486	1	95
372.682	1	78
373.879	1	57
375.075	1	58
376.271	1	46
377.467	1	44
378.663	1	30
379.859	1	30
381.055	1	35
382.251	1	17
383.447	1	19
384.643	1	15
385.839	1	12
387.035	1	14
388.230	1	16
389.426	1	9
390.622	1	10
391.817	1	5
393.013	1	11
394.208	1	7
395.404	1	-1
396.599	1	0
397.795	1	9
398.990	1	3
400.186	1	13
401.381	1	2
402.576	1	3
403.771	1	11
404.967	1	5
406.162	1	14
407.357	1	3
408.552	1	-1
409.747	1	2
410.942	1	13
412.137	1	9
413.332	1	-3
414.526	1	-2
415.721	1	3
416.916	1	-5
418.111	1	2
419.305	1	5
420.500	1	0
421.695	1	6
422.889	1	-6
424.084	1	4
425.278	1	9
426.472	1	2
427.667	1	7
428.861	1	-2
430.055	1	-1
431.250	1	3
432.444	1	11
433.638	1	2
434.832	1	3
436.026	1	8
437.220	1	8
438.414	1	-6
439.608	1	-7
440.802	1	-3
441.996	1	2
443.190	1	7
444.384	1	-4
445.578	1	-5
446.771	1	3
447.965	1	8
449.159	1	-1
450.352	1	-5
451.546	1	3
452.739	1	-1
453.933	1	-4
455.126	1	-2
456.320	1	5
457.513	1	9
458.706	1	3
459.899	1	2
461.093	1	5
462.286	1	3
463.479	1	-1
464.672	1	4
465.865	1	1
467.058	1	-2
468.251	1	-5
469.444	1	2
470.637	1	1
471.830	1	1
473.023	1	8
474.215	1	16
475.408	1	10
476.601	1	5
477.793	1	1
478.986	1	1
480.179	1	-4
481.371	1	1
482.564	1	-2
483.756	1	20
484.948	1	3
486.141	1	-3
487.333	1	2
488.525	1	12
489.718	1	0
490.910	1	8
492.102	1	-1
493.294	1	3
494.486	1	15
495.678	1	3
496.870	1	4
498.062	1	-2
499.254	1	8
500.446	1	2
501.638	1	-5
502.829	1	10
504.021	1	6
505.213	1	6
506.404	1	7
507.596	1	11
508.788	1	17
509.979	1	6
511.171	1	4
512.362	1	-2
513.553	1	-6
514.745	1	5
515.936	1	2
517.127	1	10
518.319	1	7
519.510	1	14
520.701	1	10
521.892	1	1
523.083	1	14
524.274	1	-2
525.465	1	8
526.656	1	8
527.847	1	10
529.038	1	9
530.229	1	11
531.419	1	18
532.610	1	12
533.801	1	16
534.991	1	16
536.182	1	5
537.373	1	12
538.563	1	16
539.754	1	11
540.944	1	7
542.134	1	10
543.325	1	10
544.515	1	1
545.705	1	10
546.896	1	10
548.086	1	8
549.276	1	11
550.466	1	9
551.656	1	19
552.846	1	7
554.036	1	4
555.226	1	7
556.416	1	6
557.606	1	14
558.796	1	12
559.986	1	-1
561.175	1	12
562.365	1	8
563.555	1	5
564.744	1	14
565.934	1	14
567.123	1	18
568.313	1	18
569.502	1	8
570.692	1	21
571.881	1	21
573.070	1	10
574.260	1	17
575.449	1	19
576.638	1	4
577.827	1	0
579.016	1	12
580.205	1	4
581.394	1	10
582.583	1	15
583.772	1	16
584.961	1	9
586.150	1	4
587.339	1	8
588.528	1	8
589.717	1	12
590.905	1	4
592.094	1	11
593.283	1	4
594.471	1	10
595.660	1	5
596.848	1	13
598.037	1	3
599.225	1	4
600.413	1	12
601.602	1	19
602.790	1	12
603.978	1	9
605.166	1	10
606.355	1	9
607.543	1	-1
608.731	1	8
609.919	1	18
611.107	1	0
612.295	1	2
613.483	1	5
614.671	1	7
615.858	1	13
617.046	1	6
618.234	1	6
619.422	1	-10
620.609	1	12
621.797	1	-5
622.985	1	0
624.172	1	12
625.360	1	11
626.547	1	13
627.735	1	2
628.922	1	10
630.109	1	-11
631.297	1	6
632.484	1	2
633.671	1	-8
634.858	1	-2
636.045	1	13
637.232	1	5
638.419	1	-2
639.606	1	8
640.793	1	11
641.980	1	16
643.167	1	3
644.354	1	5
645.541	1	5
646.728	1	-2
647.914	1	5
649.101	1	-2
650.288	1	10
651.474	1	1
652.661	1	-1
653.847	1	14
655.034	1	5
656.220	1	-1
657.406	1	7
658.593	1	16
659.779	1	0
660.965	1	8
662.152	1	9
663.338	1	11
664.524	1	1
665.710	1	7
666.896	1	-4
668.082	1	2
669.268	1	1
670.454	1	11
671.640	1	4
672.826	1	5
674.011	1	7
675.197	1	2
676.383	1	5
677.569	1	-3
678.754	1	3
679.940	1	1
681.125	1	2
682.311	1	5
683.496	1	5
684.682	1	1
685.867	1	9
687.053	1	2
688.238	1	15
688.746	1	8