File: Data/GaN_200K_800ms/GaN_sample F_spot 12_UVVIS_200 K_200um_800 ms 2x2mm1_464.txt
340.368	1	9
341.565	1	-1
342.763	1	7
343.960	1	-1
345.157	1	-10
346.354	1	-2
347.552	1	-4
348.749	1	-5
349.946	1	-7
351.143	1	-6
352.340	1	-1
353.537	1	-1
354.734	1	1
355.931	1	5
357.127	1	7
358.324	1	3
359.521	1	0
360.718	1	-1
361.914	1	3
363.111	1	0
364.308	1	5
365.504	1	8
366.701	1	6
367.897	1	9
369.093	1	7
370.290	1	7
371.486	1	5
372.682	1	4
373.879	1	8
375.075	1	-6
376.271	1	9
377.467	1	5
378.663	1	-12
379.859	1	-6
381.055	1	9
382.251	1	-1
383.447	1	-7
384.643	1	11
385.839	1	-2
387.035	1	0
388.230	1	7
389.426	1	-4
390.622	1	-1
391.817	1	6
393.013	1	-8
394.208	1	6
395.404	1	-11
396.599	1	-4
397.795	1	0
398.990	1	0
400.186	1	-4
401.381	1	-5
402.576	1	-1
403.771	1	4
404.967	1	0
406.162	1	3
407.357	1	1
408.552	1	3
409.747	1	-4
410.942	1	8
412.137	1	5
413.332	1	3
414.526	1	4
415.721	1	-3
416.916	1	-5
418.111	1	-1
419.305	1	3
420.500	1	-10
421.695	1	-5
422.889	1	-7
424.084	1	-6
425.278	1	6
426.472	1	-1
427.667	1	3
428.861	1	0
430.055	1	3
431.250	1	-7
432.444	1	2
433.638	1	-5
434.832	1	-3
436.026	1	-1
437.220	1	2
438.414	1	-1
439.608	1	-10
440.802	1	-10
441.996	1	1
443.190	1	-1
444.384	1	-12
445.578	1	-3
446.771	1	15
447.965	1	0
449.159	1	-8
450.352	1	-2
451.546	1	-2
452.739	1	8
453.933	1	-6
455.126	1	-2
456.320	1	-2
457.513	1	4
458.706	1	-3
459.899	1	1
461.093	1	-2
462.286	1	2
463.479	1	-6
464.672	1	-4
465.865	1	-2
467.058	1	-3
468.251	1	-4
469.444	1	-9
470.637	1	-6
471.830	1	2
473.023	1	-3
474.215	1	8
475.408	1	11
476.601	1	5
477.793	1	-1
478.986	1	-3
480.179	1	-8
481.371	1	-4
482.564	1	-4
483.756	1	-3
484.948	1	-3
486.141	1	-8
487.333	1	4
488.525	1	9
489.718	1	3
490.910	1	-4
492.102	1	-14
493.294	1	-10
494.486	1	5
495.678	1	-3
496.870	1	4
498.062	1	1
499.254	1	5
500.446	1	1
501.638	1	-1
502.829	1	0
504.021	1	-2
505.213	1	1
506.404	1	-1
507.596	1	1
508.788	1	12
509.979	1	-2
511.171	1	-3
512.362	1	-11
513.553	1	-11
514.745	1	-5
515.936	1	-5
517.127	1	-2
518.319	1	-3
519.510	1	1
520.701	1	4
521.892	1	5
523.083	1	-1
524.274	1	-1
525.465	1	13
526.656	1	4
527.847	1	1
529.038	1	-2
530.229	1	5
531.419	1	-5
532.610	1	-4
533.801	1	11
534.991	1	0
536.182	1	0
537.373	1	2
538.563	1	2
539.754	1	1
540.944	1	3
542.134	1	-7
543.325	1	3
544.515	1	-2
545.705	1	-3
546.896	1	-2
548.086	1	0
549.276	1	-4
550.466	1	1
551.656	1	4
552.846	1	-4
554.036	1	-1
555.226	1	-8
556.416	1	-18
557.606	1	6
558.796	1	-10
559.986	1	-13
561.175	1	8
562.365	1	0
563.555	1	-10
564.744	1	-6
565.934	1	0
567.123	1	0
568.313	1	6
569.502	1	-2
570.692	1	-2
571.881	1	6
573.070	1	1
574.260	1	2
575.449	1	-3
576.638	1	-3
577.827	1	-4
579.016	1	0
580.205	1	-3
581.394	1	-5
582.583	1	5
583.772	1	0
584.961	1	-4
586.150	1	-1
587.339	1	0
588.528	1	3
589.717	1	-6
590.905	1	2
592.094	1	2
593.283	1	-2
594.471	1	8
595.660	1	8
596.848	1	3
598.037	1	-4
599.225	1	-9
600.413	1	9
601.602	1	8
602.790	1	5
603.978	1	-4
605.166	1	11
606.355	1	4
607.543	1	-1
608.731	1	0
609.919	1	1
611.107	1	2
612.295	1	-8
613.483	1	-3
614.671	1	8
615.858	1	-2
617.046	1	2
618.234	1	2
619.422	1	-11
620.609	1	4
621.797	1	0
622.985	1	-4
624.172	1	-2
625.360	1	1
626.547	1	5
627.735	1	2
628.922	1	-1
630.109	1	-3
631.297	1	-4
632.484	1	-1
633.671	1	-14
634.858	1	-5
636.045	1	14
637.232	1	3
638.419	1	-6
639.606	1	4
640.793	1	10
641.980	1	0
643.167	1	2
644.354	1	-12
645.541	1	-1
646.728	1	-2
647.914	1	-9
649.101	1	-5
650.288	1	-1
651.474	1	-9
652.661	1	-1
653.847	1	11
655.034	1	3
656.220	1	-16
657.406	1	3
658.593	1	10
659.779	1	-1
660.965	1	-2
662.152	1	-1
663.338	1	1
664.524	1	0
665.710	1	3
666.896	1	-2
668.082	1	7
669.268	1	-4
670.454	1	-1
671.640	1	9
672.826	1	-3
674.011	1	-4
675.197	1	-4
676.383	1	0
677.569	1	-13
678.754	1	2
679.940	1	-4
681.125	1	10
682.311	1	4
683.496	1	-8
684.682	1	-8
685.867	1	6
687.053	1	-1
688.238	1	9
688.746	1	-6