File: Data/GaN_200K_800ms/GaN_sample F_spot 12_UVVIS_200 K_200um_800 ms 2x2mm1_81.txt
340.368	1	-2
341.565	1	0
342.763	1	1
343.960	1	-1
345.157	1	-3
346.354	1	-3
347.552	1	-1
348.749	1	11
349.946	1	5
351.143	1	7
352.340	1	21
353.537	1	10
354.734	1	10
355.931	1	10
357.127	1	12
358.324	1	24
359.521	1	20
360.718	1	28
361.914	1	48
363.111	1	44
364.308	1	58
365.504	1	87
366.701	1	108
367.897	1	132
369.093	1	128
370.290	1	141
371.486	1	138
372.682	1	126
373.879	1	93
375.075	1	70
376.271	1	81
377.467	1	65
378.663	1	44
379.859	1	46
381.055	1	49
382.251	1	31
383.447	1	22
384.643	1	42
385.839	1	27
387.035	1	33
388.230	1	22
389.426	1	11
390.622	1	13
391.817	1	14
393.013	1	9
394.208	1	4
395.404	1	0
396.599	1	0
397.795	1	10
398.990	1	8
400.186	1	6
401.381	1	-6
402.576	1	-5
403.771	1	13
404.967	1	12
406.162	1	11
407.357	1	9
408.552	1	7
409.747	1	13
410.942	1	11
412.137	1	6
413.332	1	-6
414.526	1	-8
415.721	1	8
416.916	1	-4
418.111	1	-4
419.305	1	-10
420.500	1	-1
421.695	1	3
422.889	1	-5
424.084	1	0
425.278	1	16
426.472	1	4
427.667	1	12
428.861	1	-1
430.055	1	-8
431.250	1	5
432.444	1	12
433.638	1	4
434.832	1	3
436.026	1	6
437.220	1	7
438.414	1	2
439.608	1	-1
440.802	1	0
441.996	1	4
443.190	1	7
444.384	1	-5
445.578	1	-7
446.771	1	13
447.965	1	3
449.159	1	-7
450.352	1	-2
451.546	1	7
452.739	1	6
453.933	1	2
455.126	1	0
456.320	1	2
457.513	1	3
458.706	1	8
459.899	1	-1
461.093	1	2
462.286	1	4
463.479	1	2
464.672	1	6
465.865	1	-3
467.058	1	6
468.251	1	9
469.444	1	-4
470.637	1	0
471.830	1	3
473.023	1	9
474.215	1	12
475.408	1	6
476.601	1	1
477.793	1	2
478.986	1	0
480.179	1	1
481.371	1	4
482.564	1	7
483.756	1	12
484.948	1	-4
486.141	1	-3
487.333	1	8
488.525	1	13
489.718	1	9
490.910	1	1
492.102	1	-2
493.294	1	1
494.486	1	8
495.678	1	1
496.870	1	11
498.062	1	6
499.254	1	9
500.446	1	-1
501.638	1	10
502.829	1	7
504.021	1	6
505.213	1	10
506.404	1	14
507.596	1	16
508.788	1	18
509.979	1	9
511.171	1	9
512.362	1	6
513.553	1	-4
514.745	1	4
515.936	1	5
517.127	1	14
518.319	1	1
519.510	1	12
520.701	1	16
521.892	1	15
523.083	1	10
524.274	1	5
525.465	1	11
526.656	1	14
527.847	1	8
529.038	1	20
530.229	1	3
531.419	1	16
532.610	1	13
533.801	1	25
534.991	1	20
536.182	1	14
537.373	1	13
538.563	1	15
539.754	1	13
540.944	1	16
542.134	1	23
543.325	1	14
544.515	1	5
545.705	1	11
546.896	1	6
548.086	1	23
549.276	1	9
550.466	1	16
551.656	1	25
552.846	1	21
554.036	1	6
555.226	1	14
556.416	1	14
557.606	1	20
558.796	1	16
559.986	1	6
561.175	1	23
562.365	1	22
563.555	1	18
564.744	1	20
565.934	1	20
567.123	1	22
568.313	1	25
569.502	1	14
570.692	1	19
571.881	1	21
573.070	1	8
574.260	1	20
575.449	1	6
576.638	1	18
577.827	1	15
579.016	1	23
580.205	1	6
581.394	1	10
582.583	1	24
583.772	1	16
584.961	1	14
586.150	1	8
587.339	1	21
588.528	1	12
589.717	1	14
590.905	1	3
592.094	1	9
593.283	1	16
594.471	1	18
595.660	1	19
596.848	1	22
598.037	1	16
599.225	1	2
600.413	1	13
601.602	1	20
602.790	1	8
603.978	1	15
605.166	1	8
606.355	1	16
607.543	1	17
608.731	1	8
609.919	1	23
611.107	1	13
612.295	1	7
613.483	1	11
614.671	1	7
615.858	1	12
617.046	1	9
618.234	1	8
619.422	1	0
620.609	1	18
621.797	1	6
622.985	1	10
624.172	1	10
625.360	1	8
626.547	1	13
627.735	1	12
628.922	1	12
630.109	1	1
631.297	1	10
632.484	1	10
633.671	1	9
634.858	1	4
636.045	1	16
637.232	1	9
638.419	1	6
639.606	1	5
640.793	1	13
641.980	1	6
643.167	1	1
644.354	1	6
645.541	1	10
646.728	1	4
647.914	1	11
649.101	1	5
650.288	1	10
651.474	1	-3
652.661	1	11
653.847	1	15
655.034	1	6
656.220	1	5
657.406	1	11
658.593	1	4
659.779	1	-1
660.965	1	3
662.152	1	4
663.338	1	16
664.524	1	0
665.710	1	9
666.896	1	1
668.082	1	-2
669.268	1	6
670.454	1	7
671.640	1	9
672.826	1	3
674.011	1	1
675.197	1	5
676.383	1	8
677.569	1	6
678.754	1	5
679.940	1	2
681.125	1	7
682.311	1	8
683.496	1	13
684.682	1	1
685.867	1	5
687.053	1	14
688.238	1	17
688.746	1	5