File: Data/GaN_200K_800ms/GaN_sample F_spot 12_UVVIS_200 K_200um_800 ms 2x2mm1_233.txt
340.368	1	1
341.565	1	-3
342.763	1	6
343.960	1	5
345.157	1	-2
346.354	1	7
347.552	1	0
348.749	1	-1
349.946	1	-3
351.143	1	5
352.340	1	6
353.537	1	-3
354.734	1	-1
355.931	1	1
357.127	1	0
358.324	1	9
359.521	1	11
360.718	1	2
361.914	1	9
363.111	1	5
364.308	1	4
365.504	1	17
366.701	1	19
367.897	1	24
369.093	1	24
370.290	1	37
371.486	1	29
372.682	1	24
373.879	1	19
375.075	1	21
376.271	1	27
377.467	1	14
378.663	1	11
379.859	1	9
381.055	1	14
382.251	1	1
383.447	1	3
384.643	1	10
385.839	1	1
387.035	1	1
388.230	1	3
389.426	1	-2
390.622	1	-6
391.817	1	8
393.013	1	-7
394.208	1	-2
395.404	1	-3
396.599	1	-2
397.795	1	-8
398.990	1	1
400.186	1	2
401.381	1	-9
402.576	1	-2
403.771	1	6
404.967	1	-1
406.162	1	4
407.357	1	2
408.552	1	-3
409.747	1	1
410.942	1	9
412.137	1	7
413.332	1	3
414.526	1	3
415.721	1	-5
416.916	1	-3
418.111	1	0
419.305	1	-5
420.500	1	1
421.695	1	-5
422.889	1	-9
424.084	1	-5
425.278	1	11
426.472	1	1
427.667	1	2
428.861	1	-6
430.055	1	3
431.250	1	-2
432.444	1	9
433.638	1	3
434.832	1	7
436.026	1	6
437.220	1	6
438.414	1	-10
439.608	1	-8
440.802	1	0
441.996	1	2
443.190	1	2
444.384	1	-4
445.578	1	-8
446.771	1	18
447.965	1	-6
449.159	1	-7
450.352	1	1
451.546	1	4
452.739	1	4
453.933	1	-2
455.126	1	-7
456.320	1	-5
457.513	1	10
458.706	1	-7
459.899	1	1
461.093	1	0
462.286	1	-1
463.479	1	-5
464.672	1	7
465.865	1	-1
467.058	1	-10
468.251	1	-3
469.444	1	0
470.637	1	-1
471.830	1	-4
473.023	1	2
474.215	1	7
475.408	1	-3
476.601	1	-2
477.793	1	-4
478.986	1	9
480.179	1	3
481.371	1	0
482.564	1	2
483.756	1	13
484.948	1	-5
486.141	1	-8
487.333	1	10
488.525	1	4
489.718	1	6
490.910	1	3
492.102	1	-7
493.294	1	-2
494.486	1	2
495.678	1	-1
496.870	1	-2
498.062	1	-4
499.254	1	-3
500.446	1	-8
501.638	1	-2
502.829	1	0
504.021	1	0
505.213	1	9
506.404	1	3
507.596	1	2
508.788	1	11
509.979	1	3
511.171	1	-3
512.362	1	6
513.553	1	-10
514.745	1	-8
515.936	1	-3
517.127	1	7
518.319	1	-7
519.510	1	8
520.701	1	9
521.892	1	12
523.083	1	-4
524.274	1	8
525.465	1	17
526.656	1	0
527.847	1	-3
529.038	1	3
530.229	1	0
531.419	1	4
532.610	1	2
533.801	1	11
534.991	1	6
536.182	1	3
537.373	1	7
538.563	1	5
539.754	1	10
540.944	1	1
542.134	1	1
543.325	1	6
544.515	1	5
545.705	1	-5
546.896	1	4
548.086	1	0
549.276	1	4
550.466	1	3
551.656	1	2
552.846	1	0
554.036	1	-1
555.226	1	-6
556.416	1	1
557.606	1	1
558.796	1	-2
559.986	1	-6
561.175	1	11
562.365	1	3
563.555	1	-7
564.744	1	1
565.934	1	11
567.123	1	4
568.313	1	9
569.502	1	-6
570.692	1	1
571.881	1	13
573.070	1	6
574.260	1	8
575.449	1	-2
576.638	1	0
577.827	1	-7
579.016	1	12
580.205	1	5
581.394	1	7
582.583	1	14
583.772	1	7
584.961	1	6
586.150	1	-1
587.339	1	4
588.528	1	7
589.717	1	10
590.905	1	-4
592.094	1	-4
593.283	1	0
594.471	1	16
595.660	1	-2
596.848	1	1
598.037	1	7
599.225	1	1
600.413	1	13
601.602	1	18
602.790	1	-3
603.978	1	-2
605.166	1	13
606.355	1	8
607.543	1	3
608.731	1	6
609.919	1	6
611.107	1	1
612.295	1	1
613.483	1	-1
614.671	1	4
615.858	1	3
617.046	1	5
618.234	1	2
619.422	1	-8
620.609	1	5
621.797	1	-2
622.985	1	13
624.172	1	5
625.360	1	4
626.547	1	-1
627.735	1	5
628.922	1	1
630.109	1	-10
631.297	1	-9
632.484	1	-1
633.671	1	4
634.858	1	-5
636.045	1	10
637.232	1	4
638.419	1	5
639.606	1	1
640.793	1	6
641.980	1	8
643.167	1	7
644.354	1	5
645.541	1	7
646.728	1	-3
647.914	1	0
649.101	1	-4
650.288	1	7
651.474	1	-6
652.661	1	6
653.847	1	-4
655.034	1	6
656.220	1	-6
657.406	1	-1
658.593	1	5
659.779	1	2
660.965	1	10
662.152	1	5
663.338	1	12
664.524	1	3
665.710	1	3
666.896	1	1
668.082	1	5
669.268	1	-1
670.454	1	1
671.640	1	4
672.826	1	2
674.011	1	2
675.197	1	4
676.383	1	1
677.569	1	-5
678.754	1	-3
679.940	1	0
681.125	1	-3
682.311	1	9
683.496	1	0
684.682	1	-6
685.867	1	-4
687.053	1	7
688.238	1	13
688.746	1	-2