File: Data/GaN_200K_800ms/GaN_sample F_spot 12_UVVIS_200 K_200um_800 ms 2x2mm1_257.txt
340.368	1	8
341.565	1	-3
342.763	1	3
343.960	1	10
345.157	1	-14
346.354	1	0
347.552	1	-1
348.749	1	-8
349.946	1	-3
351.143	1	3
352.340	1	1
353.537	1	-1
354.734	1	4
355.931	1	-3
357.127	1	3
358.324	1	0
359.521	1	6
360.718	1	8
361.914	1	14
363.111	1	8
364.308	1	9
365.504	1	15
366.701	1	14
367.897	1	22
369.093	1	19
370.290	1	27
371.486	1	22
372.682	1	24
373.879	1	17
375.075	1	10
376.271	1	18
377.467	1	12
378.663	1	3
379.859	1	-1
381.055	1	8
382.251	1	-1
383.447	1	-1
384.643	1	12
385.839	1	1
387.035	1	-1
388.230	1	5
389.426	1	0
390.622	1	-9
391.817	1	11
393.013	1	4
394.208	1	-4
395.404	1	4
396.599	1	3
397.795	1	5
398.990	1	6
400.186	1	-2
401.381	1	-5
402.576	1	-1
403.771	1	6
404.967	1	6
406.162	1	4
407.357	1	2
408.552	1	-1
409.747	1	1
410.942	1	13
412.137	1	3
413.332	1	6
414.526	1	1
415.721	1	6
416.916	1	-4
418.111	1	-5
419.305	1	4
420.500	1	-2
421.695	1	4
422.889	1	-8
424.084	1	-2
425.278	1	10
426.472	1	2
427.667	1	7
428.861	1	-4
430.055	1	2
431.250	1	-3
432.444	1	11
433.638	1	-1
434.832	1	4
436.026	1	8
437.220	1	2
438.414	1	-12
439.608	1	-5
440.802	1	1
441.996	1	-4
443.190	1	-1
444.384	1	-15
445.578	1	-12
446.771	1	8
447.965	1	6
449.159	1	-4
450.352	1	-4
451.546	1	-2
452.739	1	-4
453.933	1	-9
455.126	1	-5
456.320	1	2
457.513	1	-1
458.706	1	-4
459.899	1	6
461.093	1	1
462.286	1	0
463.479	1	-2
464.672	1	-1
465.865	1	-2
467.058	1	3
468.251	1	2
469.444	1	-4
470.637	1	10
471.830	1	7
473.023	1	1
474.215	1	5
475.408	1	-3
476.601	1	0
477.793	1	-2
478.986	1	4
480.179	1	8
481.371	1	5
482.564	1	1
483.756	1	4
484.948	1	-10
486.141	1	-1
487.333	1	-1
488.525	1	0
489.718	1	0
490.910	1	0
492.102	1	-3
493.294	1	-10
494.486	1	2
495.678	1	8
496.870	1	-8
498.062	1	-4
499.254	1	6
500.446	1	-10
501.638	1	-11
502.829	1	-2
504.021	1	6
505.213	1	11
506.404	1	-3
507.596	1	9
508.788	1	20
509.979	1	-6
511.171	1	-3
512.362	1	1
513.553	1	-4
514.745	1	-10
515.936	1	3
517.127	1	3
518.319	1	-4
519.510	1	-5
520.701	1	7
521.892	1	6
523.083	1	-4
524.274	1	2
525.465	1	10
526.656	1	3
527.847	1	-1
529.038	1	7
530.229	1	-1
531.419	1	3
532.610	1	-5
533.801	1	12
534.991	1	-6
536.182	1	1
537.373	1	-1
538.563	1	5
539.754	1	-1
540.944	1	-10
542.134	1	-3
543.325	1	2
544.515	1	-6
545.705	1	-5
546.896	1	3
548.086	1	1
549.276	1	-4
550.466	1	3
551.656	1	5
552.846	1	7
554.036	1	-3
555.226	1	-1
556.416	1	-11
557.606	1	6
558.796	1	1
559.986	1	0
561.175	1	14
562.365	1	7
563.555	1	-9
564.744	1	3
565.934	1	8
567.123	1	12
568.313	1	9
569.502	1	-5
570.692	1	9
571.881	1	12
573.070	1	-2
574.260	1	8
575.449	1	0
576.638	1	5
577.827	1	-3
579.016	1	16
580.205	1	3
581.394	1	7
582.583	1	20
583.772	1	4
584.961	1	1
586.150	1	-6
587.339	1	8
588.528	1	3
589.717	1	9
590.905	1	-11
592.094	1	-8
593.283	1	3
594.471	1	7
595.660	1	3
596.848	1	-7
598.037	1	-3
599.225	1	-7
600.413	1	3
601.602	1	6
602.790	1	5
603.978	1	6
605.166	1	7
606.355	1	4
607.543	1	-2
608.731	1	-2
609.919	1	8
611.107	1	-7
612.295	1	-6
613.483	1	5
614.671	1	5
615.858	1	10
617.046	1	-4
618.234	1	-2
619.422	1	-5
620.609	1	4
621.797	1	-3
622.985	1	9
624.172	1	-2
625.360	1	2
626.547	1	6
627.735	1	4
628.922	1	6
630.109	1	-11
631.297	1	3
632.484	1	3
633.671	1	-2
634.858	1	1
636.045	1	10
637.232	1	-9
638.419	1	0
639.606	1	-1
640.793	1	12
641.980	1	0
643.167	1	-2
644.354	1	1
645.541	1	0
646.728	1	-1
647.914	1	0
649.101	1	-4
650.288	1	0
651.474	1	-1
652.661	1	-5
653.847	1	4
655.034	1	1
656.220	1	-9
657.406	1	12
658.593	1	8
659.779	1	0
660.965	1	3
662.152	1	-1
663.338	1	13
664.524	1	1
665.710	1	1
666.896	1	0
668.082	1	-1
669.268	1	2
670.454	1	4
671.640	1	7
672.826	1	0
674.011	1	-5
675.197	1	-4
676.383	1	-2
677.569	1	-10
678.754	1	-2
679.940	1	3
681.125	1	-1
682.311	1	4
683.496	1	3
684.682	1	-7
685.867	1	5
687.053	1	2
688.238	1	6
688.746	1	-5