File: Data/GaN_200K_800ms/GaN_sample F_spot 12_UVVIS_200 K_200um_800 ms 2x2mm1_485.txt
340.368	1	-2
341.565	1	-6
342.763	1	5
343.960	1	1
345.157	1	-6
346.354	1	2
347.552	1	-5
348.749	1	-11
349.946	1	-1
351.143	1	5
352.340	1	9
353.537	1	3
354.734	1	2
355.931	1	0
357.127	1	7
358.324	1	-5
359.521	1	6
360.718	1	4
361.914	1	11
363.111	1	-10
364.308	1	0
365.504	1	12
366.701	1	10
367.897	1	11
369.093	1	2
370.290	1	6
371.486	1	10
372.682	1	7
373.879	1	3
375.075	1	-6
376.271	1	12
377.467	1	0
378.663	1	-4
379.859	1	0
381.055	1	11
382.251	1	-1
383.447	1	0
384.643	1	4
385.839	1	0
387.035	1	2
388.230	1	1
389.426	1	-5
390.622	1	-8
391.817	1	-5
393.013	1	-9
394.208	1	-6
395.404	1	-4
396.599	1	-5
397.795	1	-3
398.990	1	-1
400.186	1	-2
401.381	1	-9
402.576	1	7
403.771	1	8
404.967	1	4
406.162	1	15
407.357	1	-14
408.552	1	-1
409.747	1	-4
410.942	1	4
412.137	1	2
413.332	1	-9
414.526	1	-4
415.721	1	-7
416.916	1	-12
418.111	1	1
419.305	1	9
420.500	1	-8
421.695	1	-8
422.889	1	-10
424.084	1	-2
425.278	1	8
426.472	1	4
427.667	1	3
428.861	1	-11
430.055	1	-4
431.250	1	2
432.444	1	-2
433.638	1	-5
434.832	1	7
436.026	1	-1
437.220	1	6
438.414	1	-7
439.608	1	-15
440.802	1	-10
441.996	1	-6
443.190	1	-4
444.384	1	-6
445.578	1	-11
446.771	1	0
447.965	1	-8
449.159	1	5
450.352	1	-8
451.546	1	-6
452.739	1	-2
453.933	1	-6
455.126	1	-7
456.320	1	-4
457.513	1	0
458.706	1	-6
459.899	1	3
461.093	1	7
462.286	1	-5
463.479	1	3
464.672	1	-8
465.865	1	-4
467.058	1	4
468.251	1	1
469.444	1	-8
470.637	1	4
471.830	1	-3
473.023	1	0
474.215	1	9
475.408	1	-7
476.601	1	1
477.793	1	3
478.986	1	-2
480.179	1	-2
481.371	1	2
482.564	1	5
483.756	1	2
484.948	1	-12
486.141	1	-2
487.333	1	-4
488.525	1	-7
489.718	1	-1
490.910	1	0
492.102	1	-6
493.294	1	-4
494.486	1	3
495.678	1	1
496.870	1	5
498.062	1	1
499.254	1	-6
500.446	1	-4
501.638	1	-1
502.829	1	6
504.021	1	1
505.213	1	2
506.404	1	3
507.596	1	-5
508.788	1	13
509.979	1	2
511.171	1	-4
512.362	1	-6
513.553	1	-5
514.745	1	-3
515.936	1	-6
517.127	1	-2
518.319	1	-1
519.510	1	3
520.701	1	7
521.892	1	5
523.083	1	2
524.274	1	1
525.465	1	3
526.656	1	7
527.847	1	5
529.038	1	-7
530.229	1	3
531.419	1	10
532.610	1	-4
533.801	1	9
534.991	1	3
536.182	1	6
537.373	1	-4
538.563	1	-8
539.754	1	11
540.944	1	4
542.134	1	8
543.325	1	4
544.515	1	-1
545.705	1	-3
546.896	1	-8
548.086	1	-4
549.276	1	2
550.466	1	1
551.656	1	3
552.846	1	-2
554.036	1	5
555.226	1	-9
556.416	1	-4
557.606	1	5
558.796	1	3
559.986	1	-1
561.175	1	-3
562.365	1	-1
563.555	1	-9
564.744	1	6
565.934	1	4
567.123	1	-9
568.313	1	8
569.502	1	-7
570.692	1	-1
571.881	1	10
573.070	1	3
574.260	1	-4
575.449	1	-4
576.638	1	-1
577.827	1	-10
579.016	1	12
580.205	1	2
581.394	1	1
582.583	1	12
583.772	1	6
584.961	1	1
586.150	1	0
587.339	1	4
588.528	1	2
589.717	1	2
590.905	1	5
592.094	1	-6
593.283	1	-4
594.471	1	11
595.660	1	2
596.848	1	-2
598.037	1	1
599.225	1	-6
600.413	1	15
601.602	1	3
602.790	1	2
603.978	1	-10
605.166	1	4
606.355	1	1
607.543	1	-5
608.731	1	-7
609.919	1	3
611.107	1	1
612.295	1	-14
613.483	1	2
614.671	1	1
615.858	1	10
617.046	1	4
618.234	1	-8
619.422	1	-9
620.609	1	-2
621.797	1	-3
622.985	1	3
624.172	1	-3
625.360	1	2
626.547	1	-10
627.735	1	-2
628.922	1	11
630.109	1	-16
631.297	1	4
632.484	1	-3
633.671	1	-6
634.858	1	2
636.045	1	7
637.232	1	5
638.419	1	-1
639.606	1	4
640.793	1	7
641.980	1	-1
643.167	1	-5
644.354	1	9
645.541	1	0
646.728	1	-7
647.914	1	-7
649.101	1	3
650.288	1	-3
651.474	1	-3
652.661	1	-2
653.847	1	2
655.034	1	-6
656.220	1	1
657.406	1	-3
658.593	1	9
659.779	1	-5
660.965	1	-3
662.152	1	8
663.338	1	2
664.524	1	2
665.710	1	-1
666.896	1	-7
668.082	1	-4
669.268	1	1
670.454	1	1
671.640	1	4
672.826	1	-5
674.011	1	1
675.197	1	-4
676.383	1	1
677.569	1	-1
678.754	1	-4
679.940	1	1
681.125	1	11
682.311	1	6
683.496	1	-3
684.682	1	-3
685.867	1	3
687.053	1	-3
688.238	1	1
688.746	1	-1