File: Data/GaN_200K_800ms/GaN_sample F_spot 12_UVVIS_200 K_200um_800 ms 2x2mm1_549.txt
340.368	1	14
341.565	1	-6
342.763	1	0
343.960	1	-2
345.157	1	-6
346.354	1	3
347.552	1	-11
348.749	1	-2
349.946	1	-14
351.143	1	1
352.340	1	1
353.537	1	-7
354.734	1	7
355.931	1	2
357.127	1	-1
358.324	1	-7
359.521	1	4
360.718	1	-2
361.914	1	-2
363.111	1	-9
364.308	1	-10
365.504	1	5
366.701	1	-2
367.897	1	0
369.093	1	0
370.290	1	-1
371.486	1	-4
372.682	1	0
373.879	1	-17
375.075	1	-16
376.271	1	7
377.467	1	-3
378.663	1	-9
379.859	1	-3
381.055	1	9
382.251	1	-6
383.447	1	-7
384.643	1	3
385.839	1	-2
387.035	1	-7
388.230	1	4
389.426	1	-10
390.622	1	-13
391.817	1	-3
393.013	1	-2
394.208	1	-7
395.404	1	-21
396.599	1	-11
397.795	1	0
398.990	1	2
400.186	1	0
401.381	1	-8
402.576	1	-8
403.771	1	-6
404.967	1	5
406.162	1	-3
407.357	1	-1
408.552	1	-2
409.747	1	-9
410.942	1	7
412.137	1	0
413.332	1	-2
414.526	1	-6
415.721	1	2
416.916	1	-3
418.111	1	-5
419.305	1	-6
420.500	1	3
421.695	1	-10
422.889	1	-14
424.084	1	-9
425.278	1	-2
426.472	1	-6
427.667	1	-3
428.861	1	-7
430.055	1	-9
431.250	1	-8
432.444	1	0
433.638	1	-7
434.832	1	-2
436.026	1	3
437.220	1	-6
438.414	1	-16
439.608	1	-5
440.802	1	-2
441.996	1	-3
443.190	1	-9
444.384	1	-10
445.578	1	-12
446.771	1	7
447.965	1	0
449.159	1	-14
450.352	1	-11
451.546	1	4
452.739	1	3
453.933	1	-2
455.126	1	-2
456.320	1	0
457.513	1	5
458.706	1	-2
459.899	1	-2
461.093	1	-5
462.286	1	-4
463.479	1	-4
464.672	1	-3
465.865	1	-8
467.058	1	-9
468.251	1	-7
469.444	1	-8
470.637	1	3
471.830	1	1
473.023	1	-2
474.215	1	-2
475.408	1	-1
476.601	1	4
477.793	1	-5
478.986	1	-5
480.179	1	-7
481.371	1	-14
482.564	1	0
483.756	1	-5
484.948	1	-7
486.141	1	-5
487.333	1	-3
488.525	1	-5
489.718	1	-4
490.910	1	-8
492.102	1	-1
493.294	1	-8
494.486	1	3
495.678	1	-8
496.870	1	4
498.062	1	1
499.254	1	-9
500.446	1	-11
501.638	1	-6
502.829	1	0
504.021	1	-4
505.213	1	10
506.404	1	0
507.596	1	-3
508.788	1	14
509.979	1	1
511.171	1	-10
512.362	1	-13
513.553	1	-7
514.745	1	1
515.936	1	-8
517.127	1	9
518.319	1	-2
519.510	1	-2
520.701	1	-7
521.892	1	0
523.083	1	-8
524.274	1	4
525.465	1	9
526.656	1	-2
527.847	1	-5
529.038	1	-6
530.229	1	-5
531.419	1	-2
532.610	1	-11
533.801	1	20
534.991	1	-5
536.182	1	-1
537.373	1	5
538.563	1	-2
539.754	1	-1
540.944	1	-9
542.134	1	1
543.325	1	-12
544.515	1	-2
545.705	1	-10
546.896	1	-8
548.086	1	-1
549.276	1	-6
550.466	1	-7
551.656	1	1
552.846	1	-6
554.036	1	-3
555.226	1	-8
556.416	1	-12
557.606	1	7
558.796	1	2
559.986	1	-1
561.175	1	11
562.365	1	0
563.555	1	-5
564.744	1	7
565.934	1	0
567.123	1	6
568.313	1	-5
569.502	1	-10
570.692	1	-1
571.881	1	3
573.070	1	1
574.260	1	6
575.449	1	-3
576.638	1	-6
577.827	1	-12
579.016	1	3
580.205	1	-4
581.394	1	-11
582.583	1	5
583.772	1	6
584.961	1	-4
586.150	1	-5
587.339	1	1
588.528	1	-7
589.717	1	-10
590.905	1	-12
592.094	1	-8
593.283	1	0
594.471	1	-1
595.660	1	-5
596.848	1	-3
598.037	1	-2
599.225	1	-12
600.413	1	-5
601.602	1	-5
602.790	1	-9
603.978	1	-4
605.166	1	5
606.355	1	-6
607.543	1	-9
608.731	1	-7
609.919	1	6
611.107	1	-8
612.295	1	-13
613.483	1	-2
614.671	1	-1
615.858	1	1
617.046	1	0
618.234	1	-8
619.422	1	-14
620.609	1	0
621.797	1	-7
622.985	1	-2
624.172	1	-4
625.360	1	1
626.547	1	-4
627.735	1	-5
628.922	1	5
630.109	1	-15
631.297	1	-2
632.484	1	-2
633.671	1	-10
634.858	1	0
636.045	1	6
637.232	1	-4
638.419	1	-8
639.606	1	6
640.793	1	4
641.980	1	9
643.167	1	-10
644.354	1	-1
645.541	1	-3
646.728	1	-7
647.914	1	-8
649.101	1	-3
650.288	1	-4
651.474	1	-2
652.661	1	-10
653.847	1	4
655.034	1	0
656.220	1	-9
657.406	1	0
658.593	1	9
659.779	1	-2
660.965	1	5
662.152	1	4
663.338	1	3
664.524	1	5
665.710	1	-5
666.896	1	-13
668.082	1	-7
669.268	1	-2
670.454	1	0
671.640	1	-5
672.826	1	-2
674.011	1	-7
675.197	1	-14
676.383	1	1
677.569	1	-11
678.754	1	-7
679.940	1	2
681.125	1	-2
682.311	1	2
683.496	1	0
684.682	1	-6
685.867	1	-10
687.053	1	3
688.238	1	-3
688.746	1	5