File: Data/GaN_200K_800ms/GaN_sample F_spot 12_UVVIS_200 K_200um_800 ms 2x2mm1_91.txt
340.368	1	3
341.565	1	-12
342.763	1	2
343.960	1	2
345.157	1	-3
346.354	1	-6
347.552	1	0
348.749	1	-11
349.946	1	1
351.143	1	5
352.340	1	8
353.537	1	4
354.734	1	10
355.931	1	10
357.127	1	14
358.324	1	8
359.521	1	22
360.718	1	32
361.914	1	30
363.111	1	44
364.308	1	54
365.504	1	64
366.701	1	93
367.897	1	107
369.093	1	100
370.290	1	124
371.486	1	115
372.682	1	92
373.879	1	78
375.075	1	68
376.271	1	70
377.467	1	57
378.663	1	46
379.859	1	43
381.055	1	39
382.251	1	19
383.447	1	31
384.643	1	30
385.839	1	20
387.035	1	21
388.230	1	22
389.426	1	8
390.622	1	4
391.817	1	7
393.013	1	16
394.208	1	3
395.404	1	6
396.599	1	7
397.795	1	2
398.990	1	8
400.186	1	12
401.381	1	0
402.576	1	5
403.771	1	6
404.967	1	5
406.162	1	11
407.357	1	-3
408.552	1	0
409.747	1	9
410.942	1	11
412.137	1	13
413.332	1	9
414.526	1	2
415.721	1	7
416.916	1	0
418.111	1	0
419.305	1	6
420.500	1	-9
421.695	1	4
422.889	1	-7
424.084	1	0
425.278	1	18
426.472	1	-3
427.667	1	10
428.861	1	-7
430.055	1	5
431.250	1	4
432.444	1	11
433.638	1	-4
434.832	1	7
436.026	1	7
437.220	1	7
438.414	1	0
439.608	1	-12
440.802	1	4
441.996	1	3
443.190	1	4
444.384	1	0
445.578	1	-6
446.771	1	18
447.965	1	-2
449.159	1	2
450.352	1	5
451.546	1	-1
452.739	1	2
453.933	1	3
455.126	1	-4
456.320	1	0
457.513	1	14
458.706	1	9
459.899	1	6
461.093	1	2
462.286	1	5
463.479	1	-5
464.672	1	-5
465.865	1	5
467.058	1	6
468.251	1	-3
469.444	1	1
470.637	1	-2
471.830	1	0
473.023	1	2
474.215	1	17
475.408	1	6
476.601	1	-1
477.793	1	0
478.986	1	-3
480.179	1	3
481.371	1	5
482.564	1	1
483.756	1	9
484.948	1	-9
486.141	1	-3
487.333	1	4
488.525	1	1
489.718	1	9
490.910	1	5
492.102	1	6
493.294	1	0
494.486	1	12
495.678	1	12
496.870	1	3
498.062	1	4
499.254	1	10
500.446	1	-7
501.638	1	6
502.829	1	8
504.021	1	7
505.213	1	17
506.404	1	-1
507.596	1	11
508.788	1	17
509.979	1	-2
511.171	1	-3
512.362	1	5
513.553	1	-3
514.745	1	6
515.936	1	7
517.127	1	9
518.319	1	11
519.510	1	10
520.701	1	7
521.892	1	11
523.083	1	8
524.274	1	12
525.465	1	18
526.656	1	12
527.847	1	9
529.038	1	12
530.229	1	16
531.419	1	5
532.610	1	10
533.801	1	27
534.991	1	14
536.182	1	3
537.373	1	17
538.563	1	16
539.754	1	14
540.944	1	7
542.134	1	20
543.325	1	13
544.515	1	8
545.705	1	9
546.896	1	9
548.086	1	6
549.276	1	9
550.466	1	22
551.656	1	15
552.846	1	12
554.036	1	17
555.226	1	8
556.416	1	11
557.606	1	16
558.796	1	23
559.986	1	13
561.175	1	11
562.365	1	14
563.555	1	9
564.744	1	9
565.934	1	20
567.123	1	12
568.313	1	26
569.502	1	8
570.692	1	23
571.881	1	20
573.070	1	9
574.260	1	15
575.449	1	5
576.638	1	5
577.827	1	10
579.016	1	19
580.205	1	0
581.394	1	11
582.583	1	22
583.772	1	16
584.961	1	11
586.150	1	5
587.339	1	13
588.528	1	18
589.717	1	11
590.905	1	8
592.094	1	16
593.283	1	13
594.471	1	19
595.660	1	-1
596.848	1	8
598.037	1	10
599.225	1	5
600.413	1	17
601.602	1	24
602.790	1	12
603.978	1	8
605.166	1	26
606.355	1	13
607.543	1	3
608.731	1	8
609.919	1	20
611.107	1	9
612.295	1	7
613.483	1	12
614.671	1	16
615.858	1	-1
617.046	1	13
618.234	1	9
619.422	1	-2
620.609	1	11
621.797	1	7
622.985	1	8
624.172	1	9
625.360	1	4
626.547	1	16
627.735	1	4
628.922	1	1
630.109	1	-3
631.297	1	13
632.484	1	5
633.671	1	1
634.858	1	2
636.045	1	16
637.232	1	-2
638.419	1	3
639.606	1	18
640.793	1	12
641.980	1	16
643.167	1	4
644.354	1	12
645.541	1	4
646.728	1	11
647.914	1	3
649.101	1	2
650.288	1	6
651.474	1	-1
652.661	1	0
653.847	1	10
655.034	1	9
656.220	1	1
657.406	1	10
658.593	1	11
659.779	1	10
660.965	1	4
662.152	1	1
663.338	1	1
664.524	1	8
665.710	1	1
666.896	1	-6
668.082	1	6
669.268	1	6
670.454	1	10
671.640	1	9
672.826	1	1
674.011	1	-2
675.197	1	5
676.383	1	17
677.569	1	8
678.754	1	10
679.940	1	4
681.125	1	5
682.311	1	12
683.496	1	1
684.682	1	-2
685.867	1	1
687.053	1	2
688.238	1	4
688.746	1	3