File: Data/GaN_200K_800ms/GaN_sample F_spot 12_UVVIS_200 K_200um_800 ms 2x2mm1_126.txt
340.368	1	5
341.565	1	-6
342.763	1	0
343.960	1	-5
345.157	1	1
346.354	1	-3
347.552	1	-1
348.749	1	-8
349.946	1	-5
351.143	1	-3
352.340	1	14
353.537	1	1
354.734	1	8
355.931	1	5
357.127	1	12
358.324	1	12
359.521	1	25
360.718	1	17
361.914	1	22
363.111	1	19
364.308	1	26
365.504	1	48
366.701	1	55
367.897	1	65
369.093	1	55
370.290	1	68
371.486	1	58
372.682	1	56
373.879	1	52
375.075	1	42
376.271	1	38
377.467	1	33
378.663	1	35
379.859	1	26
381.055	1	22
382.251	1	20
383.447	1	9
384.643	1	20
385.839	1	8
387.035	1	15
388.230	1	17
389.426	1	6
390.622	1	1
391.817	1	9
393.013	1	2
394.208	1	3
395.404	1	8
396.599	1	-2
397.795	1	-2
398.990	1	12
400.186	1	1
401.381	1	6
402.576	1	-2
403.771	1	7
404.967	1	5
406.162	1	8
407.357	1	1
408.552	1	6
409.747	1	-1
410.942	1	4
412.137	1	4
413.332	1	4
414.526	1	3
415.721	1	7
416.916	1	0
418.111	1	-3
419.305	1	-6
420.500	1	-4
421.695	1	-3
422.889	1	-6
424.084	1	5
425.278	1	8
426.472	1	7
427.667	1	6
428.861	1	1
430.055	1	1
431.250	1	-6
432.444	1	5
433.638	1	2
434.832	1	0
436.026	1	10
437.220	1	5
438.414	1	-4
439.608	1	-12
440.802	1	0
441.996	1	5
443.190	1	10
444.384	1	-11
445.578	1	-6
446.771	1	9
447.965	1	-4
449.159	1	-9
450.352	1	1
451.546	1	8
452.739	1	6
453.933	1	2
455.126	1	-4
456.320	1	10
457.513	1	-3
458.706	1	-1
459.899	1	4
461.093	1	-1
462.286	1	1
463.479	1	-4
464.672	1	0
465.865	1	-3
467.058	1	-1
468.251	1	4
469.444	1	-5
470.637	1	9
471.830	1	-1
473.023	1	6
474.215	1	7
475.408	1	5
476.601	1	-1
477.793	1	5
478.986	1	-3
480.179	1	-5
481.371	1	6
482.564	1	7
483.756	1	4
484.948	1	-3
486.141	1	-1
487.333	1	6
488.525	1	1
489.718	1	-2
490.910	1	1
492.102	1	-2
493.294	1	3
494.486	1	-1
495.678	1	1
496.870	1	-2
498.062	1	5
499.254	1	2
500.446	1	-12
501.638	1	-3
502.829	1	0
504.021	1	5
505.213	1	9
506.404	1	11
507.596	1	8
508.788	1	17
509.979	1	-1
511.171	1	4
512.362	1	-9
513.553	1	-1
514.745	1	-5
515.936	1	7
517.127	1	4
518.319	1	13
519.510	1	10
520.701	1	6
521.892	1	9
523.083	1	1
524.274	1	4
525.465	1	20
526.656	1	5
527.847	1	1
529.038	1	16
530.229	1	1
531.419	1	11
532.610	1	2
533.801	1	13
534.991	1	4
536.182	1	3
537.373	1	3
538.563	1	7
539.754	1	18
540.944	1	3
542.134	1	8
543.325	1	-4
544.515	1	4
545.705	1	1
546.896	1	0
548.086	1	8
549.276	1	8
550.466	1	4
551.656	1	19
552.846	1	8
554.036	1	12
555.226	1	-3
556.416	1	3
557.606	1	11
558.796	1	9
559.986	1	8
561.175	1	16
562.365	1	10
563.555	1	3
564.744	1	11
565.934	1	14
567.123	1	9
568.313	1	9
569.502	1	3
570.692	1	11
571.881	1	11
573.070	1	7
574.260	1	18
575.449	1	0
576.638	1	4
577.827	1	3
579.016	1	15
580.205	1	4
581.394	1	4
582.583	1	16
583.772	1	10
584.961	1	8
586.150	1	5
587.339	1	6
588.528	1	5
589.717	1	11
590.905	1	4
592.094	1	12
593.283	1	1
594.471	1	13
595.660	1	8
596.848	1	9
598.037	1	4
599.225	1	-3
600.413	1	12
601.602	1	11
602.790	1	7
603.978	1	0
605.166	1	16
606.355	1	11
607.543	1	9
608.731	1	4
609.919	1	8
611.107	1	5
612.295	1	-2
613.483	1	14
614.671	1	7
615.858	1	5
617.046	1	17
618.234	1	-3
619.422	1	6
620.609	1	4
621.797	1	-2
622.985	1	7
624.172	1	7
625.360	1	2
626.547	1	5
627.735	1	15
628.922	1	5
630.109	1	-2
631.297	1	3
632.484	1	-5
633.671	1	2
634.858	1	7
636.045	1	15
637.232	1	8
638.419	1	3
639.606	1	5
640.793	1	13
641.980	1	5
643.167	1	-8
644.354	1	2
645.541	1	9
646.728	1	-1
647.914	1	1
649.101	1	5
650.288	1	6
651.474	1	2
652.661	1	-1
653.847	1	16
655.034	1	0
656.220	1	-5
657.406	1	8
658.593	1	5
659.779	1	6
660.965	1	0
662.152	1	3
663.338	1	10
664.524	1	2
665.710	1	8
666.896	1	2
668.082	1	-1
669.268	1	3
670.454	1	-2
671.640	1	5
672.826	1	-8
674.011	1	4
675.197	1	3
676.383	1	1
677.569	1	-2
678.754	1	3
679.940	1	8
681.125	1	2
682.311	1	14
683.496	1	1
684.682	1	-2
685.867	1	5
687.053	1	13
688.238	1	8
688.746	1	6