File: Data/GaN_200K_800ms/GaN_sample F_spot 12_UVVIS_200 K_200um_800 ms 2x2mm1_294.txt
340.368	1	-2
341.565	1	-12
342.763	1	5
343.960	1	0
345.157	1	-7
346.354	1	7
347.552	1	-10
348.749	1	0
349.946	1	-3
351.143	1	-5
352.340	1	2
353.537	1	-10
354.734	1	1
355.931	1	2
357.127	1	5
358.324	1	-4
359.521	1	2
360.718	1	6
361.914	1	10
363.111	1	-1
364.308	1	1
365.504	1	18
366.701	1	9
367.897	1	21
369.093	1	12
370.290	1	8
371.486	1	23
372.682	1	15
373.879	1	6
375.075	1	7
376.271	1	18
377.467	1	15
378.663	1	-4
379.859	1	8
381.055	1	7
382.251	1	4
383.447	1	1
384.643	1	6
385.839	1	1
387.035	1	5
388.230	1	5
389.426	1	-3
390.622	1	8
391.817	1	-5
393.013	1	-7
394.208	1	0
395.404	1	-10
396.599	1	-3
397.795	1	9
398.990	1	5
400.186	1	-1
401.381	1	-4
402.576	1	0
403.771	1	0
404.967	1	-1
406.162	1	1
407.357	1	-4
408.552	1	2
409.747	1	4
410.942	1	-6
412.137	1	2
413.332	1	3
414.526	1	1
415.721	1	0
416.916	1	-3
418.111	1	4
419.305	1	-6
420.500	1	1
421.695	1	1
422.889	1	-19
424.084	1	1
425.278	1	9
426.472	1	3
427.667	1	5
428.861	1	-5
430.055	1	2
431.250	1	-6
432.444	1	10
433.638	1	-4
434.832	1	4
436.026	1	8
437.220	1	4
438.414	1	-13
439.608	1	-3
440.802	1	-1
441.996	1	7
443.190	1	-1
444.384	1	-9
445.578	1	-6
446.771	1	6
447.965	1	-9
449.159	1	-6
450.352	1	3
451.546	1	5
452.739	1	4
453.933	1	-7
455.126	1	-7
456.320	1	4
457.513	1	8
458.706	1	0
459.899	1	-2
461.093	1	-5
462.286	1	2
463.479	1	6
464.672	1	0
465.865	1	-3
467.058	1	3
468.251	1	2
469.444	1	-10
470.637	1	-4
471.830	1	-6
473.023	1	1
474.215	1	9
475.408	1	1
476.601	1	0
477.793	1	-5
478.986	1	6
480.179	1	3
481.371	1	3
482.564	1	-8
483.756	1	4
484.948	1	-1
486.141	1	3
487.333	1	-4
488.525	1	-3
489.718	1	5
490.910	1	-8
492.102	1	-7
493.294	1	-8
494.486	1	3
495.678	1	11
496.870	1	6
498.062	1	2
499.254	1	7
500.446	1	-13
501.638	1	-7
502.829	1	-7
504.021	1	-12
505.213	1	3
506.404	1	2
507.596	1	-4
508.788	1	1
509.979	1	6
511.171	1	-5
512.362	1	-7
513.553	1	-10
514.745	1	-5
515.936	1	1
517.127	1	1
518.319	1	1
519.510	1	2
520.701	1	-3
521.892	1	3
523.083	1	-9
524.274	1	-4
525.465	1	12
526.656	1	-3
527.847	1	-10
529.038	1	8
530.229	1	-2
531.419	1	0
532.610	1	-6
533.801	1	12
534.991	1	-1
536.182	1	2
537.373	1	-2
538.563	1	8
539.754	1	9
540.944	1	-4
542.134	1	9
543.325	1	1
544.515	1	-2
545.705	1	-6
546.896	1	-7
548.086	1	2
549.276	1	-13
550.466	1	0
551.656	1	2
552.846	1	0
554.036	1	9
555.226	1	4
556.416	1	-7
557.606	1	-1
558.796	1	3
559.986	1	-2
561.175	1	7
562.365	1	-2
563.555	1	-8
564.744	1	8
565.934	1	4
567.123	1	5
568.313	1	10
569.502	1	4
570.692	1	10
571.881	1	16
573.070	1	2
574.260	1	9
575.449	1	2
576.638	1	-7
577.827	1	9
579.016	1	11
580.205	1	10
581.394	1	-2
582.583	1	12
583.772	1	7
584.961	1	5
586.150	1	4
587.339	1	1
588.528	1	11
589.717	1	2
590.905	1	-1
592.094	1	0
593.283	1	1
594.471	1	11
595.660	1	5
596.848	1	3
598.037	1	0
599.225	1	-8
600.413	1	15
601.602	1	3
602.790	1	1
603.978	1	3
605.166	1	5
606.355	1	-5
607.543	1	-1
608.731	1	8
609.919	1	9
611.107	1	0
612.295	1	-9
613.483	1	5
614.671	1	3
615.858	1	1
617.046	1	4
618.234	1	-4
619.422	1	-11
620.609	1	1
621.797	1	1
622.985	1	3
624.172	1	-14
625.360	1	0
626.547	1	8
627.735	1	-4
628.922	1	8
630.109	1	-5
631.297	1	1
632.484	1	5
633.671	1	-3
634.858	1	-1
636.045	1	7
637.232	1	-8
638.419	1	2
639.606	1	6
640.793	1	8
641.980	1	3
643.167	1	-6
644.354	1	3
645.541	1	-2
646.728	1	8
647.914	1	1
649.101	1	-1
650.288	1	-4
651.474	1	-3
652.661	1	3
653.847	1	1
655.034	1	6
656.220	1	-7
657.406	1	9
658.593	1	2
659.779	1	1
660.965	1	14
662.152	1	4
663.338	1	6
664.524	1	8
665.710	1	0
666.896	1	2
668.082	1	7
669.268	1	-2
670.454	1	-9
671.640	1	0
672.826	1	-2
674.011	1	5
675.197	1	-7
676.383	1	2
677.569	1	-11
678.754	1	-5
679.940	1	-7
681.125	1	10
682.311	1	-1
683.496	1	4
684.682	1	-5
685.867	1	-11
687.053	1	7
688.238	1	1
688.746	1	-6