File: Data/GaN_200K_800ms/GaN_sample F_spot 12_UVVIS_200 K_200um_800 ms 2x2mm1_11.txt
340.368	1	3
341.565	1	-12
342.763	1	5
343.960	1	-3
345.157	1	-9
346.354	1	-2
347.552	1	-1
348.749	1	-4
349.946	1	-3
351.143	1	1
352.340	1	3
353.537	1	-3
354.734	1	8
355.931	1	3
357.127	1	3
358.324	1	0
359.521	1	13
360.718	1	-3
361.914	1	0
363.111	1	-4
364.308	1	-3
365.504	1	8
366.701	1	-4
367.897	1	3
369.093	1	-6
370.290	1	-3
371.486	1	5
372.682	1	4
373.879	1	0
375.075	1	-5
376.271	1	10
377.467	1	2
378.663	1	-4
379.859	1	2
381.055	1	-6
382.251	1	-4
383.447	1	-9
384.643	1	10
385.839	1	-2
387.035	1	-5
388.230	1	5
389.426	1	-1
390.622	1	-1
391.817	1	4
393.013	1	-5
394.208	1	0
395.404	1	-7
396.599	1	-1
397.795	1	1
398.990	1	2
400.186	1	7
401.381	1	-9
402.576	1	0
403.771	1	2
404.967	1	0
406.162	1	16
407.357	1	2
408.552	1	-5
409.747	1	3
410.942	1	1
412.137	1	6
413.332	1	9
414.526	1	-3
415.721	1	0
416.916	1	3
418.111	1	6
419.305	1	1
420.500	1	0
421.695	1	-1
422.889	1	-7
424.084	1	-3
425.278	1	6
426.472	1	1
427.667	1	9
428.861	1	-1
430.055	1	4
431.250	1	0
432.444	1	4
433.638	1	3
434.832	1	9
436.026	1	4
437.220	1	4
438.414	1	-8
439.608	1	-8
440.802	1	-6
441.996	1	-1
443.190	1	-7
444.384	1	-3
445.578	1	-9
446.771	1	14
447.965	1	-3
449.159	1	2
450.352	1	-2
451.546	1	4
452.739	1	4
453.933	1	-6
455.126	1	3
456.320	1	-7
457.513	1	4
458.706	1	10
459.899	1	6
461.093	1	-1
462.286	1	-5
463.479	1	0
464.672	1	0
465.865	1	5
467.058	1	-4
468.251	1	-1
469.444	1	-4
470.637	1	-4
471.830	1	-4
473.023	1	1
474.215	1	3
475.408	1	-7
476.601	1	0
477.793	1	0
478.986	1	-1
480.179	1	2
481.371	1	0
482.564	1	-1
483.756	1	4
484.948	1	-7
486.141	1	-5
487.333	1	7
488.525	1	0
489.718	1	4
490.910	1	-3
492.102	1	-8
493.294	1	-4
494.486	1	6
495.678	1	1
496.870	1	-3
498.062	1	2
499.254	1	-2
500.446	1	-12
501.638	1	-10
502.829	1	0
504.021	1	3
505.213	1	17
506.404	1	-2
507.596	1	-5
508.788	1	12
509.979	1	0
511.171	1	-5
512.362	1	-3
513.553	1	-3
514.745	1	-2
515.936	1	-1
517.127	1	-5
518.319	1	4
519.510	1	7
520.701	1	4
521.892	1	7
523.083	1	-3
524.274	1	8
525.465	1	12
526.656	1	-2
527.847	1	5
529.038	1	-2
530.229	1	9
531.419	1	8
532.610	1	6
533.801	1	13
534.991	1	2
536.182	1	0
537.373	1	-2
538.563	1	7
539.754	1	7
540.944	1	-7
542.134	1	9
543.325	1	-7
544.515	1	-1
545.705	1	3
546.896	1	-3
548.086	1	-2
549.276	1	4
550.466	1	-2
551.656	1	5
552.846	1	6
554.036	1	1
555.226	1	-10
556.416	1	-6
557.606	1	6
558.796	1	-10
559.986	1	-6
561.175	1	4
562.365	1	1
563.555	1	-5
564.744	1	3
565.934	1	12
567.123	1	5
568.313	1	5
569.502	1	-2
570.692	1	0
571.881	1	6
573.070	1	4
574.260	1	10
575.449	1	0
576.638	1	-3
577.827	1	-6
579.016	1	3
580.205	1	-3
581.394	1	-4
582.583	1	8
583.772	1	7
584.961	1	11
586.150	1	1
587.339	1	1
588.528	1	9
589.717	1	4
590.905	1	-2
592.094	1	-7
593.283	1	1
594.471	1	11
595.660	1	1
596.848	1	3
598.037	1	11
599.225	1	-5
600.413	1	18
601.602	1	7
602.790	1	0
603.978	1	-3
605.166	1	13
606.355	1	6
607.543	1	-6
608.731	1	10
609.919	1	3
611.107	1	-5
612.295	1	-6
613.483	1	3
614.671	1	4
615.858	1	9
617.046	1	6
618.234	1	0
619.422	1	-9
620.609	1	11
621.797	1	-2
622.985	1	6
624.172	1	-3
625.360	1	2
626.547	1	3
627.735	1	2
628.922	1	2
630.109	1	-10
631.297	1	4
632.484	1	5
633.671	1	-12
634.858	1	-8
636.045	1	2
637.232	1	-8
638.419	1	-7
639.606	1	6
640.793	1	15
641.980	1	15
643.167	1	2
644.354	1	-2
645.541	1	-1
646.728	1	-4
647.914	1	-4
649.101	1	-7
650.288	1	1
651.474	1	3
652.661	1	-6
653.847	1	-1
655.034	1	6
656.220	1	-10
657.406	1	7
658.593	1	5
659.779	1	9
660.965	1	-2
662.152	1	8
663.338	1	10
664.524	1	8
665.710	1	5
666.896	1	-6
668.082	1	-4
669.268	1	-3
670.454	1	3
671.640	1	2
672.826	1	2
674.011	1	-5
675.197	1	-7
676.383	1	1
677.569	1	2
678.754	1	4
679.940	1	-3
681.125	1	7
682.311	1	7
683.496	1	-2
684.682	1	-3
685.867	1	-6
687.053	1	0
688.238	1	3
688.746	1	-3