File: Data/GaN_200K_800ms/GaN_sample F_spot 12_UVVIS_200 K_200um_800 ms 2x2mm1_312.txt
340.368	1	4
341.565	1	-12
342.763	1	4
343.960	1	1
345.157	1	-4
346.354	1	0
347.552	1	-3
348.749	1	-7
349.946	1	0
351.143	1	3
352.340	1	3
353.537	1	-5
354.734	1	-5
355.931	1	-1
357.127	1	-10
358.324	1	2
359.521	1	4
360.718	1	1
361.914	1	8
363.111	1	0
364.308	1	4
365.504	1	15
366.701	1	16
367.897	1	14
369.093	1	8
370.290	1	9
371.486	1	22
372.682	1	18
373.879	1	9
375.075	1	10
376.271	1	14
377.467	1	6
378.663	1	3
379.859	1	2
381.055	1	7
382.251	1	-1
383.447	1	-2
384.643	1	9
385.839	1	8
387.035	1	-6
388.230	1	10
389.426	1	3
390.622	1	0
391.817	1	8
393.013	1	-6
394.208	1	-2
395.404	1	-4
396.599	1	1
397.795	1	6
398.990	1	4
400.186	1	3
401.381	1	0
402.576	1	-6
403.771	1	-2
404.967	1	2
406.162	1	11
407.357	1	2
408.552	1	1
409.747	1	-3
410.942	1	8
412.137	1	5
413.332	1	5
414.526	1	3
415.721	1	6
416.916	1	-2
418.111	1	1
419.305	1	-1
420.500	1	-7
421.695	1	-1
422.889	1	-4
424.084	1	1
425.278	1	9
426.472	1	4
427.667	1	4
428.861	1	-5
430.055	1	0
431.250	1	-3
432.444	1	4
433.638	1	-1
434.832	1	2
436.026	1	3
437.220	1	2
438.414	1	-6
439.608	1	3
440.802	1	0
441.996	1	0
443.190	1	-1
444.384	1	-10
445.578	1	-12
446.771	1	17
447.965	1	0
449.159	1	-5
450.352	1	-3
451.546	1	5
452.739	1	8
453.933	1	-2
455.126	1	1
456.320	1	-3
457.513	1	0
458.706	1	7
459.899	1	-4
461.093	1	3
462.286	1	3
463.479	1	-2
464.672	1	3
465.865	1	-4
467.058	1	5
468.251	1	-7
469.444	1	-5
470.637	1	2
471.830	1	-7
473.023	1	-4
474.215	1	6
475.408	1	10
476.601	1	-4
477.793	1	2
478.986	1	4
480.179	1	2
481.371	1	-1
482.564	1	-8
483.756	1	3
484.948	1	-11
486.141	1	-3
487.333	1	0
488.525	1	-4
489.718	1	1
490.910	1	1
492.102	1	-4
493.294	1	2
494.486	1	-7
495.678	1	4
496.870	1	9
498.062	1	2
499.254	1	0
500.446	1	-7
501.638	1	-3
502.829	1	5
504.021	1	-8
505.213	1	7
506.404	1	2
507.596	1	2
508.788	1	12
509.979	1	3
511.171	1	1
512.362	1	-8
513.553	1	-6
514.745	1	5
515.936	1	1
517.127	1	-4
518.319	1	2
519.510	1	-3
520.701	1	-2
521.892	1	-4
523.083	1	3
524.274	1	-8
525.465	1	5
526.656	1	6
527.847	1	3
529.038	1	2
530.229	1	7
531.419	1	0
532.610	1	-7
533.801	1	11
534.991	1	-2
536.182	1	1
537.373	1	1
538.563	1	-3
539.754	1	5
540.944	1	-6
542.134	1	10
543.325	1	0
544.515	1	-3
545.705	1	0
546.896	1	-3
548.086	1	5
549.276	1	0
550.466	1	9
551.656	1	6
552.846	1	-2
554.036	1	13
555.226	1	-11
556.416	1	-6
557.606	1	3
558.796	1	0
559.986	1	-2
561.175	1	-2
562.365	1	1
563.555	1	-4
564.744	1	6
565.934	1	-1
567.123	1	3
568.313	1	0
569.502	1	-3
570.692	1	9
571.881	1	14
573.070	1	1
574.260	1	1
575.449	1	0
576.638	1	-9
577.827	1	1
579.016	1	7
580.205	1	-1
581.394	1	-1
582.583	1	11
583.772	1	6
584.961	1	-8
586.150	1	6
587.339	1	7
588.528	1	2
589.717	1	8
590.905	1	-2
592.094	1	-2
593.283	1	-2
594.471	1	8
595.660	1	7
596.848	1	6
598.037	1	-5
599.225	1	-13
600.413	1	3
601.602	1	11
602.790	1	4
603.978	1	-4
605.166	1	3
606.355	1	11
607.543	1	-9
608.731	1	2
609.919	1	10
611.107	1	-6
612.295	1	-3
613.483	1	-1
614.671	1	7
615.858	1	-3
617.046	1	-5
618.234	1	-3
619.422	1	-9
620.609	1	4
621.797	1	-3
622.985	1	0
624.172	1	-2
625.360	1	3
626.547	1	-7
627.735	1	3
628.922	1	0
630.109	1	-4
631.297	1	7
632.484	1	-5
633.671	1	-2
634.858	1	1
636.045	1	5
637.232	1	-1
638.419	1	1
639.606	1	8
640.793	1	3
641.980	1	-4
643.167	1	-3
644.354	1	-2
645.541	1	6
646.728	1	0
647.914	1	-3
649.101	1	3
650.288	1	-3
651.474	1	-7
652.661	1	-1
653.847	1	5
655.034	1	-1
656.220	1	-3
657.406	1	-2
658.593	1	6
659.779	1	4
660.965	1	9
662.152	1	3
663.338	1	4
664.524	1	0
665.710	1	4
666.896	1	-4
668.082	1	4
669.268	1	-6
670.454	1	-1
671.640	1	0
672.826	1	3
674.011	1	0
675.197	1	0
676.383	1	-1
677.569	1	-4
678.754	1	-1
679.940	1	-17
681.125	1	6
682.311	1	0
683.496	1	0
684.682	1	-6
685.867	1	6
687.053	1	-3
688.238	1	7
688.746	1	-3