File: Data/GaN_200K_800ms/GaN_sample F_spot 12_UVVIS_200 K_200um_800 ms 2x2mm1_367.txt
340.368	1	11
341.565	1	-7
342.763	1	0
343.960	1	-10
345.157	1	-7
346.354	1	-8
347.552	1	-2
348.749	1	-3
349.946	1	-9
351.143	1	-1
352.340	1	-5
353.537	1	-1
354.734	1	3
355.931	1	-4
357.127	1	-3
358.324	1	-1
359.521	1	3
360.718	1	9
361.914	1	-2
363.111	1	6
364.308	1	6
365.504	1	10
366.701	1	23
367.897	1	9
369.093	1	6
370.290	1	16
371.486	1	5
372.682	1	16
373.879	1	6
375.075	1	0
376.271	1	7
377.467	1	6
378.663	1	3
379.859	1	6
381.055	1	10
382.251	1	6
383.447	1	-3
384.643	1	8
385.839	1	1
387.035	1	4
388.230	1	16
389.426	1	-1
390.622	1	-8
391.817	1	7
393.013	1	-6
394.208	1	2
395.404	1	-6
396.599	1	-3
397.795	1	-3
398.990	1	7
400.186	1	1
401.381	1	0
402.576	1	2
403.771	1	6
404.967	1	0
406.162	1	10
407.357	1	-5
408.552	1	-6
409.747	1	-5
410.942	1	6
412.137	1	4
413.332	1	2
414.526	1	4
415.721	1	7
416.916	1	-7
418.111	1	-7
419.305	1	3
420.500	1	-3
421.695	1	3
422.889	1	-12
424.084	1	-1
425.278	1	9
426.472	1	6
427.667	1	9
428.861	1	-8
430.055	1	11
431.250	1	-6
432.444	1	5
433.638	1	-2
434.832	1	4
436.026	1	5
437.220	1	4
438.414	1	-14
439.608	1	-16
440.802	1	-6
441.996	1	3
443.190	1	-5
444.384	1	-8
445.578	1	-15
446.771	1	13
447.965	1	-5
449.159	1	-5
450.352	1	-2
451.546	1	3
452.739	1	1
453.933	1	-2
455.126	1	-3
456.320	1	-6
457.513	1	9
458.706	1	-1
459.899	1	-1
461.093	1	3
462.286	1	-1
463.479	1	-10
464.672	1	-4
465.865	1	1
467.058	1	-4
468.251	1	-7
469.444	1	-5
470.637	1	2
471.830	1	-5
473.023	1	-5
474.215	1	3
475.408	1	-6
476.601	1	-4
477.793	1	-3
478.986	1	0
480.179	1	-3
481.371	1	1
482.564	1	3
483.756	1	5
484.948	1	-10
486.141	1	-1
487.333	1	6
488.525	1	1
489.718	1	4
490.910	1	0
492.102	1	-14
493.294	1	-3
494.486	1	5
495.678	1	3
496.870	1	-4
498.062	1	1
499.254	1	-3
500.446	1	-10
501.638	1	-4
502.829	1	0
504.021	1	7
505.213	1	14
506.404	1	6
507.596	1	-1
508.788	1	16
509.979	1	8
511.171	1	-10
512.362	1	2
513.553	1	-10
514.745	1	-11
515.936	1	-2
517.127	1	2
518.319	1	2
519.510	1	-3
520.701	1	-3
521.892	1	2
523.083	1	-9
524.274	1	6
525.465	1	5
526.656	1	1
527.847	1	3
529.038	1	-6
530.229	1	-1
531.419	1	4
532.610	1	-16
533.801	1	16
534.991	1	1
536.182	1	-8
537.373	1	2
538.563	1	-2
539.754	1	1
540.944	1	-9
542.134	1	2
543.325	1	4
544.515	1	-3
545.705	1	2
546.896	1	4
548.086	1	6
549.276	1	-3
550.466	1	2
551.656	1	1
552.846	1	-4
554.036	1	-3
555.226	1	-8
556.416	1	-6
557.606	1	1
558.796	1	3
559.986	1	-1
561.175	1	7
562.365	1	-2
563.555	1	-1
564.744	1	9
565.934	1	6
567.123	1	-1
568.313	1	2
569.502	1	-1
570.692	1	8
571.881	1	13
573.070	1	-4
574.260	1	8
575.449	1	-2
576.638	1	-5
577.827	1	-9
579.016	1	8
580.205	1	4
581.394	1	4
582.583	1	15
583.772	1	3
584.961	1	17
586.150	1	-2
587.339	1	6
588.528	1	10
589.717	1	7
590.905	1	5
592.094	1	-10
593.283	1	2
594.471	1	7
595.660	1	-4
596.848	1	0
598.037	1	-6
599.225	1	-5
600.413	1	19
601.602	1	10
602.790	1	6
603.978	1	-6
605.166	1	-3
606.355	1	5
607.543	1	-15
608.731	1	6
609.919	1	7
611.107	1	2
612.295	1	-3
613.483	1	-1
614.671	1	5
615.858	1	-1
617.046	1	-4
618.234	1	-7
619.422	1	-8
620.609	1	1
621.797	1	-7
622.985	1	5
624.172	1	1
625.360	1	0
626.547	1	-5
627.735	1	5
628.922	1	5
630.109	1	-12
631.297	1	1
632.484	1	-6
633.671	1	-2
634.858	1	-2
636.045	1	-1
637.232	1	1
638.419	1	10
639.606	1	5
640.793	1	5
641.980	1	-1
643.167	1	-2
644.354	1	1
645.541	1	-4
646.728	1	-10
647.914	1	-1
649.101	1	2
650.288	1	-2
651.474	1	-8
652.661	1	1
653.847	1	9
655.034	1	6
656.220	1	-3
657.406	1	5
658.593	1	-3
659.779	1	-4
660.965	1	8
662.152	1	-2
663.338	1	7
664.524	1	4
665.710	1	4
666.896	1	-2
668.082	1	-5
669.268	1	1
670.454	1	3
671.640	1	-1
672.826	1	-1
674.011	1	-4
675.197	1	-14
676.383	1	2
677.569	1	-9
678.754	1	-5
679.940	1	-5
681.125	1	0
682.311	1	5
683.496	1	-4
684.682	1	3
685.867	1	0
687.053	1	4
688.238	1	3
688.746	1	1