File: Data/GaN_200K_800ms/GaN_sample F_spot 12_UVVIS_200 K_200um_800 ms 2x2mm1_284.txt
340.368	1	3
341.565	1	-11
342.763	1	1
343.960	1	8
345.157	1	-6
346.354	1	4
347.552	1	-3
348.749	1	0
349.946	1	-9
351.143	1	-3
352.340	1	1
353.537	1	2
354.734	1	6
355.931	1	-4
357.127	1	4
358.324	1	-1
359.521	1	2
360.718	1	6
361.914	1	5
363.111	1	-4
364.308	1	7
365.504	1	10
366.701	1	7
367.897	1	30
369.093	1	0
370.290	1	13
371.486	1	24
372.682	1	18
373.879	1	8
375.075	1	4
376.271	1	15
377.467	1	2
378.663	1	-6
379.859	1	12
381.055	1	11
382.251	1	4
383.447	1	-9
384.643	1	11
385.839	1	0
387.035	1	7
388.230	1	9
389.426	1	2
390.622	1	-3
391.817	1	-1
393.013	1	1
394.208	1	-2
395.404	1	-2
396.599	1	1
397.795	1	0
398.990	1	3
400.186	1	-6
401.381	1	4
402.576	1	8
403.771	1	8
404.967	1	4
406.162	1	3
407.357	1	2
408.552	1	-3
409.747	1	-2
410.942	1	10
412.137	1	-5
413.332	1	1
414.526	1	-2
415.721	1	-6
416.916	1	0
418.111	1	-3
419.305	1	2
420.500	1	2
421.695	1	-1
422.889	1	-4
424.084	1	-1
425.278	1	6
426.472	1	7
427.667	1	0
428.861	1	0
430.055	1	3
431.250	1	-1
432.444	1	2
433.638	1	2
434.832	1	5
436.026	1	2
437.220	1	11
438.414	1	-7
439.608	1	-6
440.802	1	-3
441.996	1	6
443.190	1	-8
444.384	1	-12
445.578	1	-9
446.771	1	6
447.965	1	-6
449.159	1	-9
450.352	1	5
451.546	1	5
452.739	1	7
453.933	1	2
455.126	1	-5
456.320	1	2
457.513	1	4
458.706	1	0
459.899	1	-2
461.093	1	-4
462.286	1	4
463.479	1	0
464.672	1	2
465.865	1	-4
467.058	1	1
468.251	1	3
469.444	1	-9
470.637	1	-3
471.830	1	-3
473.023	1	2
474.215	1	8
475.408	1	7
476.601	1	0
477.793	1	-2
478.986	1	2
480.179	1	1
481.371	1	-1
482.564	1	0
483.756	1	8
484.948	1	-9
486.141	1	-3
487.333	1	10
488.525	1	5
489.718	1	1
490.910	1	4
492.102	1	-3
493.294	1	4
494.486	1	2
495.678	1	0
496.870	1	0
498.062	1	4
499.254	1	9
500.446	1	-5
501.638	1	5
502.829	1	6
504.021	1	1
505.213	1	2
506.404	1	0
507.596	1	-1
508.788	1	10
509.979	1	-6
511.171	1	-5
512.362	1	6
513.553	1	-12
514.745	1	-2
515.936	1	-5
517.127	1	-11
518.319	1	3
519.510	1	-2
520.701	1	5
521.892	1	-5
523.083	1	-2
524.274	1	9
525.465	1	6
526.656	1	6
527.847	1	-2
529.038	1	-5
530.229	1	2
531.419	1	4
532.610	1	-3
533.801	1	6
534.991	1	12
536.182	1	-8
537.373	1	5
538.563	1	10
539.754	1	4
540.944	1	-3
542.134	1	15
543.325	1	-1
544.515	1	-2
545.705	1	-2
546.896	1	-3
548.086	1	6
549.276	1	-2
550.466	1	0
551.656	1	3
552.846	1	1
554.036	1	-7
555.226	1	-7
556.416	1	-5
557.606	1	-6
558.796	1	6
559.986	1	-2
561.175	1	8
562.365	1	8
563.555	1	-1
564.744	1	3
565.934	1	10
567.123	1	1
568.313	1	14
569.502	1	-1
570.692	1	14
571.881	1	12
573.070	1	-4
574.260	1	11
575.449	1	0
576.638	1	-1
577.827	1	-12
579.016	1	1
580.205	1	2
581.394	1	4
582.583	1	19
583.772	1	3
584.961	1	2
586.150	1	0
587.339	1	-4
588.528	1	5
589.717	1	5
590.905	1	0
592.094	1	-5
593.283	1	0
594.471	1	6
595.660	1	-6
596.848	1	7
598.037	1	-4
599.225	1	-15
600.413	1	14
601.602	1	7
602.790	1	3
603.978	1	6
605.166	1	15
606.355	1	9
607.543	1	1
608.731	1	2
609.919	1	6
611.107	1	1
612.295	1	-8
613.483	1	2
614.671	1	11
615.858	1	-1
617.046	1	3
618.234	1	4
619.422	1	0
620.609	1	11
621.797	1	8
622.985	1	3
624.172	1	-6
625.360	1	2
626.547	1	1
627.735	1	8
628.922	1	4
630.109	1	-4
631.297	1	-1
632.484	1	0
633.671	1	-11
634.858	1	-4
636.045	1	9
637.232	1	-7
638.419	1	-8
639.606	1	5
640.793	1	7
641.980	1	4
643.167	1	-5
644.354	1	2
645.541	1	-2
646.728	1	4
647.914	1	0
649.101	1	0
650.288	1	3
651.474	1	-3
652.661	1	-7
653.847	1	9
655.034	1	-2
656.220	1	-6
657.406	1	3
658.593	1	4
659.779	1	9
660.965	1	7
662.152	1	-10
663.338	1	13
664.524	1	-8
665.710	1	1
666.896	1	0
668.082	1	-4
669.268	1	-3
670.454	1	0
671.640	1	-2
672.826	1	2
674.011	1	4
675.197	1	-4
676.383	1	-3
677.569	1	-6
678.754	1	-2
679.940	1	7
681.125	1	18
682.311	1	8
683.496	1	1
684.682	1	-3
685.867	1	5
687.053	1	4
688.238	1	9
688.746	1	-2