File: Data/GaN_200K_800ms/GaN_sample F_spot 12_UVVIS_200 K_200um_800 ms 2x2mm1_31.txt
340.368	1	10
341.565	1	-4
342.763	1	5
343.960	1	7
345.157	1	-1
346.354	1	2
347.552	1	3
348.749	1	-7
349.946	1	-4
351.143	1	0
352.340	1	7
353.537	1	-4
354.734	1	0
355.931	1	0
357.127	1	3
358.324	1	3
359.521	1	6
360.718	1	4
361.914	1	4
363.111	1	6
364.308	1	-3
365.504	1	3
366.701	1	-8
367.897	1	-1
369.093	1	-4
370.290	1	0
371.486	1	0
372.682	1	13
373.879	1	-4
375.075	1	-6
376.271	1	9
377.467	1	0
378.663	1	3
379.859	1	-1
381.055	1	10
382.251	1	-9
383.447	1	-1
384.643	1	7
385.839	1	6
387.035	1	0
388.230	1	5
389.426	1	7
390.622	1	-3
391.817	1	5
393.013	1	1
394.208	1	4
395.404	1	-2
396.599	1	-2
397.795	1	6
398.990	1	3
400.186	1	2
401.381	1	1
402.576	1	-3
403.771	1	1
404.967	1	2
406.162	1	5
407.357	1	9
408.552	1	0
409.747	1	-2
410.942	1	5
412.137	1	6
413.332	1	7
414.526	1	7
415.721	1	1
416.916	1	-7
418.111	1	2
419.305	1	0
420.500	1	-4
421.695	1	5
422.889	1	-4
424.084	1	-2
425.278	1	4
426.472	1	-5
427.667	1	15
428.861	1	4
430.055	1	9
431.250	1	4
432.444	1	9
433.638	1	-4
434.832	1	-3
436.026	1	6
437.220	1	3
438.414	1	-9
439.608	1	-8
440.802	1	-8
441.996	1	4
443.190	1	-5
444.384	1	-4
445.578	1	4
446.771	1	7
447.965	1	5
449.159	1	-8
450.352	1	8
451.546	1	1
452.739	1	6
453.933	1	-4
455.126	1	-8
456.320	1	1
457.513	1	7
458.706	1	7
459.899	1	4
461.093	1	12
462.286	1	1
463.479	1	-5
464.672	1	0
465.865	1	-11
467.058	1	-3
468.251	1	-4
469.444	1	-9
470.637	1	5
471.830	1	2
473.023	1	-4
474.215	1	10
475.408	1	2
476.601	1	-4
477.793	1	-2
478.986	1	-2
480.179	1	3
481.371	1	0
482.564	1	-1
483.756	1	6
484.948	1	-3
486.141	1	4
487.333	1	1
488.525	1	0
489.718	1	8
490.910	1	3
492.102	1	1
493.294	1	-6
494.486	1	6
495.678	1	-1
496.870	1	2
498.062	1	-7
499.254	1	0
500.446	1	-9
501.638	1	-7
502.829	1	4
504.021	1	-4
505.213	1	7
506.404	1	-8
507.596	1	0
508.788	1	3
509.979	1	-1
511.171	1	1
512.362	1	-2
513.553	1	-10
514.745	1	-7
515.936	1	4
517.127	1	-4
518.319	1	0
519.510	1	-3
520.701	1	10
521.892	1	7
523.083	1	3
524.274	1	0
525.465	1	4
526.656	1	1
527.847	1	3
529.038	1	-1
530.229	1	0
531.419	1	3
532.610	1	-1
533.801	1	13
534.991	1	6
536.182	1	2
537.373	1	4
538.563	1	6
539.754	1	3
540.944	1	-2
542.134	1	6
543.325	1	0
544.515	1	1
545.705	1	1
546.896	1	-10
548.086	1	2
549.276	1	0
550.466	1	3
551.656	1	9
552.846	1	-2
554.036	1	-6
555.226	1	-11
556.416	1	-2
557.606	1	-1
558.796	1	-4
559.986	1	-6
561.175	1	11
562.365	1	0
563.555	1	-4
564.744	1	-2
565.934	1	9
567.123	1	8
568.313	1	-1
569.502	1	-4
570.692	1	3
571.881	1	5
573.070	1	2
574.260	1	-1
575.449	1	3
576.638	1	0
577.827	1	-5
579.016	1	9
580.205	1	9
581.394	1	-2
582.583	1	7
583.772	1	8
584.961	1	2
586.150	1	1
587.339	1	6
588.528	1	12
589.717	1	-1
590.905	1	-2
592.094	1	-6
593.283	1	-1
594.471	1	12
595.660	1	-1
596.848	1	4
598.037	1	6
599.225	1	-13
600.413	1	9
601.602	1	13
602.790	1	7
603.978	1	-1
605.166	1	2
606.355	1	10
607.543	1	5
608.731	1	-5
609.919	1	11
611.107	1	3
612.295	1	1
613.483	1	-10
614.671	1	1
615.858	1	11
617.046	1	-4
618.234	1	0
619.422	1	-12
620.609	1	6
621.797	1	-7
622.985	1	-3
624.172	1	-4
625.360	1	-4
626.547	1	6
627.735	1	0
628.922	1	1
630.109	1	3
631.297	1	-1
632.484	1	-7
633.671	1	-2
634.858	1	-6
636.045	1	9
637.232	1	-5
638.419	1	-5
639.606	1	7
640.793	1	13
641.980	1	9
643.167	1	-3
644.354	1	2
645.541	1	6
646.728	1	-4
647.914	1	-5
649.101	1	-1
650.288	1	3
651.474	1	1
652.661	1	-5
653.847	1	7
655.034	1	-3
656.220	1	-6
657.406	1	-5
658.593	1	3
659.779	1	3
660.965	1	12
662.152	1	3
663.338	1	9
664.524	1	0
665.710	1	3
666.896	1	-2
668.082	1	2
669.268	1	6
670.454	1	4
671.640	1	3
672.826	1	0
674.011	1	0
675.197	1	-5
676.383	1	8
677.569	1	-2
678.754	1	0
679.940	1	2
681.125	1	7
682.311	1	8
683.496	1	3
684.682	1	-5
685.867	1	2
687.053	1	1
688.238	1	4
688.746	1	-2