File: Data/GaN_200K_800ms/GaN_sample F_spot 12_UVVIS_200 K_200um_800 ms 2x2mm1_77.txt
340.368	1	-2
341.565	1	-6
342.763	1	5
343.960	1	3
345.157	1	-5
346.354	1	13
347.552	1	-2
348.749	1	-4
349.946	1	1
351.143	1	5
352.340	1	5
353.537	1	8
354.734	1	14
355.931	1	11
357.127	1	9
358.324	1	20
359.521	1	26
360.718	1	30
361.914	1	42
363.111	1	49
364.308	1	66
365.504	1	94
366.701	1	120
367.897	1	145
369.093	1	146
370.290	1	165
371.486	1	151
372.682	1	139
373.879	1	115
375.075	1	90
376.271	1	86
377.467	1	71
378.663	1	61
379.859	1	52
381.055	1	49
382.251	1	28
383.447	1	29
384.643	1	40
385.839	1	27
387.035	1	33
388.230	1	41
389.426	1	18
390.622	1	6
391.817	1	18
393.013	1	7
394.208	1	13
395.404	1	4
396.599	1	-1
397.795	1	9
398.990	1	11
400.186	1	15
401.381	1	-3
402.576	1	2
403.771	1	10
404.967	1	10
406.162	1	9
407.357	1	-6
408.552	1	4
409.747	1	-3
410.942	1	6
412.137	1	7
413.332	1	4
414.526	1	7
415.721	1	6
416.916	1	-12
418.111	1	5
419.305	1	5
420.500	1	1
421.695	1	1
422.889	1	-1
424.084	1	9
425.278	1	14
426.472	1	0
427.667	1	10
428.861	1	2
430.055	1	10
431.250	1	6
432.444	1	7
433.638	1	4
434.832	1	19
436.026	1	8
437.220	1	6
438.414	1	-1
439.608	1	-1
440.802	1	2
441.996	1	6
443.190	1	6
444.384	1	-2
445.578	1	-9
446.771	1	8
447.965	1	9
449.159	1	-8
450.352	1	6
451.546	1	6
452.739	1	3
453.933	1	1
455.126	1	-1
456.320	1	2
457.513	1	8
458.706	1	7
459.899	1	0
461.093	1	-4
462.286	1	6
463.479	1	10
464.672	1	3
465.865	1	1
467.058	1	6
468.251	1	1
469.444	1	-3
470.637	1	1
471.830	1	2
473.023	1	14
474.215	1	7
475.408	1	9
476.601	1	5
477.793	1	0
478.986	1	-1
480.179	1	5
481.371	1	5
482.564	1	13
483.756	1	15
484.948	1	-5
486.141	1	1
487.333	1	10
488.525	1	3
489.718	1	-1
490.910	1	10
492.102	1	5
493.294	1	4
494.486	1	12
495.678	1	8
496.870	1	15
498.062	1	1
499.254	1	10
500.446	1	-2
501.638	1	9
502.829	1	5
504.021	1	6
505.213	1	11
506.404	1	10
507.596	1	15
508.788	1	23
509.979	1	11
511.171	1	-2
512.362	1	3
513.553	1	2
514.745	1	4
515.936	1	17
517.127	1	4
518.319	1	4
519.510	1	6
520.701	1	15
521.892	1	13
523.083	1	9
524.274	1	8
525.465	1	12
526.656	1	11
527.847	1	14
529.038	1	21
530.229	1	11
531.419	1	20
532.610	1	15
533.801	1	34
534.991	1	14
536.182	1	13
537.373	1	22
538.563	1	26
539.754	1	20
540.944	1	13
542.134	1	15
543.325	1	13
544.515	1	8
545.705	1	11
546.896	1	16
548.086	1	17
549.276	1	20
550.466	1	8
551.656	1	15
552.846	1	14
554.036	1	12
555.226	1	8
556.416	1	17
557.606	1	16
558.796	1	17
559.986	1	11
561.175	1	17
562.365	1	19
563.555	1	19
564.744	1	22
565.934	1	23
567.123	1	19
568.313	1	29
569.502	1	16
570.692	1	24
571.881	1	25
573.070	1	14
574.260	1	23
575.449	1	12
576.638	1	10
577.827	1	9
579.016	1	20
580.205	1	20
581.394	1	21
582.583	1	32
583.772	1	28
584.961	1	21
586.150	1	26
587.339	1	31
588.528	1	16
589.717	1	18
590.905	1	15
592.094	1	17
593.283	1	22
594.471	1	21
595.660	1	18
596.848	1	15
598.037	1	10
599.225	1	6
600.413	1	31
601.602	1	28
602.790	1	5
603.978	1	24
605.166	1	16
606.355	1	24
607.543	1	19
608.731	1	17
609.919	1	25
611.107	1	12
612.295	1	11
613.483	1	7
614.671	1	16
615.858	1	12
617.046	1	11
618.234	1	18
619.422	1	1
620.609	1	12
621.797	1	8
622.985	1	3
624.172	1	-1
625.360	1	15
626.547	1	14
627.735	1	9
628.922	1	17
630.109	1	-4
631.297	1	11
632.484	1	11
633.671	1	6
634.858	1	8
636.045	1	15
637.232	1	9
638.419	1	-1
639.606	1	10
640.793	1	12
641.980	1	13
643.167	1	5
644.354	1	7
645.541	1	14
646.728	1	-1
647.914	1	8
649.101	1	13
650.288	1	10
651.474	1	5
652.661	1	-1
653.847	1	8
655.034	1	4
656.220	1	0
657.406	1	17
658.593	1	9
659.779	1	5
660.965	1	15
662.152	1	10
663.338	1	12
664.524	1	0
665.710	1	7
666.896	1	1
668.082	1	20
669.268	1	7
670.454	1	15
671.640	1	7
672.826	1	11
674.011	1	6
675.197	1	-4
676.383	1	7
677.569	1	-2
678.754	1	6
679.940	1	3
681.125	1	6
682.311	1	13
683.496	1	6
684.682	1	3
685.867	1	3
687.053	1	5
688.238	1	8
688.746	1	11