File: Data/GaN_200K_800ms/GaN_sample F_spot 12_UVVIS_200 K_200um_800 ms 2x2mm1_17.txt
340.368	1	3
341.565	1	-8
342.763	1	7
343.960	1	-1
345.157	1	-1
346.354	1	0
347.552	1	-2
348.749	1	-4
349.946	1	-6
351.143	1	-3
352.340	1	8
353.537	1	-1
354.734	1	7
355.931	1	-4
357.127	1	0
358.324	1	-5
359.521	1	-2
360.718	1	0
361.914	1	3
363.111	1	0
364.308	1	1
365.504	1	10
366.701	1	1
367.897	1	3
369.093	1	1
370.290	1	0
371.486	1	7
372.682	1	2
373.879	1	-3
375.075	1	-2
376.271	1	7
377.467	1	10
378.663	1	-4
379.859	1	-5
381.055	1	11
382.251	1	-3
383.447	1	-4
384.643	1	5
385.839	1	2
387.035	1	2
388.230	1	7
389.426	1	5
390.622	1	5
391.817	1	6
393.013	1	0
394.208	1	-7
395.404	1	-8
396.599	1	-3
397.795	1	-1
398.990	1	2
400.186	1	8
401.381	1	-2
402.576	1	2
403.771	1	5
404.967	1	4
406.162	1	12
407.357	1	2
408.552	1	-1
409.747	1	-5
410.942	1	11
412.137	1	8
413.332	1	-5
414.526	1	-6
415.721	1	1
416.916	1	-6
418.111	1	-4
419.305	1	9
420.500	1	3
421.695	1	-5
422.889	1	-5
424.084	1	3
425.278	1	7
426.472	1	-1
427.667	1	7
428.861	1	-11
430.055	1	13
431.250	1	6
432.444	1	9
433.638	1	-3
434.832	1	1
436.026	1	6
437.220	1	3
438.414	1	-2
439.608	1	3
440.802	1	-2
441.996	1	-2
443.190	1	4
444.384	1	-8
445.578	1	-4
446.771	1	10
447.965	1	-3
449.159	1	-6
450.352	1	4
451.546	1	-5
452.739	1	4
453.933	1	4
455.126	1	-4
456.320	1	-6
457.513	1	1
458.706	1	-2
459.899	1	-3
461.093	1	1
462.286	1	8
463.479	1	-1
464.672	1	2
465.865	1	4
467.058	1	-2
468.251	1	8
469.444	1	-2
470.637	1	5
471.830	1	4
473.023	1	7
474.215	1	10
475.408	1	9
476.601	1	5
477.793	1	5
478.986	1	-2
480.179	1	10
481.371	1	9
482.564	1	3
483.756	1	9
484.948	1	-1
486.141	1	1
487.333	1	0
488.525	1	-8
489.718	1	3
490.910	1	6
492.102	1	3
493.294	1	-3
494.486	1	2
495.678	1	-4
496.870	1	6
498.062	1	2
499.254	1	4
500.446	1	-1
501.638	1	-3
502.829	1	4
504.021	1	-2
505.213	1	6
506.404	1	3
507.596	1	2
508.788	1	7
509.979	1	4
511.171	1	-1
512.362	1	-6
513.553	1	-3
514.745	1	-2
515.936	1	-5
517.127	1	2
518.319	1	6
519.510	1	1
520.701	1	-4
521.892	1	1
523.083	1	1
524.274	1	3
525.465	1	7
526.656	1	-2
527.847	1	6
529.038	1	7
530.229	1	-4
531.419	1	4
532.610	1	-5
533.801	1	18
534.991	1	-1
536.182	1	1
537.373	1	9
538.563	1	2
539.754	1	8
540.944	1	0
542.134	1	7
543.325	1	3
544.515	1	-2
545.705	1	7
546.896	1	-4
548.086	1	2
549.276	1	-6
550.466	1	-3
551.656	1	0
552.846	1	-2
554.036	1	-5
555.226	1	-2
556.416	1	1
557.606	1	9
558.796	1	1
559.986	1	2
561.175	1	-3
562.365	1	11
563.555	1	-7
564.744	1	6
565.934	1	3
567.123	1	6
568.313	1	-4
569.502	1	4
570.692	1	-2
571.881	1	7
573.070	1	5
574.260	1	6
575.449	1	-5
576.638	1	-6
577.827	1	-4
579.016	1	12
580.205	1	-5
581.394	1	-8
582.583	1	8
583.772	1	0
584.961	1	5
586.150	1	-2
587.339	1	8
588.528	1	7
589.717	1	2
590.905	1	3
592.094	1	-8
593.283	1	1
594.471	1	8
595.660	1	-7
596.848	1	0
598.037	1	0
599.225	1	-6
600.413	1	4
601.602	1	5
602.790	1	3
603.978	1	6
605.166	1	4
606.355	1	4
607.543	1	-4
608.731	1	0
609.919	1	9
611.107	1	-6
612.295	1	-13
613.483	1	7
614.671	1	2
615.858	1	3
617.046	1	2
618.234	1	0
619.422	1	-6
620.609	1	6
621.797	1	-1
622.985	1	8
624.172	1	-4
625.360	1	4
626.547	1	8
627.735	1	1
628.922	1	-2
630.109	1	-13
631.297	1	-2
632.484	1	1
633.671	1	1
634.858	1	-5
636.045	1	13
637.232	1	-1
638.419	1	2
639.606	1	7
640.793	1	13
641.980	1	12
643.167	1	3
644.354	1	12
645.541	1	5
646.728	1	0
647.914	1	-8
649.101	1	5
650.288	1	12
651.474	1	-6
652.661	1	-7
653.847	1	15
655.034	1	1
656.220	1	-12
657.406	1	0
658.593	1	9
659.779	1	7
660.965	1	8
662.152	1	-4
663.338	1	4
664.524	1	6
665.710	1	3
666.896	1	-3
668.082	1	5
669.268	1	0
670.454	1	6
671.640	1	8
672.826	1	-1
674.011	1	4
675.197	1	-7
676.383	1	0
677.569	1	2
678.754	1	-3
679.940	1	-2
681.125	1	10
682.311	1	10
683.496	1	1
684.682	1	-8
685.867	1	-4
687.053	1	9
688.238	1	2
688.746	1	-6