File: Data/GaN_200K_800ms/GaN_sample F_spot 12_UVVIS_200 K_200um_800 ms 2x2mm1_503.txt
340.368	1	0
341.565	1	-13
342.763	1	2
343.960	1	-4
345.157	1	-1
346.354	1	-5
347.552	1	-7
348.749	1	-5
349.946	1	-10
351.143	1	-3
352.340	1	1
353.537	1	-2
354.734	1	4
355.931	1	1
357.127	1	3
358.324	1	-2
359.521	1	11
360.718	1	-3
361.914	1	12
363.111	1	0
364.308	1	-4
365.504	1	9
366.701	1	2
367.897	1	11
369.093	1	6
370.290	1	7
371.486	1	12
372.682	1	5
373.879	1	2
375.075	1	-3
376.271	1	6
377.467	1	0
378.663	1	0
379.859	1	7
381.055	1	0
382.251	1	-9
383.447	1	7
384.643	1	11
385.839	1	1
387.035	1	-9
388.230	1	2
389.426	1	1
390.622	1	6
391.817	1	0
393.013	1	-1
394.208	1	3
395.404	1	-11
396.599	1	-3
397.795	1	-3
398.990	1	1
400.186	1	3
401.381	1	-17
402.576	1	-8
403.771	1	12
404.967	1	7
406.162	1	10
407.357	1	0
408.552	1	-8
409.747	1	-11
410.942	1	1
412.137	1	-1
413.332	1	0
414.526	1	-10
415.721	1	-2
416.916	1	-5
418.111	1	2
419.305	1	-1
420.500	1	-6
421.695	1	-3
422.889	1	-14
424.084	1	1
425.278	1	16
426.472	1	-2
427.667	1	8
428.861	1	1
430.055	1	1
431.250	1	-3
432.444	1	1
433.638	1	-2
434.832	1	4
436.026	1	4
437.220	1	1
438.414	1	-13
439.608	1	-9
440.802	1	0
441.996	1	-1
443.190	1	1
444.384	1	-15
445.578	1	-12
446.771	1	8
447.965	1	-4
449.159	1	-1
450.352	1	-9
451.546	1	2
452.739	1	-4
453.933	1	-10
455.126	1	-5
456.320	1	-3
457.513	1	-2
458.706	1	0
459.899	1	-10
461.093	1	-4
462.286	1	1
463.479	1	-4
464.672	1	-5
465.865	1	-10
467.058	1	2
468.251	1	-7
469.444	1	-5
470.637	1	-3
471.830	1	-5
473.023	1	1
474.215	1	10
475.408	1	5
476.601	1	2
477.793	1	-8
478.986	1	-4
480.179	1	2
481.371	1	4
482.564	1	5
483.756	1	-1
484.948	1	-11
486.141	1	-9
487.333	1	2
488.525	1	8
489.718	1	-2
490.910	1	-9
492.102	1	-9
493.294	1	-3
494.486	1	2
495.678	1	-3
496.870	1	2
498.062	1	-6
499.254	1	-1
500.446	1	-10
501.638	1	-6
502.829	1	0
504.021	1	-8
505.213	1	1
506.404	1	0
507.596	1	-1
508.788	1	13
509.979	1	6
511.171	1	-7
512.362	1	-1
513.553	1	-7
514.745	1	-4
515.936	1	2
517.127	1	-4
518.319	1	-3
519.510	1	-4
520.701	1	-1
521.892	1	-5
523.083	1	-7
524.274	1	0
525.465	1	2
526.656	1	-6
527.847	1	1
529.038	1	-4
530.229	1	7
531.419	1	2
532.610	1	2
533.801	1	13
534.991	1	3
536.182	1	3
537.373	1	1
538.563	1	5
539.754	1	-2
540.944	1	3
542.134	1	1
543.325	1	-4
544.515	1	5
545.705	1	2
546.896	1	0
548.086	1	-6
549.276	1	0
550.466	1	-6
551.656	1	6
552.846	1	6
554.036	1	6
555.226	1	-3
556.416	1	-1
557.606	1	3
558.796	1	-5
559.986	1	-12
561.175	1	4
562.365	1	3
563.555	1	-12
564.744	1	7
565.934	1	9
567.123	1	4
568.313	1	6
569.502	1	-9
570.692	1	7
571.881	1	3
573.070	1	3
574.260	1	8
575.449	1	-2
576.638	1	-10
577.827	1	-17
579.016	1	8
580.205	1	-6
581.394	1	-4
582.583	1	2
583.772	1	7
584.961	1	3
586.150	1	0
587.339	1	-2
588.528	1	-2
589.717	1	1
590.905	1	6
592.094	1	-2
593.283	1	3
594.471	1	-2
595.660	1	0
596.848	1	0
598.037	1	-8
599.225	1	-12
600.413	1	9
601.602	1	3
602.790	1	-5
603.978	1	4
605.166	1	3
606.355	1	7
607.543	1	-4
608.731	1	1
609.919	1	6
611.107	1	-5
612.295	1	-14
613.483	1	5
614.671	1	-2
615.858	1	2
617.046	1	-1
618.234	1	-7
619.422	1	-11
620.609	1	-1
621.797	1	-4
622.985	1	6
624.172	1	1
625.360	1	2
626.547	1	0
627.735	1	-2
628.922	1	12
630.109	1	-11
631.297	1	1
632.484	1	-6
633.671	1	-8
634.858	1	-6
636.045	1	6
637.232	1	4
638.419	1	-6
639.606	1	6
640.793	1	13
641.980	1	-5
643.167	1	-7
644.354	1	-3
645.541	1	-4
646.728	1	-4
647.914	1	-1
649.101	1	-6
650.288	1	6
651.474	1	-3
652.661	1	-6
653.847	1	3
655.034	1	9
656.220	1	-6
657.406	1	-4
658.593	1	1
659.779	1	-1
660.965	1	0
662.152	1	3
663.338	1	14
664.524	1	-8
665.710	1	3
666.896	1	-15
668.082	1	1
669.268	1	-1
670.454	1	2
671.640	1	2
672.826	1	0
674.011	1	-4
675.197	1	-8
676.383	1	1
677.569	1	-5
678.754	1	-6
679.940	1	-6
681.125	1	2
682.311	1	-4
683.496	1	3
684.682	1	5
685.867	1	2
687.053	1	-5
688.238	1	8
688.746	1	-3