File: Data/GaN_200K_800ms/GaN_sample F_spot 12_UVVIS_200 K_200um_800 ms 2x2mm1_94.txt
340.368	1	1
341.565	1	-6
342.763	1	8
343.960	1	8
345.157	1	-1
346.354	1	5
347.552	1	2
348.749	1	-3
349.946	1	-6
351.143	1	7
352.340	1	15
353.537	1	0
354.734	1	11
355.931	1	7
357.127	1	7
358.324	1	12
359.521	1	24
360.718	1	18
361.914	1	34
363.111	1	29
364.308	1	48
365.504	1	77
366.701	1	79
367.897	1	94
369.093	1	103
370.290	1	111
371.486	1	110
372.682	1	90
373.879	1	76
375.075	1	47
376.271	1	71
377.467	1	44
378.663	1	42
379.859	1	37
381.055	1	44
382.251	1	26
383.447	1	19
384.643	1	26
385.839	1	20
387.035	1	13
388.230	1	15
389.426	1	9
390.622	1	14
391.817	1	11
393.013	1	1
394.208	1	5
395.404	1	1
396.599	1	11
397.795	1	15
398.990	1	6
400.186	1	9
401.381	1	-6
402.576	1	2
403.771	1	2
404.967	1	5
406.162	1	11
407.357	1	-3
408.552	1	3
409.747	1	-2
410.942	1	18
412.137	1	12
413.332	1	9
414.526	1	6
415.721	1	8
416.916	1	-1
418.111	1	1
419.305	1	12
420.500	1	2
421.695	1	-2
422.889	1	0
424.084	1	5
425.278	1	12
426.472	1	2
427.667	1	4
428.861	1	0
430.055	1	5
431.250	1	2
432.444	1	11
433.638	1	4
434.832	1	0
436.026	1	11
437.220	1	16
438.414	1	-10
439.608	1	-2
440.802	1	1
441.996	1	6
443.190	1	5
444.384	1	-9
445.578	1	-3
446.771	1	13
447.965	1	2
449.159	1	-5
450.352	1	-8
451.546	1	1
452.739	1	4
453.933	1	-3
455.126	1	-6
456.320	1	-7
457.513	1	6
458.706	1	3
459.899	1	3
461.093	1	0
462.286	1	6
463.479	1	-3
464.672	1	-1
465.865	1	-1
467.058	1	2
468.251	1	-3
469.444	1	-9
470.637	1	8
471.830	1	-4
473.023	1	-2
474.215	1	9
475.408	1	0
476.601	1	3
477.793	1	6
478.986	1	0
480.179	1	7
481.371	1	11
482.564	1	1
483.756	1	10
484.948	1	-4
486.141	1	-5
487.333	1	10
488.525	1	0
489.718	1	1
490.910	1	3
492.102	1	5
493.294	1	-2
494.486	1	20
495.678	1	11
496.870	1	17
498.062	1	11
499.254	1	4
500.446	1	0
501.638	1	-2
502.829	1	8
504.021	1	8
505.213	1	20
506.404	1	6
507.596	1	4
508.788	1	26
509.979	1	5
511.171	1	2
512.362	1	6
513.553	1	3
514.745	1	6
515.936	1	12
517.127	1	3
518.319	1	12
519.510	1	7
520.701	1	8
521.892	1	8
523.083	1	0
524.274	1	8
525.465	1	17
526.656	1	4
527.847	1	19
529.038	1	15
530.229	1	5
531.419	1	17
532.610	1	5
533.801	1	26
534.991	1	12
536.182	1	6
537.373	1	6
538.563	1	22
539.754	1	17
540.944	1	2
542.134	1	16
543.325	1	19
544.515	1	4
545.705	1	16
546.896	1	18
548.086	1	12
549.276	1	10
550.466	1	24
551.656	1	17
552.846	1	25
554.036	1	13
555.226	1	5
556.416	1	13
557.606	1	7
558.796	1	10
559.986	1	6
561.175	1	21
562.365	1	12
563.555	1	9
564.744	1	16
565.934	1	15
567.123	1	18
568.313	1	28
569.502	1	11
570.692	1	16
571.881	1	24
573.070	1	11
574.260	1	16
575.449	1	6
576.638	1	7
577.827	1	15
579.016	1	30
580.205	1	9
581.394	1	13
582.583	1	23
583.772	1	21
584.961	1	14
586.150	1	10
587.339	1	15
588.528	1	12
589.717	1	14
590.905	1	7
592.094	1	-3
593.283	1	13
594.471	1	22
595.660	1	2
596.848	1	18
598.037	1	12
599.225	1	5
600.413	1	24
601.602	1	14
602.790	1	9
603.978	1	10
605.166	1	9
606.355	1	17
607.543	1	5
608.731	1	10
609.919	1	13
611.107	1	4
612.295	1	6
613.483	1	-1
614.671	1	2
615.858	1	4
617.046	1	14
618.234	1	11
619.422	1	3
620.609	1	16
621.797	1	12
622.985	1	12
624.172	1	10
625.360	1	9
626.547	1	16
627.735	1	18
628.922	1	17
630.109	1	-5
631.297	1	8
632.484	1	9
633.671	1	5
634.858	1	3
636.045	1	22
637.232	1	4
638.419	1	3
639.606	1	8
640.793	1	14
641.980	1	17
643.167	1	7
644.354	1	3
645.541	1	17
646.728	1	8
647.914	1	-2
649.101	1	0
650.288	1	11
651.474	1	4
652.661	1	1
653.847	1	13
655.034	1	6
656.220	1	3
657.406	1	4
658.593	1	6
659.779	1	1
660.965	1	18
662.152	1	7
663.338	1	11
664.524	1	3
665.710	1	8
666.896	1	-5
668.082	1	8
669.268	1	7
670.454	1	5
671.640	1	9
672.826	1	4
674.011	1	2
675.197	1	-12
676.383	1	2
677.569	1	5
678.754	1	4
679.940	1	2
681.125	1	3
682.311	1	5
683.496	1	7
684.682	1	0
685.867	1	0
687.053	1	1
688.238	1	11
688.746	1	16