File: Data/GaN_200K_800ms/GaN_sample F_spot 12_UVVIS_200 K_200um_800 ms 2x2mm1_538.txt
340.368	1	-3
341.565	1	-15
342.763	1	8
343.960	1	2
345.157	1	-10
346.354	1	3
347.552	1	-6
348.749	1	-7
349.946	1	-11
351.143	1	-2
352.340	1	3
353.537	1	-1
354.734	1	8
355.931	1	-3
357.127	1	-1
358.324	1	-10
359.521	1	6
360.718	1	-2
361.914	1	1
363.111	1	0
364.308	1	4
365.504	1	17
366.701	1	2
367.897	1	7
369.093	1	2
370.290	1	5
371.486	1	9
372.682	1	0
373.879	1	6
375.075	1	-6
376.271	1	10
377.467	1	4
378.663	1	-1
379.859	1	-4
381.055	1	9
382.251	1	-3
383.447	1	2
384.643	1	3
385.839	1	-3
387.035	1	0
388.230	1	-2
389.426	1	-3
390.622	1	-1
391.817	1	3
393.013	1	-8
394.208	1	-1
395.404	1	-11
396.599	1	-10
397.795	1	1
398.990	1	-4
400.186	1	-7
401.381	1	1
402.576	1	1
403.771	1	2
404.967	1	-6
406.162	1	-6
407.357	1	-8
408.552	1	-3
409.747	1	4
410.942	1	14
412.137	1	1
413.332	1	1
414.526	1	-6
415.721	1	-1
416.916	1	-11
418.111	1	-8
419.305	1	2
420.500	1	-3
421.695	1	1
422.889	1	-3
424.084	1	0
425.278	1	11
426.472	1	1
427.667	1	4
428.861	1	-5
430.055	1	5
431.250	1	-4
432.444	1	0
433.638	1	-11
434.832	1	1
436.026	1	0
437.220	1	-6
438.414	1	-8
439.608	1	-13
440.802	1	-5
441.996	1	-6
443.190	1	-5
444.384	1	-3
445.578	1	-8
446.771	1	7
447.965	1	1
449.159	1	-11
450.352	1	-5
451.546	1	-9
452.739	1	6
453.933	1	2
455.126	1	-3
456.320	1	0
457.513	1	3
458.706	1	-1
459.899	1	-6
461.093	1	-3
462.286	1	0
463.479	1	-11
464.672	1	-8
465.865	1	-2
467.058	1	-3
468.251	1	0
469.444	1	-6
470.637	1	6
471.830	1	-4
473.023	1	4
474.215	1	13
475.408	1	3
476.601	1	-4
477.793	1	-7
478.986	1	0
480.179	1	-3
481.371	1	-2
482.564	1	-6
483.756	1	12
484.948	1	-6
486.141	1	-2
487.333	1	6
488.525	1	0
489.718	1	2
490.910	1	5
492.102	1	-2
493.294	1	-4
494.486	1	5
495.678	1	1
496.870	1	1
498.062	1	-11
499.254	1	-3
500.446	1	-12
501.638	1	4
502.829	1	2
504.021	1	-1
505.213	1	8
506.404	1	-5
507.596	1	-5
508.788	1	14
509.979	1	2
511.171	1	-11
512.362	1	-2
513.553	1	-7
514.745	1	7
515.936	1	-3
517.127	1	-2
518.319	1	-2
519.510	1	3
520.701	1	-1
521.892	1	5
523.083	1	-10
524.274	1	-2
525.465	1	4
526.656	1	-4
527.847	1	-5
529.038	1	3
530.229	1	4
531.419	1	-2
532.610	1	-3
533.801	1	9
534.991	1	-5
536.182	1	-9
537.373	1	-3
538.563	1	8
539.754	1	9
540.944	1	-1
542.134	1	2
543.325	1	2
544.515	1	-4
545.705	1	2
546.896	1	2
548.086	1	-6
549.276	1	3
550.466	1	3
551.656	1	2
552.846	1	-10
554.036	1	-3
555.226	1	-11
556.416	1	-7
557.606	1	9
558.796	1	3
559.986	1	-10
561.175	1	5
562.365	1	16
563.555	1	1
564.744	1	3
565.934	1	11
567.123	1	10
568.313	1	9
569.502	1	-2
570.692	1	7
571.881	1	14
573.070	1	2
574.260	1	4
575.449	1	2
576.638	1	-7
577.827	1	-12
579.016	1	0
580.205	1	-6
581.394	1	-7
582.583	1	1
583.772	1	11
584.961	1	4
586.150	1	1
587.339	1	3
588.528	1	-5
589.717	1	-1
590.905	1	-9
592.094	1	-3
593.283	1	4
594.471	1	2
595.660	1	-3
596.848	1	9
598.037	1	-12
599.225	1	-11
600.413	1	9
601.602	1	14
602.790	1	-11
603.978	1	-3
605.166	1	9
606.355	1	1
607.543	1	-1
608.731	1	4
609.919	1	11
611.107	1	-6
612.295	1	-5
613.483	1	-10
614.671	1	0
615.858	1	11
617.046	1	3
618.234	1	3
619.422	1	-7
620.609	1	3
621.797	1	-7
622.985	1	-2
624.172	1	-2
625.360	1	-4
626.547	1	3
627.735	1	4
628.922	1	0
630.109	1	-11
631.297	1	-4
632.484	1	-12
633.671	1	-1
634.858	1	-4
636.045	1	4
637.232	1	-5
638.419	1	-11
639.606	1	1
640.793	1	5
641.980	1	11
643.167	1	-8
644.354	1	-2
645.541	1	-1
646.728	1	-1
647.914	1	1
649.101	1	-6
650.288	1	6
651.474	1	-12
652.661	1	-6
653.847	1	2
655.034	1	-5
656.220	1	-11
657.406	1	-3
658.593	1	6
659.779	1	-7
660.965	1	4
662.152	1	-2
663.338	1	-1
664.524	1	-3
665.710	1	3
666.896	1	-6
668.082	1	-3
669.268	1	-4
670.454	1	3
671.640	1	4
672.826	1	-2
674.011	1	5
675.197	1	-11
676.383	1	2
677.569	1	-1
678.754	1	-4
679.940	1	-9
681.125	1	4
682.311	1	1
683.496	1	8
684.682	1	-11
685.867	1	0
687.053	1	1
688.238	1	6
688.746	1	-1