File: Data/GaN_200K_800ms/GaN_sample F_spot 12_UVVIS_200 K_200um_800 ms 2x2mm1_514.txt
340.368	1	4
341.565	1	-7
342.763	1	8
343.960	1	3
345.157	1	-7
346.354	1	-7
347.552	1	-10
348.749	1	-9
349.946	1	-6
351.143	1	-7
352.340	1	-4
353.537	1	-9
354.734	1	-3
355.931	1	-5
357.127	1	3
358.324	1	-4
359.521	1	3
360.718	1	-7
361.914	1	5
363.111	1	0
364.308	1	8
365.504	1	15
366.701	1	-1
367.897	1	14
369.093	1	0
370.290	1	6
371.486	1	13
372.682	1	12
373.879	1	-5
375.075	1	-10
376.271	1	-1
377.467	1	7
378.663	1	2
379.859	1	4
381.055	1	9
382.251	1	-12
383.447	1	-1
384.643	1	9
385.839	1	-3
387.035	1	7
388.230	1	9
389.426	1	-4
390.622	1	-6
391.817	1	-4
393.013	1	3
394.208	1	7
395.404	1	1
396.599	1	-12
397.795	1	-1
398.990	1	-8
400.186	1	-4
401.381	1	-9
402.576	1	3
403.771	1	5
404.967	1	-3
406.162	1	5
407.357	1	4
408.552	1	-9
409.747	1	-4
410.942	1	3
412.137	1	3
413.332	1	-4
414.526	1	0
415.721	1	-4
416.916	1	-7
418.111	1	0
419.305	1	3
420.500	1	-10
421.695	1	-8
422.889	1	-8
424.084	1	-9
425.278	1	11
426.472	1	4
427.667	1	6
428.861	1	-9
430.055	1	-11
431.250	1	-3
432.444	1	5
433.638	1	-2
434.832	1	6
436.026	1	-4
437.220	1	-4
438.414	1	-13
439.608	1	-10
440.802	1	-4
441.996	1	6
443.190	1	-2
444.384	1	-10
445.578	1	-14
446.771	1	6
447.965	1	-1
449.159	1	-7
450.352	1	0
451.546	1	-2
452.739	1	6
453.933	1	-11
455.126	1	-12
456.320	1	-8
457.513	1	6
458.706	1	-9
459.899	1	-3
461.093	1	2
462.286	1	-4
463.479	1	-3
464.672	1	-2
465.865	1	-1
467.058	1	6
468.251	1	1
469.444	1	-6
470.637	1	3
471.830	1	-13
473.023	1	11
474.215	1	9
475.408	1	-2
476.601	1	-2
477.793	1	0
478.986	1	-4
480.179	1	-5
481.371	1	-2
482.564	1	-1
483.756	1	5
484.948	1	-2
486.141	1	1
487.333	1	0
488.525	1	4
489.718	1	1
490.910	1	6
492.102	1	1
493.294	1	-7
494.486	1	1
495.678	1	-10
496.870	1	-2
498.062	1	-4
499.254	1	-1
500.446	1	-1
501.638	1	-10
502.829	1	-2
504.021	1	1
505.213	1	7
506.404	1	-1
507.596	1	-4
508.788	1	11
509.979	1	-4
511.171	1	-3
512.362	1	-9
513.553	1	-8
514.745	1	-3
515.936	1	-8
517.127	1	-11
518.319	1	-6
519.510	1	-5
520.701	1	9
521.892	1	-6
523.083	1	-2
524.274	1	0
525.465	1	3
526.656	1	4
527.847	1	7
529.038	1	-6
530.229	1	0
531.419	1	-6
532.610	1	-7
533.801	1	3
534.991	1	-2
536.182	1	-1
537.373	1	-2
538.563	1	8
539.754	1	7
540.944	1	-10
542.134	1	1
543.325	1	-5
544.515	1	3
545.705	1	-2
546.896	1	-1
548.086	1	0
549.276	1	0
550.466	1	3
551.656	1	8
552.846	1	-9
554.036	1	-10
555.226	1	-12
556.416	1	-12
557.606	1	3
558.796	1	-8
559.986	1	-5
561.175	1	5
562.365	1	2
563.555	1	-2
564.744	1	1
565.934	1	16
567.123	1	-1
568.313	1	5
569.502	1	-13
570.692	1	5
571.881	1	13
573.070	1	3
574.260	1	6
575.449	1	-11
576.638	1	-4
577.827	1	-4
579.016	1	12
580.205	1	-6
581.394	1	-7
582.583	1	8
583.772	1	3
584.961	1	2
586.150	1	-3
587.339	1	7
588.528	1	2
589.717	1	1
590.905	1	2
592.094	1	-1
593.283	1	0
594.471	1	9
595.660	1	-5
596.848	1	-3
598.037	1	-8
599.225	1	-11
600.413	1	4
601.602	1	16
602.790	1	-1
603.978	1	2
605.166	1	3
606.355	1	3
607.543	1	0
608.731	1	-2
609.919	1	4
611.107	1	2
612.295	1	-1
613.483	1	8
614.671	1	1
615.858	1	1
617.046	1	0
618.234	1	-14
619.422	1	-1
620.609	1	3
621.797	1	-8
622.985	1	2
624.172	1	-1
625.360	1	0
626.547	1	3
627.735	1	2
628.922	1	3
630.109	1	-7
631.297	1	5
632.484	1	4
633.671	1	1
634.858	1	-2
636.045	1	4
637.232	1	2
638.419	1	-4
639.606	1	7
640.793	1	8
641.980	1	4
643.167	1	-3
644.354	1	2
645.541	1	3
646.728	1	-10
647.914	1	-5
649.101	1	-6
650.288	1	-2
651.474	1	3
652.661	1	-9
653.847	1	-1
655.034	1	4
656.220	1	-6
657.406	1	1
658.593	1	7
659.779	1	6
660.965	1	9
662.152	1	1
663.338	1	13
664.524	1	0
665.710	1	-8
666.896	1	-4
668.082	1	-2
669.268	1	-5
670.454	1	5
671.640	1	8
672.826	1	0
674.011	1	-7
675.197	1	-10
676.383	1	3
677.569	1	-6
678.754	1	-2
679.940	1	-3
681.125	1	-1
682.311	1	3
683.496	1	8
684.682	1	-13
685.867	1	-6
687.053	1	8
688.238	1	-2
688.746	1	-8