File: Data/GaN_200K_800ms/GaN_sample F_spot 12_UVVIS_200 K_200um_800 ms 2x2mm1_493.txt
340.368	1	3
341.565	1	-17
342.763	1	5
343.960	1	-3
345.157	1	-9
346.354	1	-5
347.552	1	-2
348.749	1	-14
349.946	1	0
351.143	1	-5
352.340	1	8
353.537	1	-9
354.734	1	3
355.931	1	-2
357.127	1	0
358.324	1	-8
359.521	1	9
360.718	1	-3
361.914	1	0
363.111	1	5
364.308	1	2
365.504	1	11
366.701	1	3
367.897	1	5
369.093	1	3
370.290	1	8
371.486	1	12
372.682	1	5
373.879	1	7
375.075	1	3
376.271	1	11
377.467	1	1
378.663	1	6
379.859	1	3
381.055	1	3
382.251	1	-1
383.447	1	-9
384.643	1	5
385.839	1	-1
387.035	1	8
388.230	1	6
389.426	1	1
390.622	1	-4
391.817	1	-1
393.013	1	0
394.208	1	-3
395.404	1	-4
396.599	1	-5
397.795	1	2
398.990	1	-2
400.186	1	-2
401.381	1	-5
402.576	1	1
403.771	1	4
404.967	1	-4
406.162	1	4
407.357	1	-9
408.552	1	-10
409.747	1	-5
410.942	1	-1
412.137	1	3
413.332	1	-8
414.526	1	-12
415.721	1	-4
416.916	1	-15
418.111	1	-4
419.305	1	5
420.500	1	-5
421.695	1	-6
422.889	1	-7
424.084	1	1
425.278	1	17
426.472	1	-3
427.667	1	-1
428.861	1	-5
430.055	1	7
431.250	1	-3
432.444	1	5
433.638	1	-3
434.832	1	3
436.026	1	8
437.220	1	5
438.414	1	-2
439.608	1	-16
440.802	1	-5
441.996	1	11
443.190	1	-3
444.384	1	-17
445.578	1	-13
446.771	1	10
447.965	1	0
449.159	1	-16
450.352	1	-6
451.546	1	0
452.739	1	1
453.933	1	-8
455.126	1	-3
456.320	1	-1
457.513	1	11
458.706	1	-5
459.899	1	3
461.093	1	-4
462.286	1	-5
463.479	1	-4
464.672	1	-2
465.865	1	-9
467.058	1	2
468.251	1	-3
469.444	1	-13
470.637	1	6
471.830	1	-6
473.023	1	1
474.215	1	11
475.408	1	-2
476.601	1	3
477.793	1	-2
478.986	1	-3
480.179	1	-6
481.371	1	0
482.564	1	-4
483.756	1	-3
484.948	1	-9
486.141	1	-7
487.333	1	1
488.525	1	-2
489.718	1	-1
490.910	1	3
492.102	1	-3
493.294	1	-10
494.486	1	-3
495.678	1	-6
496.870	1	4
498.062	1	2
499.254	1	6
500.446	1	-9
501.638	1	-12
502.829	1	-1
504.021	1	-7
505.213	1	4
506.404	1	3
507.596	1	1
508.788	1	14
509.979	1	-11
511.171	1	-9
512.362	1	-12
513.553	1	-14
514.745	1	-1
515.936	1	-11
517.127	1	-1
518.319	1	3
519.510	1	-10
520.701	1	0
521.892	1	-2
523.083	1	1
524.274	1	-3
525.465	1	13
526.656	1	-3
527.847	1	2
529.038	1	-2
530.229	1	1
531.419	1	-1
532.610	1	-8
533.801	1	6
534.991	1	2
536.182	1	-8
537.373	1	-6
538.563	1	4
539.754	1	1
540.944	1	1
542.134	1	7
543.325	1	2
544.515	1	-1
545.705	1	-2
546.896	1	-3
548.086	1	-4
549.276	1	-4
550.466	1	5
551.656	1	3
552.846	1	2
554.036	1	2
555.226	1	-11
556.416	1	-5
557.606	1	4
558.796	1	-5
559.986	1	-2
561.175	1	1
562.365	1	1
563.555	1	4
564.744	1	-3
565.934	1	0
567.123	1	-4
568.313	1	12
569.502	1	-5
570.692	1	2
571.881	1	11
573.070	1	-5
574.260	1	9
575.449	1	1
576.638	1	-2
577.827	1	-17
579.016	1	6
580.205	1	-8
581.394	1	-7
582.583	1	16
583.772	1	1
584.961	1	-7
586.150	1	-5
587.339	1	6
588.528	1	9
589.717	1	0
590.905	1	-6
592.094	1	-5
593.283	1	-2
594.471	1	7
595.660	1	3
596.848	1	-5
598.037	1	-3
599.225	1	-11
600.413	1	6
601.602	1	7
602.790	1	-2
603.978	1	3
605.166	1	10
606.355	1	-8
607.543	1	-1
608.731	1	6
609.919	1	0
611.107	1	-1
612.295	1	1
613.483	1	8
614.671	1	-6
615.858	1	5
617.046	1	-1
618.234	1	-3
619.422	1	-4
620.609	1	6
621.797	1	-2
622.985	1	5
624.172	1	-5
625.360	1	5
626.547	1	-3
627.735	1	-1
628.922	1	4
630.109	1	-15
631.297	1	-1
632.484	1	-5
633.671	1	-11
634.858	1	-5
636.045	1	11
637.232	1	-7
638.419	1	2
639.606	1	-1
640.793	1	4
641.980	1	-2
643.167	1	-5
644.354	1	-1
645.541	1	2
646.728	1	-1
647.914	1	-8
649.101	1	4
650.288	1	1
651.474	1	-13
652.661	1	0
653.847	1	14
655.034	1	0
656.220	1	-5
657.406	1	-6
658.593	1	10
659.779	1	-8
660.965	1	-2
662.152	1	4
663.338	1	12
664.524	1	-2
665.710	1	-3
666.896	1	-1
668.082	1	9
669.268	1	-6
670.454	1	-2
671.640	1	0
672.826	1	-12
674.011	1	0
675.197	1	-5
676.383	1	0
677.569	1	-11
678.754	1	-10
679.940	1	-2
681.125	1	8
682.311	1	2
683.496	1	1
684.682	1	-15
685.867	1	4
687.053	1	3
688.238	1	-2
688.746	1	0