File: Data/GaN_200K_800ms/GaN_sample F_spot 12_UVVIS_200 K_200um_800 ms 2x2mm1_339.txt
340.368	1	2
341.565	1	-14
342.763	1	1
343.960	1	-2
345.157	1	-10
346.354	1	-1
347.552	1	-4
348.749	1	-5
349.946	1	-11
351.143	1	1
352.340	1	-2
353.537	1	4
354.734	1	4
355.931	1	-6
357.127	1	-5
358.324	1	-2
359.521	1	10
360.718	1	-1
361.914	1	9
363.111	1	4
364.308	1	-5
365.504	1	13
366.701	1	11
367.897	1	12
369.093	1	13
370.290	1	17
371.486	1	22
372.682	1	10
373.879	1	-2
375.075	1	-3
376.271	1	13
377.467	1	12
378.663	1	-2
379.859	1	-10
381.055	1	9
382.251	1	-12
383.447	1	-1
384.643	1	16
385.839	1	-6
387.035	1	9
388.230	1	9
389.426	1	3
390.622	1	2
391.817	1	1
393.013	1	-7
394.208	1	5
395.404	1	-8
396.599	1	-13
397.795	1	12
398.990	1	3
400.186	1	-6
401.381	1	-4
402.576	1	-9
403.771	1	2
404.967	1	11
406.162	1	4
407.357	1	-4
408.552	1	-12
409.747	1	0
410.942	1	9
412.137	1	2
413.332	1	9
414.526	1	-2
415.721	1	2
416.916	1	-6
418.111	1	0
419.305	1	-3
420.500	1	-4
421.695	1	-1
422.889	1	0
424.084	1	6
425.278	1	8
426.472	1	-6
427.667	1	15
428.861	1	-2
430.055	1	6
431.250	1	1
432.444	1	4
433.638	1	1
434.832	1	3
436.026	1	13
437.220	1	3
438.414	1	-14
439.608	1	-10
440.802	1	-10
441.996	1	7
443.190	1	2
444.384	1	-2
445.578	1	-8
446.771	1	11
447.965	1	1
449.159	1	-5
450.352	1	0
451.546	1	1
452.739	1	4
453.933	1	1
455.126	1	-6
456.320	1	-7
457.513	1	11
458.706	1	3
459.899	1	5
461.093	1	6
462.286	1	-8
463.479	1	-2
464.672	1	-4
465.865	1	-6
467.058	1	-5
468.251	1	-7
469.444	1	-9
470.637	1	-1
471.830	1	-1
473.023	1	11
474.215	1	5
475.408	1	-3
476.601	1	-6
477.793	1	-1
478.986	1	1
480.179	1	1
481.371	1	-3
482.564	1	0
483.756	1	14
484.948	1	-11
486.141	1	-4
487.333	1	-3
488.525	1	-9
489.718	1	-5
490.910	1	-4
492.102	1	-5
493.294	1	2
494.486	1	-1
495.678	1	3
496.870	1	5
498.062	1	-4
499.254	1	-1
500.446	1	-9
501.638	1	-1
502.829	1	11
504.021	1	-2
505.213	1	6
506.404	1	4
507.596	1	-3
508.788	1	12
509.979	1	3
511.171	1	1
512.362	1	-11
513.553	1	-9
514.745	1	-6
515.936	1	0
517.127	1	-4
518.319	1	-2
519.510	1	-4
520.701	1	-3
521.892	1	6
523.083	1	1
524.274	1	-8
525.465	1	8
526.656	1	5
527.847	1	1
529.038	1	-1
530.229	1	11
531.419	1	-1
532.610	1	-2
533.801	1	8
534.991	1	-4
536.182	1	2
537.373	1	8
538.563	1	15
539.754	1	11
540.944	1	-2
542.134	1	6
543.325	1	3
544.515	1	0
545.705	1	-4
546.896	1	-5
548.086	1	-1
549.276	1	5
550.466	1	-3
551.656	1	-3
552.846	1	2
554.036	1	-3
555.226	1	-8
556.416	1	-7
557.606	1	8
558.796	1	2
559.986	1	-2
561.175	1	8
562.365	1	-4
563.555	1	2
564.744	1	9
565.934	1	4
567.123	1	7
568.313	1	2
569.502	1	-4
570.692	1	4
571.881	1	8
573.070	1	-5
574.260	1	0
575.449	1	-4
576.638	1	-1
577.827	1	-4
579.016	1	6
580.205	1	-1
581.394	1	-4
582.583	1	15
583.772	1	8
584.961	1	4
586.150	1	-8
587.339	1	-2
588.528	1	1
589.717	1	4
590.905	1	6
592.094	1	-1
593.283	1	4
594.471	1	2
595.660	1	-1
596.848	1	3
598.037	1	-5
599.225	1	-5
600.413	1	2
601.602	1	19
602.790	1	1
603.978	1	2
605.166	1	1
606.355	1	1
607.543	1	-1
608.731	1	-9
609.919	1	7
611.107	1	-7
612.295	1	0
613.483	1	0
614.671	1	5
615.858	1	5
617.046	1	4
618.234	1	3
619.422	1	-4
620.609	1	8
621.797	1	0
622.985	1	-4
624.172	1	-2
625.360	1	-2
626.547	1	0
627.735	1	0
628.922	1	8
630.109	1	-10
631.297	1	6
632.484	1	-4
633.671	1	-7
634.858	1	-5
636.045	1	10
637.232	1	-5
638.419	1	-3
639.606	1	0
640.793	1	2
641.980	1	5
643.167	1	-13
644.354	1	-5
645.541	1	-6
646.728	1	-1
647.914	1	-2
649.101	1	-4
650.288	1	10
651.474	1	0
652.661	1	-1
653.847	1	10
655.034	1	9
656.220	1	-6
657.406	1	-1
658.593	1	10
659.779	1	2
660.965	1	9
662.152	1	3
663.338	1	10
664.524	1	5
665.710	1	4
666.896	1	0
668.082	1	8
669.268	1	-5
670.454	1	7
671.640	1	-1
672.826	1	1
674.011	1	-3
675.197	1	-5
676.383	1	4
677.569	1	-8
678.754	1	2
679.940	1	-9
681.125	1	8
682.311	1	2
683.496	1	-3
684.682	1	-4
685.867	1	0
687.053	1	3
688.238	1	6
688.746	1	2