File: Data/GaN_200K_800ms/GaN_sample F_spot 12_UVVIS_200 K_200um_800 ms 2x2mm1_65.txt
340.368	1	11
341.565	1	-11
342.763	1	7
343.960	1	2
345.157	1	-4
346.354	1	7
347.552	1	2
348.749	1	-12
349.946	1	10
351.143	1	8
352.340	1	11
353.537	1	12
354.734	1	15
355.931	1	10
357.127	1	28
358.324	1	28
359.521	1	44
360.718	1	50
361.914	1	60
363.111	1	84
364.308	1	95
365.504	1	136
366.701	1	161
367.897	1	217
369.093	1	248
370.290	1	234
371.486	1	211
372.682	1	178
373.879	1	157
375.075	1	124
376.271	1	124
377.467	1	87
378.663	1	87
379.859	1	60
381.055	1	61
382.251	1	49
383.447	1	35
384.643	1	55
385.839	1	41
387.035	1	28
388.230	1	35
389.426	1	24
390.622	1	32
391.817	1	26
393.013	1	22
394.208	1	18
395.404	1	7
396.599	1	14
397.795	1	9
398.990	1	10
400.186	1	12
401.381	1	6
402.576	1	10
403.771	1	12
404.967	1	4
406.162	1	12
407.357	1	0
408.552	1	1
409.747	1	1
410.942	1	17
412.137	1	12
413.332	1	-1
414.526	1	4
415.721	1	3
416.916	1	2
418.111	1	4
419.305	1	9
420.500	1	-6
421.695	1	3
422.889	1	-6
424.084	1	10
425.278	1	17
426.472	1	4
427.667	1	9
428.861	1	13
430.055	1	7
431.250	1	-3
432.444	1	10
433.638	1	-6
434.832	1	10
436.026	1	11
437.220	1	3
438.414	1	-7
439.608	1	-3
440.802	1	-6
441.996	1	4
443.190	1	6
444.384	1	-5
445.578	1	-9
446.771	1	15
447.965	1	6
449.159	1	-1
450.352	1	-6
451.546	1	-1
452.739	1	9
453.933	1	1
455.126	1	4
456.320	1	4
457.513	1	12
458.706	1	4
459.899	1	1
461.093	1	7
462.286	1	16
463.479	1	6
464.672	1	-6
465.865	1	-6
467.058	1	-1
468.251	1	3
469.444	1	-7
470.637	1	-1
471.830	1	5
473.023	1	8
474.215	1	9
475.408	1	7
476.601	1	0
477.793	1	3
478.986	1	-5
480.179	1	4
481.371	1	8
482.564	1	5
483.756	1	3
484.948	1	5
486.141	1	0
487.333	1	5
488.525	1	4
489.718	1	4
490.910	1	7
492.102	1	3
493.294	1	-1
494.486	1	5
495.678	1	7
496.870	1	5
498.062	1	1
499.254	1	13
500.446	1	-3
501.638	1	4
502.829	1	5
504.021	1	6
505.213	1	18
506.404	1	13
507.596	1	9
508.788	1	29
509.979	1	4
511.171	1	13
512.362	1	13
513.553	1	10
514.745	1	6
515.936	1	9
517.127	1	9
518.319	1	18
519.510	1	13
520.701	1	21
521.892	1	16
523.083	1	19
524.274	1	13
525.465	1	14
526.656	1	21
527.847	1	17
529.038	1	13
530.229	1	21
531.419	1	25
532.610	1	16
533.801	1	32
534.991	1	25
536.182	1	11
537.373	1	33
538.563	1	24
539.754	1	24
540.944	1	16
542.134	1	28
543.325	1	16
544.515	1	14
545.705	1	22
546.896	1	17
548.086	1	29
549.276	1	33
550.466	1	24
551.656	1	26
552.846	1	27
554.036	1	22
555.226	1	7
556.416	1	20
557.606	1	32
558.796	1	17
559.986	1	15
561.175	1	28
562.365	1	19
563.555	1	34
564.744	1	28
565.934	1	37
567.123	1	19
568.313	1	33
569.502	1	20
570.692	1	27
571.881	1	39
573.070	1	17
574.260	1	30
575.449	1	19
576.638	1	18
577.827	1	13
579.016	1	31
580.205	1	30
581.394	1	10
582.583	1	41
583.772	1	31
584.961	1	18
586.150	1	27
587.339	1	10
588.528	1	24
589.717	1	31
590.905	1	17
592.094	1	12
593.283	1	10
594.471	1	27
595.660	1	13
596.848	1	20
598.037	1	22
599.225	1	9
600.413	1	28
601.602	1	23
602.790	1	19
603.978	1	21
605.166	1	31
606.355	1	16
607.543	1	8
608.731	1	8
609.919	1	34
611.107	1	8
612.295	1	7
613.483	1	18
614.671	1	16
615.858	1	7
617.046	1	11
618.234	1	15
619.422	1	8
620.609	1	10
621.797	1	8
622.985	1	13
624.172	1	10
625.360	1	17
626.547	1	24
627.735	1	6
628.922	1	19
630.109	1	1
631.297	1	13
632.484	1	9
633.671	1	9
634.858	1	6
636.045	1	23
637.232	1	11
638.419	1	8
639.606	1	11
640.793	1	18
641.980	1	20
643.167	1	11
644.354	1	7
645.541	1	12
646.728	1	3
647.914	1	3
649.101	1	4
650.288	1	17
651.474	1	4
652.661	1	3
653.847	1	10
655.034	1	5
656.220	1	-4
657.406	1	20
658.593	1	17
659.779	1	13
660.965	1	8
662.152	1	5
663.338	1	12
664.524	1	6
665.710	1	14
666.896	1	6
668.082	1	7
669.268	1	7
670.454	1	7
671.640	1	8
672.826	1	3
674.011	1	5
675.197	1	-4
676.383	1	14
677.569	1	1
678.754	1	-1
679.940	1	3
681.125	1	25
682.311	1	18
683.496	1	14
684.682	1	-10
685.867	1	6
687.053	1	15
688.238	1	7
688.746	1	6