File: Data/GaN_200K_800ms/GaN_sample F_spot 12_UVVIS_200 K_200um_800 ms 2x2mm1_266.txt
340.368	1	9
341.565	1	-11
342.763	1	9
343.960	1	4
345.157	1	-1
346.354	1	2
347.552	1	-3
348.749	1	-8
349.946	1	-5
351.143	1	-1
352.340	1	6
353.537	1	3
354.734	1	6
355.931	1	-1
357.127	1	2
358.324	1	-4
359.521	1	8
360.718	1	15
361.914	1	-2
363.111	1	8
364.308	1	4
365.504	1	15
366.701	1	8
367.897	1	20
369.093	1	13
370.290	1	23
371.486	1	34
372.682	1	19
373.879	1	10
375.075	1	15
376.271	1	19
377.467	1	15
378.663	1	0
379.859	1	7
381.055	1	11
382.251	1	-6
383.447	1	1
384.643	1	8
385.839	1	3
387.035	1	3
388.230	1	9
389.426	1	-2
390.622	1	3
391.817	1	5
393.013	1	5
394.208	1	0
395.404	1	-3
396.599	1	-3
397.795	1	2
398.990	1	3
400.186	1	-10
401.381	1	-2
402.576	1	3
403.771	1	4
404.967	1	-6
406.162	1	6
407.357	1	5
408.552	1	-1
409.747	1	-7
410.942	1	6
412.137	1	-1
413.332	1	0
414.526	1	-3
415.721	1	2
416.916	1	-4
418.111	1	0
419.305	1	2
420.500	1	-4
421.695	1	-2
422.889	1	2
424.084	1	6
425.278	1	16
426.472	1	-2
427.667	1	5
428.861	1	-5
430.055	1	3
431.250	1	-7
432.444	1	15
433.638	1	-2
434.832	1	6
436.026	1	10
437.220	1	3
438.414	1	-7
439.608	1	-7
440.802	1	-4
441.996	1	2
443.190	1	7
444.384	1	-4
445.578	1	-9
446.771	1	15
447.965	1	-10
449.159	1	-4
450.352	1	-6
451.546	1	-1
452.739	1	-5
453.933	1	-5
455.126	1	-1
456.320	1	4
457.513	1	3
458.706	1	-2
459.899	1	0
461.093	1	-2
462.286	1	-1
463.479	1	5
464.672	1	1
465.865	1	-2
467.058	1	5
468.251	1	1
469.444	1	-6
470.637	1	6
471.830	1	-2
473.023	1	5
474.215	1	12
475.408	1	-3
476.601	1	1
477.793	1	0
478.986	1	10
480.179	1	-3
481.371	1	9
482.564	1	-2
483.756	1	9
484.948	1	-3
486.141	1	3
487.333	1	-2
488.525	1	-3
489.718	1	-1
490.910	1	5
492.102	1	-7
493.294	1	5
494.486	1	6
495.678	1	2
496.870	1	5
498.062	1	8
499.254	1	-1
500.446	1	-12
501.638	1	-1
502.829	1	-17
504.021	1	-2
505.213	1	9
506.404	1	3
507.596	1	-3
508.788	1	21
509.979	1	-4
511.171	1	-3
512.362	1	-8
513.553	1	-9
514.745	1	-6
515.936	1	3
517.127	1	-3
518.319	1	1
519.510	1	10
520.701	1	-5
521.892	1	-7
523.083	1	5
524.274	1	6
525.465	1	-1
526.656	1	5
527.847	1	6
529.038	1	-9
530.229	1	6
531.419	1	4
532.610	1	-7
533.801	1	9
534.991	1	6
536.182	1	-6
537.373	1	2
538.563	1	2
539.754	1	10
540.944	1	-5
542.134	1	3
543.325	1	3
544.515	1	-2
545.705	1	7
546.896	1	-2
548.086	1	-3
549.276	1	-1
550.466	1	1
551.656	1	5
552.846	1	-7
554.036	1	0
555.226	1	-3
556.416	1	-7
557.606	1	6
558.796	1	-3
559.986	1	2
561.175	1	1
562.365	1	1
563.555	1	0
564.744	1	4
565.934	1	11
567.123	1	4
568.313	1	10
569.502	1	0
570.692	1	9
571.881	1	6
573.070	1	4
574.260	1	5
575.449	1	-5
576.638	1	-4
577.827	1	-3
579.016	1	10
580.205	1	4
581.394	1	3
582.583	1	8
583.772	1	7
584.961	1	0
586.150	1	-6
587.339	1	-6
588.528	1	-1
589.717	1	4
590.905	1	2
592.094	1	7
593.283	1	-6
594.471	1	6
595.660	1	-1
596.848	1	-6
598.037	1	4
599.225	1	-8
600.413	1	9
601.602	1	12
602.790	1	-3
603.978	1	-3
605.166	1	14
606.355	1	5
607.543	1	-8
608.731	1	-3
609.919	1	6
611.107	1	-6
612.295	1	-6
613.483	1	3
614.671	1	-2
615.858	1	1
617.046	1	3
618.234	1	4
619.422	1	-11
620.609	1	3
621.797	1	-11
622.985	1	9
624.172	1	1
625.360	1	5
626.547	1	4
627.735	1	5
628.922	1	-4
630.109	1	-4
631.297	1	3
632.484	1	-5
633.671	1	-3
634.858	1	-6
636.045	1	7
637.232	1	-2
638.419	1	3
639.606	1	7
640.793	1	14
641.980	1	8
643.167	1	3
644.354	1	-5
645.541	1	9
646.728	1	-2
647.914	1	2
649.101	1	0
650.288	1	4
651.474	1	-9
652.661	1	4
653.847	1	6
655.034	1	0
656.220	1	-16
657.406	1	8
658.593	1	12
659.779	1	-3
660.965	1	11
662.152	1	1
663.338	1	7
664.524	1	-1
665.710	1	-2
666.896	1	-2
668.082	1	3
669.268	1	-6
670.454	1	0
671.640	1	7
672.826	1	-7
674.011	1	4
675.197	1	-4
676.383	1	6
677.569	1	3
678.754	1	-6
679.940	1	0
681.125	1	2
682.311	1	6
683.496	1	4
684.682	1	-6
685.867	1	1
687.053	1	3
688.238	1	10
688.746	1	0