File: Data/GaN_200K_800ms/GaN_sample F_spot 12_UVVIS_200 K_200um_800 ms 2x2mm1_2.txt
340.368	1	-1
341.565	1	-5
342.763	1	-1
343.960	1	6
345.157	1	2
346.354	1	2
347.552	1	-2
348.749	1	-8
349.946	1	-1
351.143	1	1
352.340	1	4
353.537	1	-5
354.734	1	6
355.931	1	6
357.127	1	-4
358.324	1	2
359.521	1	8
360.718	1	-2
361.914	1	7
363.111	1	1
364.308	1	3
365.504	1	1
366.701	1	3
367.897	1	3
369.093	1	-3
370.290	1	-2
371.486	1	12
372.682	1	2
373.879	1	-7
375.075	1	0
376.271	1	9
377.467	1	8
378.663	1	4
379.859	1	-6
381.055	1	1
382.251	1	-3
383.447	1	-8
384.643	1	4
385.839	1	1
387.035	1	3
388.230	1	10
389.426	1	-10
390.622	1	-3
391.817	1	8
393.013	1	-3
394.208	1	4
395.404	1	-8
396.599	1	-11
397.795	1	5
398.990	1	7
400.186	1	-3
401.381	1	-10
402.576	1	-4
403.771	1	1
404.967	1	-7
406.162	1	8
407.357	1	-3
408.552	1	-3
409.747	1	1
410.942	1	2
412.137	1	6
413.332	1	4
414.526	1	5
415.721	1	5
416.916	1	2
418.111	1	-1
419.305	1	5
420.500	1	-4
421.695	1	-1
422.889	1	-11
424.084	1	7
425.278	1	6
426.472	1	0
427.667	1	-3
428.861	1	-4
430.055	1	-1
431.250	1	5
432.444	1	4
433.638	1	-7
434.832	1	3
436.026	1	5
437.220	1	1
438.414	1	-10
439.608	1	-13
440.802	1	-15
441.996	1	1
443.190	1	8
444.384	1	-4
445.578	1	-12
446.771	1	9
447.965	1	2
449.159	1	-9
450.352	1	-6
451.546	1	-3
452.739	1	-4
453.933	1	-4
455.126	1	-9
456.320	1	5
457.513	1	9
458.706	1	12
459.899	1	2
461.093	1	3
462.286	1	0
463.479	1	-3
464.672	1	-9
465.865	1	-2
467.058	1	0
468.251	1	-4
469.444	1	-5
470.637	1	-3
471.830	1	0
473.023	1	-2
474.215	1	12
475.408	1	-2
476.601	1	6
477.793	1	-1
478.986	1	5
480.179	1	1
481.371	1	7
482.564	1	14
483.756	1	6
484.948	1	1
486.141	1	1
487.333	1	7
488.525	1	8
489.718	1	3
490.910	1	7
492.102	1	-11
493.294	1	-3
494.486	1	13
495.678	1	3
496.870	1	4
498.062	1	6
499.254	1	-1
500.446	1	-7
501.638	1	0
502.829	1	-4
504.021	1	-5
505.213	1	7
506.404	1	6
507.596	1	8
508.788	1	19
509.979	1	0
511.171	1	-4
512.362	1	-1
513.553	1	-8
514.745	1	5
515.936	1	-3
517.127	1	-1
518.319	1	3
519.510	1	2
520.701	1	-4
521.892	1	-3
523.083	1	-2
524.274	1	-11
525.465	1	12
526.656	1	-6
527.847	1	-1
529.038	1	2
530.229	1	10
531.419	1	-2
532.610	1	-4
533.801	1	9
534.991	1	-2
536.182	1	-2
537.373	1	1
538.563	1	3
539.754	1	7
540.944	1	-10
542.134	1	5
543.325	1	3
544.515	1	-6
545.705	1	-6
546.896	1	-8
548.086	1	-2
549.276	1	-2
550.466	1	-1
551.656	1	3
552.846	1	2
554.036	1	-4
555.226	1	-8
556.416	1	-8
557.606	1	1
558.796	1	5
559.986	1	-9
561.175	1	-2
562.365	1	5
563.555	1	0
564.744	1	3
565.934	1	6
567.123	1	-6
568.313	1	9
569.502	1	-5
570.692	1	-1
571.881	1	10
573.070	1	5
574.260	1	10
575.449	1	-4
576.638	1	-5
577.827	1	-9
579.016	1	15
580.205	1	1
581.394	1	10
582.583	1	13
583.772	1	2
584.961	1	0
586.150	1	-2
587.339	1	0
588.528	1	4
589.717	1	8
590.905	1	5
592.094	1	-5
593.283	1	3
594.471	1	11
595.660	1	3
596.848	1	-4
598.037	1	3
599.225	1	-15
600.413	1	9
601.602	1	11
602.790	1	-1
603.978	1	2
605.166	1	2
606.355	1	7
607.543	1	4
608.731	1	-5
609.919	1	10
611.107	1	-8
612.295	1	-3
613.483	1	2
614.671	1	1
615.858	1	3
617.046	1	-4
618.234	1	1
619.422	1	-10
620.609	1	9
621.797	1	-6
622.985	1	4
624.172	1	3
625.360	1	3
626.547	1	-3
627.735	1	6
628.922	1	4
630.109	1	-10
631.297	1	3
632.484	1	-3
633.671	1	-7
634.858	1	-6
636.045	1	8
637.232	1	1
638.419	1	-1
639.606	1	3
640.793	1	4
641.980	1	3
643.167	1	-4
644.354	1	4
645.541	1	7
646.728	1	-2
647.914	1	-7
649.101	1	3
650.288	1	6
651.474	1	-8
652.661	1	-5
653.847	1	5
655.034	1	4
656.220	1	-9
657.406	1	11
658.593	1	4
659.779	1	-2
660.965	1	9
662.152	1	4
663.338	1	5
664.524	1	0
665.710	1	-10
666.896	1	1
668.082	1	6
669.268	1	2
670.454	1	8
671.640	1	4
672.826	1	-6
674.011	1	1
675.197	1	-4
676.383	1	3
677.569	1	-3
678.754	1	1
679.940	1	2
681.125	1	-2
682.311	1	6
683.496	1	5
684.682	1	-4
685.867	1	-2
687.053	1	-1
688.238	1	5
688.746	1	6