File: Data/GaN_200K_800ms/GaN_sample F_spot 12_UVVIS_200 K_200um_800 ms 2x2mm1_323.txt
340.368	1	9
341.565	1	-6
342.763	1	4
343.960	1	-1
345.157	1	0
346.354	1	-6
347.552	1	-1
348.749	1	-3
349.946	1	-9
351.143	1	-2
352.340	1	9
353.537	1	-2
354.734	1	-1
355.931	1	-5
357.127	1	9
358.324	1	1
359.521	1	7
360.718	1	1
361.914	1	5
363.111	1	7
364.308	1	3
365.504	1	16
366.701	1	12
367.897	1	15
369.093	1	11
370.290	1	11
371.486	1	26
372.682	1	16
373.879	1	1
375.075	1	2
376.271	1	13
377.467	1	6
378.663	1	-7
379.859	1	4
381.055	1	13
382.251	1	3
383.447	1	3
384.643	1	15
385.839	1	6
387.035	1	6
388.230	1	4
389.426	1	2
390.622	1	5
391.817	1	0
393.013	1	3
394.208	1	1
395.404	1	-10
396.599	1	-5
397.795	1	0
398.990	1	3
400.186	1	-5
401.381	1	0
402.576	1	-1
403.771	1	6
404.967	1	12
406.162	1	7
407.357	1	-1
408.552	1	-2
409.747	1	-4
410.942	1	11
412.137	1	-10
413.332	1	-5
414.526	1	-5
415.721	1	-12
416.916	1	-1
418.111	1	2
419.305	1	-3
420.500	1	-2
421.695	1	3
422.889	1	-16
424.084	1	-3
425.278	1	9
426.472	1	3
427.667	1	4
428.861	1	-4
430.055	1	4
431.250	1	1
432.444	1	10
433.638	1	-5
434.832	1	0
436.026	1	7
437.220	1	0
438.414	1	-7
439.608	1	-9
440.802	1	0
441.996	1	6
443.190	1	1
444.384	1	-8
445.578	1	-11
446.771	1	3
447.965	1	-2
449.159	1	-11
450.352	1	8
451.546	1	1
452.739	1	10
453.933	1	0
455.126	1	-14
456.320	1	-7
457.513	1	11
458.706	1	-1
459.899	1	-4
461.093	1	-3
462.286	1	-3
463.479	1	-8
464.672	1	-8
465.865	1	-9
467.058	1	-3
468.251	1	-1
469.444	1	-13
470.637	1	-2
471.830	1	-6
473.023	1	9
474.215	1	9
475.408	1	6
476.601	1	2
477.793	1	2
478.986	1	-8
480.179	1	-1
481.371	1	0
482.564	1	-4
483.756	1	8
484.948	1	-7
486.141	1	0
487.333	1	-6
488.525	1	-2
489.718	1	-4
490.910	1	-7
492.102	1	-4
493.294	1	-1
494.486	1	7
495.678	1	-9
496.870	1	5
498.062	1	-3
499.254	1	1
500.446	1	-15
501.638	1	-17
502.829	1	-1
504.021	1	-11
505.213	1	2
506.404	1	5
507.596	1	2
508.788	1	7
509.979	1	-4
511.171	1	-2
512.362	1	-4
513.553	1	-5
514.745	1	-3
515.936	1	-4
517.127	1	6
518.319	1	1
519.510	1	1
520.701	1	0
521.892	1	2
523.083	1	-7
524.274	1	-1
525.465	1	12
526.656	1	8
527.847	1	1
529.038	1	9
530.229	1	6
531.419	1	2
532.610	1	-2
533.801	1	16
534.991	1	3
536.182	1	4
537.373	1	3
538.563	1	12
539.754	1	7
540.944	1	3
542.134	1	5
543.325	1	2
544.515	1	-8
545.705	1	-1
546.896	1	2
548.086	1	3
549.276	1	-6
550.466	1	14
551.656	1	8
552.846	1	10
554.036	1	0
555.226	1	-6
556.416	1	-7
557.606	1	-1
558.796	1	4
559.986	1	-2
561.175	1	-3
562.365	1	-6
563.555	1	3
564.744	1	4
565.934	1	9
567.123	1	0
568.313	1	4
569.502	1	-5
570.692	1	4
571.881	1	10
573.070	1	1
574.260	1	7
575.449	1	-4
576.638	1	-1
577.827	1	-11
579.016	1	3
580.205	1	-2
581.394	1	-4
582.583	1	4
583.772	1	6
584.961	1	3
586.150	1	-5
587.339	1	0
588.528	1	8
589.717	1	1
590.905	1	0
592.094	1	0
593.283	1	-2
594.471	1	8
595.660	1	2
596.848	1	1
598.037	1	-1
599.225	1	-1
600.413	1	4
601.602	1	12
602.790	1	3
603.978	1	-10
605.166	1	5
606.355	1	8
607.543	1	-4
608.731	1	1
609.919	1	14
611.107	1	-3
612.295	1	-6
613.483	1	2
614.671	1	-8
615.858	1	4
617.046	1	-7
618.234	1	-10
619.422	1	-12
620.609	1	1
621.797	1	-8
622.985	1	3
624.172	1	4
625.360	1	0
626.547	1	2
627.735	1	4
628.922	1	2
630.109	1	-6
631.297	1	2
632.484	1	-3
633.671	1	-5
634.858	1	0
636.045	1	7
637.232	1	-1
638.419	1	0
639.606	1	-1
640.793	1	8
641.980	1	1
643.167	1	-11
644.354	1	2
645.541	1	3
646.728	1	-1
647.914	1	-14
649.101	1	11
650.288	1	6
651.474	1	-6
652.661	1	-6
653.847	1	5
655.034	1	6
656.220	1	0
657.406	1	8
658.593	1	0
659.779	1	-1
660.965	1	0
662.152	1	9
663.338	1	8
664.524	1	2
665.710	1	-1
666.896	1	-8
668.082	1	3
669.268	1	-7
670.454	1	-5
671.640	1	5
672.826	1	-5
674.011	1	5
675.197	1	-14
676.383	1	-9
677.569	1	-4
678.754	1	-2
679.940	1	-1
681.125	1	4
682.311	1	3
683.496	1	6
684.682	1	-6
685.867	1	2
687.053	1	-2
688.238	1	-3
688.746	1	6