File: Data/GaN_200K_800ms/GaN_sample F_spot 12_UVVIS_200 K_200um_800 ms 2x2mm1_56.txt
340.368	1	12
341.565	1	-8
342.763	1	-2
343.960	1	1
345.157	1	-1
346.354	1	5
347.552	1	5
348.749	1	4
349.946	1	-3
351.143	1	14
352.340	1	17
353.537	1	23
354.734	1	13
355.931	1	18
357.127	1	30
358.324	1	22
359.521	1	44
360.718	1	53
361.914	1	69
363.111	1	100
364.308	1	132
365.504	1	188
366.701	1	244
367.897	1	303
369.093	1	346
370.290	1	339
371.486	1	313
372.682	1	271
373.879	1	228
375.075	1	194
376.271	1	161
377.467	1	124
378.663	1	110
379.859	1	97
381.055	1	87
382.251	1	66
383.447	1	61
384.643	1	60
385.839	1	51
387.035	1	42
388.230	1	44
389.426	1	24
390.622	1	20
391.817	1	23
393.013	1	30
394.208	1	24
395.404	1	17
396.599	1	22
397.795	1	17
398.990	1	20
400.186	1	15
401.381	1	7
402.576	1	13
403.771	1	16
404.967	1	7
406.162	1	13
407.357	1	16
408.552	1	5
409.747	1	3
410.942	1	7
412.137	1	15
413.332	1	7
414.526	1	14
415.721	1	5
416.916	1	5
418.111	1	5
419.305	1	9
420.500	1	3
421.695	1	1
422.889	1	2
424.084	1	2
425.278	1	7
426.472	1	1
427.667	1	13
428.861	1	5
430.055	1	10
431.250	1	9
432.444	1	13
433.638	1	16
434.832	1	7
436.026	1	13
437.220	1	12
438.414	1	-16
439.608	1	-5
440.802	1	-2
441.996	1	5
443.190	1	5
444.384	1	1
445.578	1	-6
446.771	1	15
447.965	1	2
449.159	1	0
450.352	1	5
451.546	1	-3
452.739	1	1
453.933	1	5
455.126	1	4
456.320	1	8
457.513	1	15
458.706	1	5
459.899	1	6
461.093	1	7
462.286	1	5
463.479	1	-2
464.672	1	-5
465.865	1	-3
467.058	1	6
468.251	1	1
469.444	1	-9
470.637	1	-1
471.830	1	-7
473.023	1	7
474.215	1	16
475.408	1	9
476.601	1	1
477.793	1	8
478.986	1	5
480.179	1	1
481.371	1	2
482.564	1	4
483.756	1	15
484.948	1	0
486.141	1	8
487.333	1	4
488.525	1	7
489.718	1	17
490.910	1	6
492.102	1	6
493.294	1	6
494.486	1	16
495.678	1	7
496.870	1	14
498.062	1	4
499.254	1	7
500.446	1	-3
501.638	1	16
502.829	1	25
504.021	1	7
505.213	1	21
506.404	1	16
507.596	1	16
508.788	1	20
509.979	1	12
511.171	1	13
512.362	1	4
513.553	1	10
514.745	1	16
515.936	1	8
517.127	1	22
518.319	1	19
519.510	1	23
520.701	1	17
521.892	1	24
523.083	1	19
524.274	1	24
525.465	1	35
526.656	1	22
527.847	1	27
529.038	1	30
530.229	1	24
531.419	1	31
532.610	1	23
533.801	1	43
534.991	1	22
536.182	1	30
537.373	1	22
538.563	1	42
539.754	1	34
540.944	1	25
542.134	1	34
543.325	1	34
544.515	1	24
545.705	1	30
546.896	1	31
548.086	1	34
549.276	1	40
550.466	1	43
551.656	1	39
552.846	1	34
554.036	1	31
555.226	1	26
556.416	1	27
557.606	1	34
558.796	1	30
559.986	1	33
561.175	1	30
562.365	1	27
563.555	1	28
564.744	1	28
565.934	1	49
567.123	1	32
568.313	1	28
569.502	1	21
570.692	1	19
571.881	1	38
573.070	1	40
574.260	1	42
575.449	1	23
576.638	1	23
577.827	1	33
579.016	1	41
580.205	1	30
581.394	1	30
582.583	1	38
583.772	1	32
584.961	1	41
586.150	1	26
587.339	1	30
588.528	1	24
589.717	1	27
590.905	1	16
592.094	1	29
593.283	1	26
594.471	1	34
595.660	1	22
596.848	1	17
598.037	1	14
599.225	1	14
600.413	1	31
601.602	1	36
602.790	1	22
603.978	1	20
605.166	1	29
606.355	1	26
607.543	1	24
608.731	1	16
609.919	1	36
611.107	1	25
612.295	1	19
613.483	1	33
614.671	1	29
615.858	1	20
617.046	1	16
618.234	1	13
619.422	1	8
620.609	1	23
621.797	1	17
622.985	1	10
624.172	1	18
625.360	1	17
626.547	1	10
627.735	1	21
628.922	1	12
630.109	1	8
631.297	1	11
632.484	1	4
633.671	1	11
634.858	1	15
636.045	1	20
637.232	1	9
638.419	1	11
639.606	1	18
640.793	1	24
641.980	1	21
643.167	1	7
644.354	1	4
645.541	1	10
646.728	1	10
647.914	1	10
649.101	1	13
650.288	1	21
651.474	1	4
652.661	1	5
653.847	1	12
655.034	1	12
656.220	1	5
657.406	1	23
658.593	1	19
659.779	1	11
660.965	1	10
662.152	1	7
663.338	1	15
664.524	1	10
665.710	1	13
666.896	1	4
668.082	1	10
669.268	1	8
670.454	1	11
671.640	1	9
672.826	1	0
674.011	1	10
675.197	1	7
676.383	1	11
677.569	1	10
678.754	1	13
679.940	1	11
681.125	1	12
682.311	1	8
683.496	1	10
684.682	1	3
685.867	1	9
687.053	1	16
688.238	1	17
688.746	1	10