File: Data/GaN_200K_800ms/GaN_sample F_spot 12_UVVIS_200 K_200um_800 ms 2x2mm1_473.txt
340.368	1	-3
341.565	1	-10
342.763	1	-7
343.960	1	1
345.157	1	-10
346.354	1	0
347.552	1	-11
348.749	1	-12
349.946	1	-3
351.143	1	0
352.340	1	-4
353.537	1	-8
354.734	1	1
355.931	1	6
357.127	1	-1
358.324	1	-1
359.521	1	9
360.718	1	7
361.914	1	3
363.111	1	6
364.308	1	-5
365.504	1	12
366.701	1	9
367.897	1	7
369.093	1	8
370.290	1	3
371.486	1	4
372.682	1	11
373.879	1	-2
375.075	1	2
376.271	1	7
377.467	1	-2
378.663	1	-5
379.859	1	6
381.055	1	8
382.251	1	-6
383.447	1	-7
384.643	1	12
385.839	1	4
387.035	1	1
388.230	1	8
389.426	1	-3
390.622	1	-3
391.817	1	-1
393.013	1	-2
394.208	1	-2
395.404	1	-1
396.599	1	2
397.795	1	-1
398.990	1	4
400.186	1	-4
401.381	1	-12
402.576	1	2
403.771	1	5
404.967	1	-4
406.162	1	7
407.357	1	-5
408.552	1	0
409.747	1	-7
410.942	1	9
412.137	1	3
413.332	1	1
414.526	1	-5
415.721	1	1
416.916	1	-8
418.111	1	-4
419.305	1	0
420.500	1	0
421.695	1	-3
422.889	1	-5
424.084	1	6
425.278	1	9
426.472	1	-4
427.667	1	9
428.861	1	-6
430.055	1	6
431.250	1	-6
432.444	1	11
433.638	1	-4
434.832	1	3
436.026	1	3
437.220	1	0
438.414	1	-7
439.608	1	-7
440.802	1	0
441.996	1	12
443.190	1	3
444.384	1	-3
445.578	1	-13
446.771	1	14
447.965	1	1
449.159	1	-9
450.352	1	2
451.546	1	6
452.739	1	-1
453.933	1	-3
455.126	1	-6
456.320	1	7
457.513	1	5
458.706	1	-5
459.899	1	1
461.093	1	-7
462.286	1	-3
463.479	1	0
464.672	1	-4
465.865	1	-7
467.058	1	1
468.251	1	-1
469.444	1	0
470.637	1	-1
471.830	1	3
473.023	1	-1
474.215	1	9
475.408	1	-5
476.601	1	-3
477.793	1	-6
478.986	1	-14
480.179	1	-5
481.371	1	-5
482.564	1	-3
483.756	1	11
484.948	1	-9
486.141	1	-3
487.333	1	1
488.525	1	-8
489.718	1	-1
490.910	1	-3
492.102	1	-7
493.294	1	-5
494.486	1	0
495.678	1	-4
496.870	1	6
498.062	1	0
499.254	1	0
500.446	1	-8
501.638	1	-6
502.829	1	1
504.021	1	-2
505.213	1	3
506.404	1	1
507.596	1	2
508.788	1	9
509.979	1	-4
511.171	1	2
512.362	1	-7
513.553	1	-10
514.745	1	-4
515.936	1	-7
517.127	1	0
518.319	1	3
519.510	1	-5
520.701	1	1
521.892	1	3
523.083	1	-2
524.274	1	0
525.465	1	4
526.656	1	-5
527.847	1	7
529.038	1	2
530.229	1	-4
531.419	1	0
532.610	1	4
533.801	1	16
534.991	1	-2
536.182	1	-8
537.373	1	-9
538.563	1	18
539.754	1	5
540.944	1	-4
542.134	1	4
543.325	1	0
544.515	1	1
545.705	1	-3
546.896	1	-5
548.086	1	4
549.276	1	-9
550.466	1	1
551.656	1	0
552.846	1	7
554.036	1	-5
555.226	1	-8
556.416	1	-9
557.606	1	-1
558.796	1	-9
559.986	1	-8
561.175	1	10
562.365	1	-5
563.555	1	3
564.744	1	5
565.934	1	3
567.123	1	7
568.313	1	9
569.502	1	5
570.692	1	5
571.881	1	12
573.070	1	2
574.260	1	8
575.449	1	-6
576.638	1	-4
577.827	1	-6
579.016	1	12
580.205	1	-2
581.394	1	-8
582.583	1	10
583.772	1	3
584.961	1	5
586.150	1	2
587.339	1	-2
588.528	1	-1
589.717	1	4
590.905	1	-2
592.094	1	3
593.283	1	1
594.471	1	15
595.660	1	10
596.848	1	2
598.037	1	3
599.225	1	-5
600.413	1	12
601.602	1	12
602.790	1	-3
603.978	1	-4
605.166	1	0
606.355	1	7
607.543	1	1
608.731	1	-2
609.919	1	7
611.107	1	-11
612.295	1	-4
613.483	1	-5
614.671	1	-2
615.858	1	-3
617.046	1	-1
618.234	1	-6
619.422	1	-4
620.609	1	1
621.797	1	-8
622.985	1	-3
624.172	1	-5
625.360	1	-13
626.547	1	2
627.735	1	-7
628.922	1	2
630.109	1	-12
631.297	1	3
632.484	1	-8
633.671	1	-2
634.858	1	-3
636.045	1	10
637.232	1	-6
638.419	1	-6
639.606	1	0
640.793	1	3
641.980	1	11
643.167	1	-2
644.354	1	-6
645.541	1	3
646.728	1	-5
647.914	1	-9
649.101	1	0
650.288	1	7
651.474	1	-3
652.661	1	-4
653.847	1	2
655.034	1	-3
656.220	1	-10
657.406	1	7
658.593	1	8
659.779	1	0
660.965	1	-2
662.152	1	-2
663.338	1	13
664.524	1	0
665.710	1	-5
666.896	1	-4
668.082	1	3
669.268	1	4
670.454	1	5
671.640	1	7
672.826	1	4
674.011	1	-2
675.197	1	-17
676.383	1	3
677.569	1	-2
678.754	1	-9
679.940	1	-6
681.125	1	4
682.311	1	11
683.496	1	4
684.682	1	-9
685.867	1	-5
687.053	1	3
688.238	1	-4
688.746	1	-11