File: Data/GaN_200K_800ms/GaN_sample F_spot 12_UVVIS_200 K_200um_800 ms 2x2mm1_376.txt
340.368	1	5
341.565	1	-8
342.763	1	5
343.960	1	1
345.157	1	-5
346.354	1	2
347.552	1	-6
348.749	1	-12
349.946	1	-10
351.143	1	-1
352.340	1	6
353.537	1	-8
354.734	1	1
355.931	1	-5
357.127	1	-2
358.324	1	-4
359.521	1	4
360.718	1	8
361.914	1	-1
363.111	1	3
364.308	1	6
365.504	1	13
366.701	1	9
367.897	1	14
369.093	1	3
370.290	1	6
371.486	1	14
372.682	1	6
373.879	1	7
375.075	1	4
376.271	1	3
377.467	1	15
378.663	1	5
379.859	1	-11
381.055	1	0
382.251	1	-6
383.447	1	-5
384.643	1	5
385.839	1	-3
387.035	1	8
388.230	1	10
389.426	1	-1
390.622	1	2
391.817	1	2
393.013	1	1
394.208	1	5
395.404	1	-11
396.599	1	-3
397.795	1	3
398.990	1	0
400.186	1	5
401.381	1	-13
402.576	1	-6
403.771	1	3
404.967	1	2
406.162	1	-6
407.357	1	3
408.552	1	-1
409.747	1	-14
410.942	1	2
412.137	1	8
413.332	1	-3
414.526	1	-2
415.721	1	-1
416.916	1	-5
418.111	1	10
419.305	1	3
420.500	1	-2
421.695	1	-14
422.889	1	-13
424.084	1	-3
425.278	1	14
426.472	1	-7
427.667	1	-1
428.861	1	-4
430.055	1	-5
431.250	1	0
432.444	1	2
433.638	1	-2
434.832	1	-1
436.026	1	8
437.220	1	-1
438.414	1	-16
439.608	1	-3
440.802	1	-6
441.996	1	0
443.190	1	-1
444.384	1	-8
445.578	1	-7
446.771	1	5
447.965	1	-9
449.159	1	-4
450.352	1	0
451.546	1	0
452.739	1	-1
453.933	1	5
455.126	1	-7
456.320	1	-2
457.513	1	5
458.706	1	1
459.899	1	6
461.093	1	0
462.286	1	2
463.479	1	-4
464.672	1	-1
465.865	1	-11
467.058	1	6
468.251	1	-1
469.444	1	-3
470.637	1	2
471.830	1	2
473.023	1	-8
474.215	1	12
475.408	1	-5
476.601	1	4
477.793	1	3
478.986	1	5
480.179	1	3
481.371	1	0
482.564	1	2
483.756	1	2
484.948	1	-9
486.141	1	-1
487.333	1	2
488.525	1	2
489.718	1	0
490.910	1	-8
492.102	1	-7
493.294	1	-5
494.486	1	8
495.678	1	1
496.870	1	1
498.062	1	3
499.254	1	-8
500.446	1	-15
501.638	1	3
502.829	1	-9
504.021	1	1
505.213	1	8
506.404	1	4
507.596	1	-7
508.788	1	8
509.979	1	-8
511.171	1	-3
512.362	1	-9
513.553	1	-8
514.745	1	-11
515.936	1	-6
517.127	1	-7
518.319	1	1
519.510	1	-3
520.701	1	0
521.892	1	6
523.083	1	-7
524.274	1	-1
525.465	1	4
526.656	1	1
527.847	1	-1
529.038	1	-3
530.229	1	-2
531.419	1	6
532.610	1	-3
533.801	1	11
534.991	1	4
536.182	1	-11
537.373	1	-3
538.563	1	11
539.754	1	8
540.944	1	-6
542.134	1	8
543.325	1	0
544.515	1	3
545.705	1	-7
546.896	1	-8
548.086	1	-5
549.276	1	3
550.466	1	0
551.656	1	7
552.846	1	9
554.036	1	-9
555.226	1	-4
556.416	1	-2
557.606	1	1
558.796	1	4
559.986	1	1
561.175	1	4
562.365	1	5
563.555	1	1
564.744	1	-1
565.934	1	7
567.123	1	2
568.313	1	-1
569.502	1	-3
570.692	1	2
571.881	1	7
573.070	1	-6
574.260	1	6
575.449	1	0
576.638	1	1
577.827	1	-4
579.016	1	10
580.205	1	-1
581.394	1	-8
582.583	1	8
583.772	1	7
584.961	1	-2
586.150	1	2
587.339	1	7
588.528	1	-1
589.717	1	2
590.905	1	-1
592.094	1	8
593.283	1	-2
594.471	1	6
595.660	1	8
596.848	1	-4
598.037	1	-3
599.225	1	-10
600.413	1	14
601.602	1	11
602.790	1	0
603.978	1	7
605.166	1	4
606.355	1	-2
607.543	1	-3
608.731	1	-4
609.919	1	8
611.107	1	-7
612.295	1	-8
613.483	1	11
614.671	1	5
615.858	1	-3
617.046	1	1
618.234	1	0
619.422	1	-3
620.609	1	-1
621.797	1	-5
622.985	1	2
624.172	1	-3
625.360	1	0
626.547	1	-1
627.735	1	9
628.922	1	5
630.109	1	-8
631.297	1	-3
632.484	1	-1
633.671	1	-6
634.858	1	-5
636.045	1	5
637.232	1	-7
638.419	1	-6
639.606	1	4
640.793	1	-2
641.980	1	12
643.167	1	-6
644.354	1	-1
645.541	1	-2
646.728	1	6
647.914	1	-4
649.101	1	-1
650.288	1	5
651.474	1	-9
652.661	1	8
653.847	1	6
655.034	1	-3
656.220	1	-7
657.406	1	12
658.593	1	2
659.779	1	4
660.965	1	10
662.152	1	3
663.338	1	9
664.524	1	-8
665.710	1	3
666.896	1	-8
668.082	1	5
669.268	1	11
670.454	1	-4
671.640	1	9
672.826	1	-7
674.011	1	-7
675.197	1	-9
676.383	1	-2
677.569	1	4
678.754	1	-1
679.940	1	-5
681.125	1	1
682.311	1	14
683.496	1	7
684.682	1	-7
685.867	1	1
687.053	1	4
688.238	1	5
688.746	1	0