File: Data/GaN_200K_800ms/GaN_sample F_spot 12_UVVIS_200 K_200um_800 ms 2x2mm1_525.txt
340.368	1	-1
341.565	1	-19
342.763	1	9
343.960	1	-2
345.157	1	0
346.354	1	-4
347.552	1	-6
348.749	1	-11
349.946	1	-11
351.143	1	-5
352.340	1	-1
353.537	1	0
354.734	1	-14
355.931	1	-1
357.127	1	-3
358.324	1	-5
359.521	1	2
360.718	1	4
361.914	1	5
363.111	1	-4
364.308	1	3
365.504	1	3
366.701	1	0
367.897	1	2
369.093	1	-3
370.290	1	1
371.486	1	7
372.682	1	3
373.879	1	-1
375.075	1	3
376.271	1	3
377.467	1	4
378.663	1	-2
379.859	1	3
381.055	1	7
382.251	1	2
383.447	1	-13
384.643	1	7
385.839	1	-6
387.035	1	3
388.230	1	8
389.426	1	-10
390.622	1	1
391.817	1	1
393.013	1	-4
394.208	1	1
395.404	1	-3
396.599	1	-8
397.795	1	1
398.990	1	5
400.186	1	-7
401.381	1	-6
402.576	1	-6
403.771	1	-1
404.967	1	1
406.162	1	0
407.357	1	-12
408.552	1	-3
409.747	1	0
410.942	1	8
412.137	1	-4
413.332	1	9
414.526	1	-3
415.721	1	0
416.916	1	-17
418.111	1	-3
419.305	1	6
420.500	1	-9
421.695	1	0
422.889	1	-6
424.084	1	-3
425.278	1	12
426.472	1	-2
427.667	1	6
428.861	1	-7
430.055	1	-1
431.250	1	2
432.444	1	3
433.638	1	-1
434.832	1	-3
436.026	1	-3
437.220	1	8
438.414	1	-12
439.608	1	-2
440.802	1	-7
441.996	1	4
443.190	1	6
444.384	1	-7
445.578	1	-8
446.771	1	3
447.965	1	-2
449.159	1	-8
450.352	1	-5
451.546	1	1
452.739	1	1
453.933	1	-1
455.126	1	-5
456.320	1	2
457.513	1	6
458.706	1	-9
459.899	1	-6
461.093	1	-4
462.286	1	-5
463.479	1	0
464.672	1	-4
465.865	1	3
467.058	1	-4
468.251	1	-8
469.444	1	-12
470.637	1	-9
471.830	1	-8
473.023	1	-2
474.215	1	9
475.408	1	4
476.601	1	-2
477.793	1	-7
478.986	1	0
480.179	1	-8
481.371	1	-3
482.564	1	-5
483.756	1	0
484.948	1	-12
486.141	1	-4
487.333	1	3
488.525	1	-5
489.718	1	-3
490.910	1	-4
492.102	1	-5
493.294	1	-7
494.486	1	6
495.678	1	-8
496.870	1	3
498.062	1	-8
499.254	1	-6
500.446	1	-5
501.638	1	1
502.829	1	-1
504.021	1	-2
505.213	1	1
506.404	1	-2
507.596	1	4
508.788	1	1
509.979	1	-11
511.171	1	-3
512.362	1	-6
513.553	1	-11
514.745	1	-8
515.936	1	-7
517.127	1	2
518.319	1	-1
519.510	1	-3
520.701	1	-1
521.892	1	0
523.083	1	0
524.274	1	-3
525.465	1	5
526.656	1	-5
527.847	1	3
529.038	1	0
530.229	1	8
531.419	1	5
532.610	1	-4
533.801	1	11
534.991	1	-4
536.182	1	0
537.373	1	-8
538.563	1	1
539.754	1	5
540.944	1	-3
542.134	1	-2
543.325	1	4
544.515	1	-9
545.705	1	2
546.896	1	4
548.086	1	-1
549.276	1	-6
550.466	1	3
551.656	1	5
552.846	1	2
554.036	1	-3
555.226	1	-3
556.416	1	-9
557.606	1	4
558.796	1	-8
559.986	1	0
561.175	1	5
562.365	1	-1
563.555	1	-1
564.744	1	0
565.934	1	2
567.123	1	-2
568.313	1	0
569.502	1	-6
570.692	1	-2
571.881	1	7
573.070	1	1
574.260	1	9
575.449	1	-7
576.638	1	-6
577.827	1	-11
579.016	1	4
580.205	1	1
581.394	1	-10
582.583	1	5
583.772	1	3
584.961	1	-1
586.150	1	-7
587.339	1	-6
588.528	1	4
589.717	1	14
590.905	1	-1
592.094	1	-4
593.283	1	4
594.471	1	2
595.660	1	-4
596.848	1	0
598.037	1	-5
599.225	1	-4
600.413	1	10
601.602	1	4
602.790	1	-8
603.978	1	-10
605.166	1	1
606.355	1	4
607.543	1	-10
608.731	1	-2
609.919	1	3
611.107	1	-5
612.295	1	-7
613.483	1	-8
614.671	1	0
615.858	1	5
617.046	1	-1
618.234	1	-4
619.422	1	-11
620.609	1	6
621.797	1	-5
622.985	1	4
624.172	1	-8
625.360	1	0
626.547	1	3
627.735	1	-1
628.922	1	-1
630.109	1	-6
631.297	1	-2
632.484	1	1
633.671	1	-3
634.858	1	-8
636.045	1	4
637.232	1	-9
638.419	1	-2
639.606	1	-2
640.793	1	7
641.980	1	-2
643.167	1	-11
644.354	1	7
645.541	1	4
646.728	1	-10
647.914	1	-5
649.101	1	-3
650.288	1	2
651.474	1	0
652.661	1	-9
653.847	1	9
655.034	1	-3
656.220	1	0
657.406	1	8
658.593	1	6
659.779	1	-3
660.965	1	6
662.152	1	1
663.338	1	3
664.524	1	-6
665.710	1	-4
666.896	1	-5
668.082	1	4
669.268	1	12
670.454	1	4
671.640	1	4
672.826	1	-4
674.011	1	-8
675.197	1	-12
676.383	1	-2
677.569	1	-8
678.754	1	-10
679.940	1	-4
681.125	1	5
682.311	1	4
683.496	1	-1
684.682	1	-9
685.867	1	10
687.053	1	-1
688.238	1	-1
688.746	1	4