File: Data/GaN_200K_800ms/GaN_sample F_spot 12_UVVIS_200 K_200um_800 ms 2x2mm1_488.txt
340.368	1	-1
341.565	1	-6
342.763	1	0
343.960	1	-8
345.157	1	-4
346.354	1	-5
347.552	1	-3
348.749	1	-8
349.946	1	-10
351.143	1	-4
352.340	1	8
353.537	1	2
354.734	1	-2
355.931	1	-3
357.127	1	-4
358.324	1	-4
359.521	1	4
360.718	1	6
361.914	1	3
363.111	1	4
364.308	1	2
365.504	1	9
366.701	1	8
367.897	1	7
369.093	1	3
370.290	1	-1
371.486	1	15
372.682	1	16
373.879	1	6
375.075	1	5
376.271	1	11
377.467	1	1
378.663	1	0
379.859	1	9
381.055	1	12
382.251	1	-5
383.447	1	2
384.643	1	10
385.839	1	4
387.035	1	-1
388.230	1	11
389.426	1	-4
390.622	1	1
391.817	1	6
393.013	1	-1
394.208	1	-6
395.404	1	-2
396.599	1	3
397.795	1	2
398.990	1	-7
400.186	1	-3
401.381	1	-1
402.576	1	4
403.771	1	4
404.967	1	0
406.162	1	0
407.357	1	-9
408.552	1	-9
409.747	1	-8
410.942	1	5
412.137	1	-1
413.332	1	2
414.526	1	-1
415.721	1	-10
416.916	1	1
418.111	1	-5
419.305	1	7
420.500	1	-6
421.695	1	-6
422.889	1	-9
424.084	1	-4
425.278	1	8
426.472	1	2
427.667	1	15
428.861	1	-6
430.055	1	-1
431.250	1	-8
432.444	1	3
433.638	1	4
434.832	1	-2
436.026	1	14
437.220	1	5
438.414	1	-10
439.608	1	-6
440.802	1	-4
441.996	1	1
443.190	1	-3
444.384	1	-5
445.578	1	-12
446.771	1	8
447.965	1	3
449.159	1	-9
450.352	1	-6
451.546	1	0
452.739	1	3
453.933	1	-8
455.126	1	-12
456.320	1	-4
457.513	1	13
458.706	1	-4
459.899	1	-5
461.093	1	1
462.286	1	3
463.479	1	-2
464.672	1	1
465.865	1	-7
467.058	1	-7
468.251	1	-1
469.444	1	-7
470.637	1	-6
471.830	1	-1
473.023	1	3
474.215	1	13
475.408	1	-3
476.601	1	9
477.793	1	5
478.986	1	-1
480.179	1	1
481.371	1	2
482.564	1	-6
483.756	1	0
484.948	1	-6
486.141	1	-2
487.333	1	-3
488.525	1	-1
489.718	1	2
490.910	1	4
492.102	1	-7
493.294	1	-5
494.486	1	0
495.678	1	-8
496.870	1	7
498.062	1	5
499.254	1	-2
500.446	1	-7
501.638	1	-8
502.829	1	-6
504.021	1	-3
505.213	1	9
506.404	1	0
507.596	1	-5
508.788	1	6
509.979	1	-3
511.171	1	-1
512.362	1	-11
513.553	1	-2
514.745	1	-5
515.936	1	-7
517.127	1	-8
518.319	1	-8
519.510	1	-3
520.701	1	-1
521.892	1	1
523.083	1	-5
524.274	1	0
525.465	1	6
526.656	1	7
527.847	1	-2
529.038	1	-2
530.229	1	1
531.419	1	4
532.610	1	0
533.801	1	14
534.991	1	1
536.182	1	-4
537.373	1	0
538.563	1	11
539.754	1	-2
540.944	1	-5
542.134	1	11
543.325	1	-3
544.515	1	2
545.705	1	0
546.896	1	-2
548.086	1	-3
549.276	1	-3
550.466	1	9
551.656	1	-3
552.846	1	-4
554.036	1	2
555.226	1	-2
556.416	1	-8
557.606	1	0
558.796	1	8
559.986	1	-8
561.175	1	4
562.365	1	2
563.555	1	-3
564.744	1	2
565.934	1	3
567.123	1	-3
568.313	1	2
569.502	1	8
570.692	1	2
571.881	1	14
573.070	1	4
574.260	1	13
575.449	1	-4
576.638	1	-10
577.827	1	-2
579.016	1	2
580.205	1	-6
581.394	1	-3
582.583	1	5
583.772	1	2
584.961	1	8
586.150	1	-2
587.339	1	-7
588.528	1	6
589.717	1	-4
590.905	1	-1
592.094	1	7
593.283	1	0
594.471	1	16
595.660	1	2
596.848	1	-4
598.037	1	-6
599.225	1	-7
600.413	1	9
601.602	1	6
602.790	1	1
603.978	1	3
605.166	1	3
606.355	1	3
607.543	1	-4
608.731	1	-6
609.919	1	3
611.107	1	-6
612.295	1	-5
613.483	1	10
614.671	1	5
615.858	1	1
617.046	1	7
618.234	1	0
619.422	1	-13
620.609	1	-6
621.797	1	-5
622.985	1	-7
624.172	1	-9
625.360	1	6
626.547	1	-3
627.735	1	4
628.922	1	10
630.109	1	-14
631.297	1	0
632.484	1	-9
633.671	1	-4
634.858	1	-2
636.045	1	15
637.232	1	-6
638.419	1	-6
639.606	1	0
640.793	1	4
641.980	1	-4
643.167	1	-6
644.354	1	0
645.541	1	-9
646.728	1	-2
647.914	1	-13
649.101	1	-4
650.288	1	-3
651.474	1	-8
652.661	1	-7
653.847	1	5
655.034	1	7
656.220	1	-7
657.406	1	6
658.593	1	2
659.779	1	1
660.965	1	9
662.152	1	6
663.338	1	14
664.524	1	-2
665.710	1	-5
666.896	1	-7
668.082	1	-4
669.268	1	3
670.454	1	5
671.640	1	-11
672.826	1	8
674.011	1	4
675.197	1	-10
676.383	1	1
677.569	1	2
678.754	1	-3
679.940	1	-9
681.125	1	-3
682.311	1	-3
683.496	1	0
684.682	1	-18
685.867	1	-7
687.053	1	-6
688.238	1	-5
688.746	1	-4