File: Data/GaN_200K_800ms/GaN_sample F_spot 12_UVVIS_200 K_200um_800 ms 2x2mm1_148.txt
340.368	1	2
341.565	1	-4
342.763	1	11
343.960	1	5
345.157	1	1
346.354	1	10
347.552	1	3
348.749	1	-12
349.946	1	-13
351.143	1	1
352.340	1	8
353.537	1	2
354.734	1	16
355.931	1	13
357.127	1	6
358.324	1	1
359.521	1	14
360.718	1	15
361.914	1	15
363.111	1	18
364.308	1	24
365.504	1	35
366.701	1	35
367.897	1	39
369.093	1	49
370.290	1	58
371.486	1	54
372.682	1	42
373.879	1	37
375.075	1	28
376.271	1	26
377.467	1	28
378.663	1	26
379.859	1	18
381.055	1	21
382.251	1	7
383.447	1	8
384.643	1	15
385.839	1	8
387.035	1	8
388.230	1	16
389.426	1	7
390.622	1	3
391.817	1	4
393.013	1	3
394.208	1	4
395.404	1	-1
396.599	1	-5
397.795	1	2
398.990	1	9
400.186	1	7
401.381	1	1
402.576	1	3
403.771	1	2
404.967	1	11
406.162	1	6
407.357	1	3
408.552	1	1
409.747	1	-4
410.942	1	7
412.137	1	0
413.332	1	1
414.526	1	-6
415.721	1	-4
416.916	1	-15
418.111	1	4
419.305	1	1
420.500	1	-7
421.695	1	-3
422.889	1	-11
424.084	1	-10
425.278	1	10
426.472	1	4
427.667	1	6
428.861	1	-2
430.055	1	8
431.250	1	5
432.444	1	8
433.638	1	0
434.832	1	8
436.026	1	8
437.220	1	8
438.414	1	-6
439.608	1	-12
440.802	1	-5
441.996	1	0
443.190	1	1
444.384	1	-7
445.578	1	-14
446.771	1	12
447.965	1	-2
449.159	1	-10
450.352	1	-1
451.546	1	1
452.739	1	9
453.933	1	-6
455.126	1	8
456.320	1	-5
457.513	1	9
458.706	1	-5
459.899	1	2
461.093	1	1
462.286	1	3
463.479	1	-1
464.672	1	3
465.865	1	-4
467.058	1	1
468.251	1	7
469.444	1	-6
470.637	1	5
471.830	1	0
473.023	1	9
474.215	1	12
475.408	1	1
476.601	1	1
477.793	1	4
478.986	1	-5
480.179	1	3
481.371	1	5
482.564	1	5
483.756	1	10
484.948	1	-4
486.141	1	-5
487.333	1	-4
488.525	1	-6
489.718	1	3
490.910	1	4
492.102	1	4
493.294	1	-2
494.486	1	10
495.678	1	-1
496.870	1	2
498.062	1	-2
499.254	1	4
500.446	1	-12
501.638	1	-7
502.829	1	0
504.021	1	9
505.213	1	9
506.404	1	-1
507.596	1	5
508.788	1	14
509.979	1	2
511.171	1	0
512.362	1	-3
513.553	1	-4
514.745	1	-4
515.936	1	4
517.127	1	-2
518.319	1	6
519.510	1	-2
520.701	1	5
521.892	1	3
523.083	1	0
524.274	1	1
525.465	1	8
526.656	1	8
527.847	1	3
529.038	1	3
530.229	1	5
531.419	1	15
532.610	1	4
533.801	1	13
534.991	1	5
536.182	1	-6
537.373	1	6
538.563	1	22
539.754	1	8
540.944	1	-5
542.134	1	7
543.325	1	3
544.515	1	-1
545.705	1	2
546.896	1	4
548.086	1	11
549.276	1	-1
550.466	1	5
551.656	1	14
552.846	1	3
554.036	1	8
555.226	1	-4
556.416	1	6
557.606	1	9
558.796	1	10
559.986	1	3
561.175	1	4
562.365	1	10
563.555	1	8
564.744	1	4
565.934	1	17
567.123	1	4
568.313	1	8
569.502	1	1
570.692	1	7
571.881	1	11
573.070	1	6
574.260	1	10
575.449	1	4
576.638	1	0
577.827	1	1
579.016	1	12
580.205	1	1
581.394	1	6
582.583	1	8
583.772	1	15
584.961	1	5
586.150	1	8
587.339	1	9
588.528	1	4
589.717	1	10
590.905	1	5
592.094	1	3
593.283	1	1
594.471	1	13
595.660	1	8
596.848	1	0
598.037	1	3
599.225	1	-9
600.413	1	12
601.602	1	15
602.790	1	3
603.978	1	-2
605.166	1	12
606.355	1	4
607.543	1	4
608.731	1	7
609.919	1	5
611.107	1	4
612.295	1	3
613.483	1	7
614.671	1	7
615.858	1	6
617.046	1	0
618.234	1	6
619.422	1	-4
620.609	1	3
621.797	1	3
622.985	1	1
624.172	1	5
625.360	1	9
626.547	1	5
627.735	1	11
628.922	1	10
630.109	1	-9
631.297	1	7
632.484	1	5
633.671	1	-4
634.858	1	2
636.045	1	6
637.232	1	-2
638.419	1	3
639.606	1	10
640.793	1	5
641.980	1	10
643.167	1	1
644.354	1	0
645.541	1	4
646.728	1	1
647.914	1	3
649.101	1	-1
650.288	1	4
651.474	1	-5
652.661	1	-2
653.847	1	8
655.034	1	12
656.220	1	-6
657.406	1	3
658.593	1	9
659.779	1	7
660.965	1	4
662.152	1	11
663.338	1	7
664.524	1	-4
665.710	1	-3
666.896	1	1
668.082	1	-2
669.268	1	2
670.454	1	2
671.640	1	13
672.826	1	-6
674.011	1	1
675.197	1	-6
676.383	1	3
677.569	1	-1
678.754	1	-2
679.940	1	-1
681.125	1	6
682.311	1	8
683.496	1	-2
684.682	1	-8
685.867	1	-1
687.053	1	4
688.238	1	0
688.746	1	2