File: Data/GaN_200K_800ms/GaN_sample F_spot 12_UVVIS_200 K_200um_800 ms 2x2mm1_155.txt
340.368	1	-2
341.565	1	-8
342.763	1	14
343.960	1	5
345.157	1	6
346.354	1	-3
347.552	1	4
348.749	1	-1
349.946	1	1
351.143	1	-1
352.340	1	12
353.537	1	3
354.734	1	5
355.931	1	0
357.127	1	0
358.324	1	1
359.521	1	17
360.718	1	10
361.914	1	9
363.111	1	19
364.308	1	22
365.504	1	29
366.701	1	30
367.897	1	53
369.093	1	44
370.290	1	48
371.486	1	49
372.682	1	52
373.879	1	34
375.075	1	25
376.271	1	36
377.467	1	21
378.663	1	15
379.859	1	26
381.055	1	19
382.251	1	3
383.447	1	12
384.643	1	16
385.839	1	11
387.035	1	11
388.230	1	10
389.426	1	0
390.622	1	-2
391.817	1	4
393.013	1	5
394.208	1	7
395.404	1	-1
396.599	1	-1
397.795	1	9
398.990	1	2
400.186	1	5
401.381	1	-4
402.576	1	2
403.771	1	2
404.967	1	1
406.162	1	10
407.357	1	3
408.552	1	3
409.747	1	3
410.942	1	2
412.137	1	12
413.332	1	-1
414.526	1	0
415.721	1	2
416.916	1	3
418.111	1	-3
419.305	1	12
420.500	1	-2
421.695	1	-11
422.889	1	-5
424.084	1	-1
425.278	1	8
426.472	1	-5
427.667	1	4
428.861	1	3
430.055	1	1
431.250	1	4
432.444	1	1
433.638	1	-4
434.832	1	-1
436.026	1	13
437.220	1	7
438.414	1	-2
439.608	1	-2
440.802	1	-6
441.996	1	-1
443.190	1	5
444.384	1	-8
445.578	1	-12
446.771	1	7
447.965	1	0
449.159	1	-9
450.352	1	4
451.546	1	2
452.739	1	5
453.933	1	7
455.126	1	-2
456.320	1	-6
457.513	1	2
458.706	1	11
459.899	1	1
461.093	1	5
462.286	1	13
463.479	1	1
464.672	1	-1
465.865	1	-2
467.058	1	-2
468.251	1	1
469.444	1	-13
470.637	1	5
471.830	1	-2
473.023	1	6
474.215	1	9
475.408	1	5
476.601	1	3
477.793	1	-9
478.986	1	-6
480.179	1	-5
481.371	1	6
482.564	1	7
483.756	1	10
484.948	1	-3
486.141	1	-10
487.333	1	-1
488.525	1	0
489.718	1	-3
490.910	1	0
492.102	1	-3
493.294	1	-4
494.486	1	12
495.678	1	13
496.870	1	9
498.062	1	11
499.254	1	8
500.446	1	-8
501.638	1	2
502.829	1	11
504.021	1	0
505.213	1	13
506.404	1	6
507.596	1	2
508.788	1	9
509.979	1	-2
511.171	1	-2
512.362	1	-6
513.553	1	-10
514.745	1	-6
515.936	1	6
517.127	1	-5
518.319	1	6
519.510	1	4
520.701	1	0
521.892	1	9
523.083	1	-1
524.274	1	5
525.465	1	-1
526.656	1	4
527.847	1	7
529.038	1	0
530.229	1	4
531.419	1	10
532.610	1	-1
533.801	1	16
534.991	1	-9
536.182	1	12
537.373	1	8
538.563	1	4
539.754	1	5
540.944	1	9
542.134	1	10
543.325	1	0
544.515	1	-8
545.705	1	9
546.896	1	5
548.086	1	2
549.276	1	1
550.466	1	4
551.656	1	14
552.846	1	5
554.036	1	0
555.226	1	-3
556.416	1	-2
557.606	1	3
558.796	1	6
559.986	1	0
561.175	1	8
562.365	1	4
563.555	1	-4
564.744	1	9
565.934	1	6
567.123	1	10
568.313	1	13
569.502	1	2
570.692	1	18
571.881	1	16
573.070	1	-3
574.260	1	19
575.449	1	-1
576.638	1	-5
577.827	1	0
579.016	1	12
580.205	1	0
581.394	1	0
582.583	1	14
583.772	1	8
584.961	1	5
586.150	1	6
587.339	1	4
588.528	1	3
589.717	1	3
590.905	1	-5
592.094	1	-4
593.283	1	9
594.471	1	11
595.660	1	-2
596.848	1	6
598.037	1	-1
599.225	1	-4
600.413	1	11
601.602	1	14
602.790	1	4
603.978	1	-2
605.166	1	9
606.355	1	9
607.543	1	8
608.731	1	7
609.919	1	13
611.107	1	3
612.295	1	-3
613.483	1	12
614.671	1	0
615.858	1	14
617.046	1	6
618.234	1	4
619.422	1	-2
620.609	1	4
621.797	1	0
622.985	1	8
624.172	1	-6
625.360	1	5
626.547	1	5
627.735	1	3
628.922	1	7
630.109	1	-5
631.297	1	6
632.484	1	0
633.671	1	0
634.858	1	2
636.045	1	6
637.232	1	2
638.419	1	5
639.606	1	9
640.793	1	13
641.980	1	13
643.167	1	-4
644.354	1	6
645.541	1	7
646.728	1	2
647.914	1	2
649.101	1	3
650.288	1	-4
651.474	1	-8
652.661	1	5
653.847	1	8
655.034	1	7
656.220	1	-10
657.406	1	5
658.593	1	-1
659.779	1	4
660.965	1	9
662.152	1	6
663.338	1	9
664.524	1	2
665.710	1	7
666.896	1	6
668.082	1	-1
669.268	1	-2
670.454	1	12
671.640	1	-1
672.826	1	-9
674.011	1	1
675.197	1	-3
676.383	1	3
677.569	1	0
678.754	1	-4
679.940	1	1
681.125	1	5
682.311	1	3
683.496	1	14
684.682	1	-4
685.867	1	0
687.053	1	7
688.238	1	6
688.746	1	4