File: Data/GaN_200K_800ms/GaN_sample F_spot 12_UVVIS_200 K_200um_800 ms 2x2mm1_32.txt
340.368	1	-4
341.565	1	-7
342.763	1	2
343.960	1	9
345.157	1	1
346.354	1	-1
347.552	1	3
348.749	1	-5
349.946	1	-9
351.143	1	1
352.340	1	-3
353.537	1	-5
354.734	1	-4
355.931	1	3
357.127	1	-4
358.324	1	-2
359.521	1	4
360.718	1	1
361.914	1	12
363.111	1	3
364.308	1	-5
365.504	1	5
366.701	1	-5
367.897	1	1
369.093	1	-9
370.290	1	0
371.486	1	6
372.682	1	6
373.879	1	-3
375.075	1	-2
376.271	1	8
377.467	1	3
378.663	1	-5
379.859	1	0
381.055	1	13
382.251	1	-8
383.447	1	-3
384.643	1	6
385.839	1	-8
387.035	1	8
388.230	1	16
389.426	1	1
390.622	1	-8
391.817	1	1
393.013	1	-2
394.208	1	5
395.404	1	-1
396.599	1	4
397.795	1	7
398.990	1	1
400.186	1	-1
401.381	1	-10
402.576	1	4
403.771	1	2
404.967	1	5
406.162	1	8
407.357	1	3
408.552	1	-3
409.747	1	3
410.942	1	1
412.137	1	5
413.332	1	9
414.526	1	-6
415.721	1	2
416.916	1	-5
418.111	1	-2
419.305	1	8
420.500	1	0
421.695	1	-2
422.889	1	-5
424.084	1	5
425.278	1	16
426.472	1	3
427.667	1	10
428.861	1	1
430.055	1	1
431.250	1	-3
432.444	1	8
433.638	1	0
434.832	1	1
436.026	1	12
437.220	1	12
438.414	1	-7
439.608	1	-5
440.802	1	0
441.996	1	6
443.190	1	9
444.384	1	-4
445.578	1	-9
446.771	1	6
447.965	1	-2
449.159	1	-7
450.352	1	4
451.546	1	2
452.739	1	6
453.933	1	2
455.126	1	0
456.320	1	16
457.513	1	5
458.706	1	-3
459.899	1	7
461.093	1	-2
462.286	1	12
463.479	1	2
464.672	1	2
465.865	1	5
467.058	1	0
468.251	1	2
469.444	1	-6
470.637	1	4
471.830	1	-1
473.023	1	6
474.215	1	9
475.408	1	1
476.601	1	3
477.793	1	-1
478.986	1	3
480.179	1	1
481.371	1	6
482.564	1	-3
483.756	1	6
484.948	1	3
486.141	1	-2
487.333	1	6
488.525	1	2
489.718	1	0
490.910	1	-1
492.102	1	2
493.294	1	4
494.486	1	9
495.678	1	-2
496.870	1	12
498.062	1	2
499.254	1	3
500.446	1	-5
501.638	1	-7
502.829	1	-3
504.021	1	10
505.213	1	11
506.404	1	4
507.596	1	-3
508.788	1	14
509.979	1	-7
511.171	1	1
512.362	1	-10
513.553	1	-11
514.745	1	-2
515.936	1	-5
517.127	1	-1
518.319	1	2
519.510	1	-7
520.701	1	1
521.892	1	-5
523.083	1	-4
524.274	1	-3
525.465	1	8
526.656	1	3
527.847	1	0
529.038	1	-1
530.229	1	6
531.419	1	8
532.610	1	-1
533.801	1	16
534.991	1	-3
536.182	1	1
537.373	1	6
538.563	1	8
539.754	1	2
540.944	1	-2
542.134	1	9
543.325	1	2
544.515	1	-4
545.705	1	4
546.896	1	1
548.086	1	4
549.276	1	-4
550.466	1	2
551.656	1	12
552.846	1	9
554.036	1	3
555.226	1	-13
556.416	1	-2
557.606	1	4
558.796	1	6
559.986	1	-5
561.175	1	5
562.365	1	8
563.555	1	-2
564.744	1	14
565.934	1	8
567.123	1	-4
568.313	1	3
569.502	1	-5
570.692	1	2
571.881	1	8
573.070	1	2
574.260	1	0
575.449	1	-6
576.638	1	-3
577.827	1	5
579.016	1	12
580.205	1	2
581.394	1	-5
582.583	1	11
583.772	1	6
584.961	1	-3
586.150	1	0
587.339	1	4
588.528	1	9
589.717	1	8
590.905	1	-4
592.094	1	-12
593.283	1	-2
594.471	1	6
595.660	1	5
596.848	1	-3
598.037	1	3
599.225	1	-11
600.413	1	12
601.602	1	14
602.790	1	2
603.978	1	-5
605.166	1	2
606.355	1	7
607.543	1	12
608.731	1	3
609.919	1	5
611.107	1	4
612.295	1	3
613.483	1	5
614.671	1	6
615.858	1	7
617.046	1	2
618.234	1	1
619.422	1	-3
620.609	1	4
621.797	1	-7
622.985	1	7
624.172	1	4
625.360	1	7
626.547	1	10
627.735	1	5
628.922	1	6
630.109	1	-12
631.297	1	-3
632.484	1	-5
633.671	1	7
634.858	1	-5
636.045	1	9
637.232	1	-3
638.419	1	-7
639.606	1	2
640.793	1	5
641.980	1	4
643.167	1	-5
644.354	1	-7
645.541	1	0
646.728	1	-3
647.914	1	1
649.101	1	-1
650.288	1	7
651.474	1	3
652.661	1	-2
653.847	1	-1
655.034	1	12
656.220	1	-8
657.406	1	9
658.593	1	6
659.779	1	5
660.965	1	8
662.152	1	0
663.338	1	15
664.524	1	0
665.710	1	2
666.896	1	-2
668.082	1	1
669.268	1	-1
670.454	1	9
671.640	1	-1
672.826	1	1
674.011	1	-1
675.197	1	-8
676.383	1	9
677.569	1	-3
678.754	1	-2
679.940	1	-3
681.125	1	2
682.311	1	5
683.496	1	-4
684.682	1	1
685.867	1	2
687.053	1	-7
688.238	1	9
688.746	1	2