File: Data/GaN_200K_800ms/GaN_sample F_spot 12_UVVIS_200 K_200um_800 ms 2x2mm1_495.txt
340.368	1	2
341.565	1	1
342.763	1	1
343.960	1	4
345.157	1	1
346.354	1	-3
347.552	1	-6
348.749	1	-8
349.946	1	-16
351.143	1	2
352.340	1	-1
353.537	1	-2
354.734	1	0
355.931	1	1
357.127	1	-5
358.324	1	4
359.521	1	4
360.718	1	3
361.914	1	-6
363.111	1	0
364.308	1	-3
365.504	1	4
366.701	1	0
367.897	1	8
369.093	1	0
370.290	1	16
371.486	1	15
372.682	1	12
373.879	1	-2
375.075	1	-3
376.271	1	3
377.467	1	0
378.663	1	-6
379.859	1	5
381.055	1	11
382.251	1	-5
383.447	1	-7
384.643	1	10
385.839	1	-5
387.035	1	7
388.230	1	8
389.426	1	-2
390.622	1	-6
391.817	1	2
393.013	1	-7
394.208	1	-1
395.404	1	-2
396.599	1	-1
397.795	1	3
398.990	1	-1
400.186	1	1
401.381	1	-6
402.576	1	0
403.771	1	-3
404.967	1	-4
406.162	1	10
407.357	1	-7
408.552	1	-1
409.747	1	-4
410.942	1	3
412.137	1	0
413.332	1	4
414.526	1	-3
415.721	1	-6
416.916	1	-10
418.111	1	-8
419.305	1	9
420.500	1	-4
421.695	1	-3
422.889	1	-7
424.084	1	1
425.278	1	5
426.472	1	12
427.667	1	9
428.861	1	-1
430.055	1	7
431.250	1	-1
432.444	1	12
433.638	1	-2
434.832	1	-1
436.026	1	-2
437.220	1	6
438.414	1	-7
439.608	1	-16
440.802	1	-5
441.996	1	11
443.190	1	1
444.384	1	-5
445.578	1	-7
446.771	1	6
447.965	1	-2
449.159	1	-6
450.352	1	-1
451.546	1	-4
452.739	1	1
453.933	1	0
455.126	1	-7
456.320	1	-1
457.513	1	8
458.706	1	1
459.899	1	-3
461.093	1	2
462.286	1	0
463.479	1	-8
464.672	1	-3
465.865	1	-4
467.058	1	-10
468.251	1	-3
469.444	1	-7
470.637	1	-2
471.830	1	-4
473.023	1	-4
474.215	1	6
475.408	1	-2
476.601	1	1
477.793	1	-1
478.986	1	-7
480.179	1	0
481.371	1	4
482.564	1	-1
483.756	1	-2
484.948	1	-7
486.141	1	-10
487.333	1	0
488.525	1	-5
489.718	1	-2
490.910	1	2
492.102	1	3
493.294	1	-3
494.486	1	2
495.678	1	-7
496.870	1	5
498.062	1	-7
499.254	1	6
500.446	1	-10
501.638	1	0
502.829	1	-8
504.021	1	5
505.213	1	8
506.404	1	2
507.596	1	2
508.788	1	18
509.979	1	-1
511.171	1	-8
512.362	1	0
513.553	1	-11
514.745	1	-4
515.936	1	-3
517.127	1	-5
518.319	1	0
519.510	1	3
520.701	1	4
521.892	1	0
523.083	1	-2
524.274	1	0
525.465	1	3
526.656	1	-9
527.847	1	5
529.038	1	0
530.229	1	-3
531.419	1	3
532.610	1	-8
533.801	1	8
534.991	1	0
536.182	1	-5
537.373	1	4
538.563	1	6
539.754	1	2
540.944	1	-8
542.134	1	5
543.325	1	0
544.515	1	2
545.705	1	3
546.896	1	3
548.086	1	2
549.276	1	-7
550.466	1	-4
551.656	1	2
552.846	1	-1
554.036	1	-9
555.226	1	-3
556.416	1	-9
557.606	1	-3
558.796	1	-11
559.986	1	-2
561.175	1	4
562.365	1	9
563.555	1	-3
564.744	1	-5
565.934	1	1
567.123	1	4
568.313	1	2
569.502	1	1
570.692	1	11
571.881	1	10
573.070	1	3
574.260	1	3
575.449	1	-3
576.638	1	-3
577.827	1	-2
579.016	1	-1
580.205	1	-1
581.394	1	0
582.583	1	4
583.772	1	-2
584.961	1	-3
586.150	1	5
587.339	1	1
588.528	1	-4
589.717	1	4
590.905	1	-1
592.094	1	-8
593.283	1	-3
594.471	1	7
595.660	1	3
596.848	1	1
598.037	1	0
599.225	1	-8
600.413	1	13
601.602	1	14
602.790	1	-6
603.978	1	-8
605.166	1	-2
606.355	1	7
607.543	1	0
608.731	1	-6
609.919	1	8
611.107	1	-7
612.295	1	-2
613.483	1	0
614.671	1	1
615.858	1	-2
617.046	1	-7
618.234	1	-3
619.422	1	-9
620.609	1	9
621.797	1	-3
622.985	1	8
624.172	1	-2
625.360	1	8
626.547	1	2
627.735	1	0
628.922	1	4
630.109	1	-12
631.297	1	1
632.484	1	1
633.671	1	-11
634.858	1	0
636.045	1	15
637.232	1	-9
638.419	1	-15
639.606	1	-7
640.793	1	3
641.980	1	2
643.167	1	3
644.354	1	1
645.541	1	4
646.728	1	-6
647.914	1	-6
649.101	1	-6
650.288	1	1
651.474	1	-5
652.661	1	-8
653.847	1	7
655.034	1	-2
656.220	1	-6
657.406	1	3
658.593	1	5
659.779	1	0
660.965	1	7
662.152	1	2
663.338	1	6
664.524	1	5
665.710	1	-5
666.896	1	-7
668.082	1	5
669.268	1	-6
670.454	1	5
671.640	1	2
672.826	1	-2
674.011	1	7
675.197	1	-5
676.383	1	-2
677.569	1	-14
678.754	1	-6
679.940	1	3
681.125	1	2
682.311	1	1
683.496	1	-5
684.682	1	-5
685.867	1	6
687.053	1	3
688.238	1	-4
688.746	1	-3