File: Data/GaN_200K_800ms/GaN_sample F_spot 12_UVVIS_200 K_200um_800 ms 2x2mm1_109.txt
340.368	1	9
341.565	1	-12
342.763	1	15
343.960	1	3
345.157	1	-3
346.354	1	8
347.552	1	-8
348.749	1	1
349.946	1	2
351.143	1	2
352.340	1	10
353.537	1	6
354.734	1	9
355.931	1	-1
357.127	1	10
358.324	1	9
359.521	1	20
360.718	1	19
361.914	1	33
363.111	1	15
364.308	1	41
365.504	1	56
366.701	1	69
367.897	1	72
369.093	1	70
370.290	1	75
371.486	1	80
372.682	1	71
373.879	1	49
375.075	1	42
376.271	1	43
377.467	1	40
378.663	1	35
379.859	1	41
381.055	1	29
382.251	1	13
383.447	1	19
384.643	1	22
385.839	1	10
387.035	1	14
388.230	1	15
389.426	1	4
390.622	1	9
391.817	1	12
393.013	1	11
394.208	1	8
395.404	1	-4
396.599	1	4
397.795	1	4
398.990	1	5
400.186	1	-1
401.381	1	3
402.576	1	1
403.771	1	10
404.967	1	2
406.162	1	6
407.357	1	-3
408.552	1	3
409.747	1	7
410.942	1	23
412.137	1	9
413.332	1	8
414.526	1	-5
415.721	1	3
416.916	1	1
418.111	1	2
419.305	1	9
420.500	1	5
421.695	1	-3
422.889	1	-13
424.084	1	2
425.278	1	14
426.472	1	-3
427.667	1	2
428.861	1	-3
430.055	1	2
431.250	1	5
432.444	1	3
433.638	1	-2
434.832	1	8
436.026	1	13
437.220	1	4
438.414	1	0
439.608	1	-10
440.802	1	-5
441.996	1	7
443.190	1	-5
444.384	1	-6
445.578	1	-8
446.771	1	13
447.965	1	4
449.159	1	-10
450.352	1	0
451.546	1	5
452.739	1	8
453.933	1	-5
455.126	1	-4
456.320	1	-8
457.513	1	17
458.706	1	6
459.899	1	7
461.093	1	0
462.286	1	3
463.479	1	2
464.672	1	0
465.865	1	7
467.058	1	6
468.251	1	7
469.444	1	-7
470.637	1	4
471.830	1	-3
473.023	1	4
474.215	1	10
475.408	1	4
476.601	1	10
477.793	1	1
478.986	1	-2
480.179	1	5
481.371	1	6
482.564	1	3
483.756	1	14
484.948	1	-6
486.141	1	0
487.333	1	4
488.525	1	6
489.718	1	5
490.910	1	2
492.102	1	1
493.294	1	-2
494.486	1	1
495.678	1	1
496.870	1	8
498.062	1	8
499.254	1	5
500.446	1	-2
501.638	1	-11
502.829	1	3
504.021	1	10
505.213	1	1
506.404	1	6
507.596	1	8
508.788	1	24
509.979	1	4
511.171	1	-1
512.362	1	-1
513.553	1	-7
514.745	1	2
515.936	1	9
517.127	1	13
518.319	1	9
519.510	1	0
520.701	1	8
521.892	1	14
523.083	1	-1
524.274	1	19
525.465	1	12
526.656	1	2
527.847	1	18
529.038	1	13
530.229	1	13
531.419	1	5
532.610	1	-8
533.801	1	19
534.991	1	13
536.182	1	8
537.373	1	7
538.563	1	10
539.754	1	10
540.944	1	3
542.134	1	4
543.325	1	4
544.515	1	12
545.705	1	7
546.896	1	9
548.086	1	8
549.276	1	6
550.466	1	12
551.656	1	18
552.846	1	9
554.036	1	14
555.226	1	4
556.416	1	6
557.606	1	14
558.796	1	7
559.986	1	4
561.175	1	9
562.365	1	10
563.555	1	5
564.744	1	13
565.934	1	13
567.123	1	9
568.313	1	15
569.502	1	16
570.692	1	15
571.881	1	23
573.070	1	7
574.260	1	16
575.449	1	5
576.638	1	8
577.827	1	0
579.016	1	24
580.205	1	7
581.394	1	8
582.583	1	21
583.772	1	17
584.961	1	10
586.150	1	6
587.339	1	8
588.528	1	13
589.717	1	6
590.905	1	5
592.094	1	7
593.283	1	15
594.471	1	15
595.660	1	4
596.848	1	8
598.037	1	9
599.225	1	2
600.413	1	17
601.602	1	17
602.790	1	10
603.978	1	5
605.166	1	8
606.355	1	13
607.543	1	0
608.731	1	6
609.919	1	13
611.107	1	5
612.295	1	-1
613.483	1	4
614.671	1	12
615.858	1	16
617.046	1	3
618.234	1	8
619.422	1	-7
620.609	1	8
621.797	1	8
622.985	1	6
624.172	1	8
625.360	1	11
626.547	1	4
627.735	1	6
628.922	1	10
630.109	1	-4
631.297	1	-3
632.484	1	1
633.671	1	2
634.858	1	3
636.045	1	8
637.232	1	4
638.419	1	5
639.606	1	5
640.793	1	21
641.980	1	17
643.167	1	1
644.354	1	3
645.541	1	2
646.728	1	12
647.914	1	-2
649.101	1	5
650.288	1	2
651.474	1	-2
652.661	1	-5
653.847	1	3
655.034	1	0
656.220	1	2
657.406	1	8
658.593	1	3
659.779	1	4
660.965	1	7
662.152	1	6
663.338	1	10
664.524	1	6
665.710	1	5
666.896	1	4
668.082	1	4
669.268	1	4
670.454	1	10
671.640	1	7
672.826	1	5
674.011	1	1
675.197	1	-2
676.383	1	11
677.569	1	-7
678.754	1	-1
679.940	1	-3
681.125	1	6
682.311	1	7
683.496	1	4
684.682	1	-8
685.867	1	2
687.053	1	11
688.238	1	-1
688.746	1	4