File: Data/GaN_200K_800ms/GaN_sample F_spot 12_UVVIS_200 K_200um_800 ms 2x2mm1_541.txt
340.368	1	3
341.565	1	-8
342.763	1	2
343.960	1	-1
345.157	1	-7
346.354	1	3
347.552	1	-5
348.749	1	-5
349.946	1	-1
351.143	1	-4
352.340	1	1
353.537	1	2
354.734	1	-4
355.931	1	11
357.127	1	-2
358.324	1	-2
359.521	1	3
360.718	1	-4
361.914	1	-1
363.111	1	-7
364.308	1	4
365.504	1	7
366.701	1	-1
367.897	1	9
369.093	1	5
370.290	1	10
371.486	1	17
372.682	1	8
373.879	1	-1
375.075	1	-5
376.271	1	0
377.467	1	6
378.663	1	-3
379.859	1	1
381.055	1	5
382.251	1	-2
383.447	1	-6
384.643	1	11
385.839	1	-4
387.035	1	-6
388.230	1	7
389.426	1	2
390.622	1	-5
391.817	1	-5
393.013	1	-1
394.208	1	-7
395.404	1	-11
396.599	1	-6
397.795	1	7
398.990	1	-7
400.186	1	0
401.381	1	-5
402.576	1	2
403.771	1	-3
404.967	1	4
406.162	1	-1
407.357	1	-2
408.552	1	-9
409.747	1	-4
410.942	1	8
412.137	1	0
413.332	1	2
414.526	1	-9
415.721	1	8
416.916	1	-7
418.111	1	0
419.305	1	0
420.500	1	-4
421.695	1	-5
422.889	1	-4
424.084	1	-1
425.278	1	-1
426.472	1	-4
427.667	1	11
428.861	1	-2
430.055	1	-3
431.250	1	-8
432.444	1	8
433.638	1	3
434.832	1	-4
436.026	1	9
437.220	1	1
438.414	1	-9
439.608	1	-6
440.802	1	-5
441.996	1	5
443.190	1	5
444.384	1	-3
445.578	1	-5
446.771	1	8
447.965	1	-1
449.159	1	-7
450.352	1	2
451.546	1	-7
452.739	1	1
453.933	1	2
455.126	1	-14
456.320	1	-5
457.513	1	8
458.706	1	2
459.899	1	-5
461.093	1	1
462.286	1	5
463.479	1	0
464.672	1	2
465.865	1	-9
467.058	1	-3
468.251	1	2
469.444	1	-7
470.637	1	0
471.830	1	-7
473.023	1	2
474.215	1	8
475.408	1	-2
476.601	1	-1
477.793	1	0
478.986	1	-6
480.179	1	1
481.371	1	-3
482.564	1	-2
483.756	1	15
484.948	1	-1
486.141	1	-10
487.333	1	3
488.525	1	-3
489.718	1	4
490.910	1	-2
492.102	1	-3
493.294	1	-3
494.486	1	10
495.678	1	-1
496.870	1	9
498.062	1	-3
499.254	1	3
500.446	1	-11
501.638	1	-3
502.829	1	-1
504.021	1	-5
505.213	1	7
506.404	1	-4
507.596	1	-5
508.788	1	16
509.979	1	-9
511.171	1	-9
512.362	1	-6
513.553	1	-10
514.745	1	3
515.936	1	-4
517.127	1	0
518.319	1	-1
519.510	1	2
520.701	1	0
521.892	1	-3
523.083	1	0
524.274	1	2
525.465	1	3
526.656	1	-4
527.847	1	-2
529.038	1	1
530.229	1	-4
531.419	1	4
532.610	1	-4
533.801	1	13
534.991	1	-1
536.182	1	3
537.373	1	1
538.563	1	10
539.754	1	1
540.944	1	-1
542.134	1	1
543.325	1	-2
544.515	1	-3
545.705	1	2
546.896	1	-6
548.086	1	6
549.276	1	-1
550.466	1	0
551.656	1	-1
552.846	1	-2
554.036	1	-5
555.226	1	-5
556.416	1	-5
557.606	1	4
558.796	1	2
559.986	1	-13
561.175	1	-1
562.365	1	-3
563.555	1	-6
564.744	1	3
565.934	1	0
567.123	1	0
568.313	1	-1
569.502	1	-15
570.692	1	-2
571.881	1	14
573.070	1	-6
574.260	1	6
575.449	1	-10
576.638	1	-3
577.827	1	-9
579.016	1	10
580.205	1	2
581.394	1	8
582.583	1	9
583.772	1	1
584.961	1	0
586.150	1	-2
587.339	1	-4
588.528	1	8
589.717	1	-3
590.905	1	2
592.094	1	-4
593.283	1	-1
594.471	1	4
595.660	1	1
596.848	1	-3
598.037	1	-1
599.225	1	-11
600.413	1	6
601.602	1	10
602.790	1	0
603.978	1	0
605.166	1	0
606.355	1	4
607.543	1	-8
608.731	1	3
609.919	1	9
611.107	1	-12
612.295	1	-10
613.483	1	1
614.671	1	10
615.858	1	7
617.046	1	0
618.234	1	1
619.422	1	-7
620.609	1	9
621.797	1	0
622.985	1	-11
624.172	1	2
625.360	1	5
626.547	1	-1
627.735	1	6
628.922	1	1
630.109	1	-11
631.297	1	-1
632.484	1	-1
633.671	1	-12
634.858	1	-4
636.045	1	5
637.232	1	0
638.419	1	-7
639.606	1	5
640.793	1	-1
641.980	1	1
643.167	1	0
644.354	1	-3
645.541	1	-7
646.728	1	-6
647.914	1	-3
649.101	1	0
650.288	1	3
651.474	1	3
652.661	1	-7
653.847	1	-2
655.034	1	6
656.220	1	-6
657.406	1	-1
658.593	1	7
659.779	1	0
660.965	1	4
662.152	1	1
663.338	1	10
664.524	1	-5
665.710	1	-2
666.896	1	-11
668.082	1	8
669.268	1	-5
670.454	1	-1
671.640	1	5
672.826	1	-4
674.011	1	2
675.197	1	-9
676.383	1	2
677.569	1	-19
678.754	1	-13
679.940	1	1
681.125	1	0
682.311	1	4
683.496	1	-2
684.682	1	-14
685.867	1	5
687.053	1	0
688.238	1	7
688.746	1	-8