File: Data/GaN_200K_800ms/GaN_sample F_spot 12_UVVIS_200 K_200um_800 ms 2x2mm1_302.txt
340.368	1	-2
341.565	1	-9
342.763	1	3
343.960	1	-8
345.157	1	-5
346.354	1	6
347.552	1	-7
348.749	1	-5
349.946	1	-6
351.143	1	-1
352.340	1	6
353.537	1	2
354.734	1	7
355.931	1	1
357.127	1	6
358.324	1	2
359.521	1	3
360.718	1	3
361.914	1	7
363.111	1	3
364.308	1	7
365.504	1	19
366.701	1	8
367.897	1	19
369.093	1	7
370.290	1	2
371.486	1	18
372.682	1	26
373.879	1	15
375.075	1	13
376.271	1	15
377.467	1	0
378.663	1	10
379.859	1	6
381.055	1	11
382.251	1	5
383.447	1	1
384.643	1	3
385.839	1	10
387.035	1	2
388.230	1	11
389.426	1	0
390.622	1	-1
391.817	1	-3
393.013	1	-1
394.208	1	-3
395.404	1	-7
396.599	1	-8
397.795	1	0
398.990	1	-4
400.186	1	4
401.381	1	-1
402.576	1	4
403.771	1	6
404.967	1	3
406.162	1	-3
407.357	1	0
408.552	1	1
409.747	1	-2
410.942	1	2
412.137	1	4
413.332	1	8
414.526	1	-4
415.721	1	4
416.916	1	-1
418.111	1	-1
419.305	1	-1
420.500	1	4
421.695	1	-1
422.889	1	-9
424.084	1	-4
425.278	1	4
426.472	1	-8
427.667	1	3
428.861	1	5
430.055	1	-3
431.250	1	-5
432.444	1	-1
433.638	1	-2
434.832	1	5
436.026	1	-1
437.220	1	2
438.414	1	-5
439.608	1	-8
440.802	1	3
441.996	1	-2
443.190	1	0
444.384	1	2
445.578	1	1
446.771	1	11
447.965	1	-5
449.159	1	-5
450.352	1	-4
451.546	1	7
452.739	1	2
453.933	1	-12
455.126	1	-5
456.320	1	-6
457.513	1	5
458.706	1	2
459.899	1	-3
461.093	1	-4
462.286	1	-5
463.479	1	0
464.672	1	0
465.865	1	4
467.058	1	-1
468.251	1	1
469.444	1	-9
470.637	1	1
471.830	1	6
473.023	1	2
474.215	1	6
475.408	1	-5
476.601	1	-2
477.793	1	4
478.986	1	-4
480.179	1	-3
481.371	1	2
482.564	1	1
483.756	1	-5
484.948	1	-11
486.141	1	-3
487.333	1	-3
488.525	1	-5
489.718	1	-2
490.910	1	1
492.102	1	9
493.294	1	-7
494.486	1	5
495.678	1	-4
496.870	1	9
498.062	1	-2
499.254	1	8
500.446	1	-11
501.638	1	-5
502.829	1	4
504.021	1	3
505.213	1	1
506.404	1	6
507.596	1	6
508.788	1	15
509.979	1	0
511.171	1	-12
512.362	1	2
513.553	1	-11
514.745	1	-1
515.936	1	6
517.127	1	-2
518.319	1	3
519.510	1	2
520.701	1	4
521.892	1	4
523.083	1	-1
524.274	1	-3
525.465	1	7
526.656	1	1
527.847	1	0
529.038	1	-6
530.229	1	-8
531.419	1	6
532.610	1	-5
533.801	1	18
534.991	1	-8
536.182	1	-3
537.373	1	2
538.563	1	6
539.754	1	8
540.944	1	-3
542.134	1	7
543.325	1	-6
544.515	1	4
545.705	1	2
546.896	1	-2
548.086	1	10
549.276	1	-3
550.466	1	4
551.656	1	1
552.846	1	4
554.036	1	4
555.226	1	-4
556.416	1	-1
557.606	1	2
558.796	1	0
559.986	1	3
561.175	1	5
562.365	1	3
563.555	1	-4
564.744	1	0
565.934	1	2
567.123	1	0
568.313	1	-4
569.502	1	1
570.692	1	3
571.881	1	7
573.070	1	3
574.260	1	6
575.449	1	-5
576.638	1	1
577.827	1	5
579.016	1	3
580.205	1	3
581.394	1	1
582.583	1	6
583.772	1	2
584.961	1	5
586.150	1	-7
587.339	1	8
588.528	1	9
589.717	1	2
590.905	1	3
592.094	1	-8
593.283	1	-4
594.471	1	11
595.660	1	-2
596.848	1	1
598.037	1	-1
599.225	1	-6
600.413	1	17
601.602	1	14
602.790	1	0
603.978	1	8
605.166	1	2
606.355	1	2
607.543	1	0
608.731	1	1
609.919	1	10
611.107	1	4
612.295	1	-4
613.483	1	-2
614.671	1	1
615.858	1	-4
617.046	1	3
618.234	1	5
619.422	1	-14
620.609	1	8
621.797	1	-4
622.985	1	3
624.172	1	6
625.360	1	1
626.547	1	5
627.735	1	1
628.922	1	1
630.109	1	-6
631.297	1	-2
632.484	1	-3
633.671	1	-7
634.858	1	-6
636.045	1	6
637.232	1	-5
638.419	1	1
639.606	1	7
640.793	1	8
641.980	1	8
643.167	1	-11
644.354	1	-1
645.541	1	-7
646.728	1	5
647.914	1	-4
649.101	1	-3
650.288	1	-2
651.474	1	-3
652.661	1	-3
653.847	1	6
655.034	1	-6
656.220	1	-3
657.406	1	6
658.593	1	5
659.779	1	-1
660.965	1	7
662.152	1	7
663.338	1	2
664.524	1	-1
665.710	1	1
666.896	1	0
668.082	1	-2
669.268	1	-4
670.454	1	7
671.640	1	-5
672.826	1	2
674.011	1	5
675.197	1	-10
676.383	1	1
677.569	1	-4
678.754	1	-5
679.940	1	-6
681.125	1	2
682.311	1	9
683.496	1	5
684.682	1	-8
685.867	1	-2
687.053	1	-3
688.238	1	6
688.746	1	-9