File: Data/GaN_200K_800ms/GaN_sample F_spot 12_UVVIS_200 K_200um_800 ms 2x2mm1_293.txt
340.368	1	1
341.565	1	-5
342.763	1	5
343.960	1	2
345.157	1	7
346.354	1	-5
347.552	1	0
348.749	1	-3
349.946	1	-4
351.143	1	-4
352.340	1	2
353.537	1	-4
354.734	1	8
355.931	1	-1
357.127	1	-6
358.324	1	4
359.521	1	5
360.718	1	-2
361.914	1	0
363.111	1	15
364.308	1	9
365.504	1	17
366.701	1	11
367.897	1	11
369.093	1	15
370.290	1	10
371.486	1	21
372.682	1	18
373.879	1	11
375.075	1	4
376.271	1	15
377.467	1	8
378.663	1	5
379.859	1	-2
381.055	1	7
382.251	1	2
383.447	1	3
384.643	1	6
385.839	1	0
387.035	1	5
388.230	1	6
389.426	1	3
390.622	1	-6
391.817	1	2
393.013	1	-3
394.208	1	7
395.404	1	-2
396.599	1	-5
397.795	1	2
398.990	1	0
400.186	1	1
401.381	1	2
402.576	1	3
403.771	1	1
404.967	1	-3
406.162	1	6
407.357	1	-9
408.552	1	-6
409.747	1	-3
410.942	1	12
412.137	1	0
413.332	1	-7
414.526	1	-7
415.721	1	1
416.916	1	-5
418.111	1	4
419.305	1	3
420.500	1	-7
421.695	1	3
422.889	1	-10
424.084	1	5
425.278	1	11
426.472	1	-3
427.667	1	2
428.861	1	-4
430.055	1	0
431.250	1	-6
432.444	1	0
433.638	1	-9
434.832	1	5
436.026	1	6
437.220	1	6
438.414	1	-1
439.608	1	-7
440.802	1	3
441.996	1	5
443.190	1	4
444.384	1	1
445.578	1	-8
446.771	1	11
447.965	1	-4
449.159	1	-8
450.352	1	-6
451.546	1	-6
452.739	1	10
453.933	1	0
455.126	1	-13
456.320	1	-5
457.513	1	5
458.706	1	-4
459.899	1	-4
461.093	1	2
462.286	1	-3
463.479	1	-2
464.672	1	-6
465.865	1	-2
467.058	1	-6
468.251	1	1
469.444	1	-11
470.637	1	1
471.830	1	-1
473.023	1	7
474.215	1	-1
475.408	1	-2
476.601	1	5
477.793	1	0
478.986	1	-1
480.179	1	-6
481.371	1	12
482.564	1	3
483.756	1	8
484.948	1	-4
486.141	1	3
487.333	1	3
488.525	1	-4
489.718	1	5
490.910	1	2
492.102	1	0
493.294	1	3
494.486	1	11
495.678	1	7
496.870	1	1
498.062	1	4
499.254	1	-3
500.446	1	-2
501.638	1	-9
502.829	1	-7
504.021	1	2
505.213	1	4
506.404	1	5
507.596	1	-1
508.788	1	2
509.979	1	-1
511.171	1	-11
512.362	1	-7
513.553	1	-5
514.745	1	-1
515.936	1	2
517.127	1	-6
518.319	1	-6
519.510	1	2
520.701	1	6
521.892	1	0
523.083	1	1
524.274	1	-7
525.465	1	8
526.656	1	-2
527.847	1	-2
529.038	1	-3
530.229	1	2
531.419	1	6
532.610	1	-7
533.801	1	16
534.991	1	10
536.182	1	6
537.373	1	1
538.563	1	10
539.754	1	5
540.944	1	-8
542.134	1	4
543.325	1	-3
544.515	1	1
545.705	1	-2
546.896	1	7
548.086	1	1
549.276	1	-4
550.466	1	3
551.656	1	4
552.846	1	6
554.036	1	10
555.226	1	-2
556.416	1	-9
557.606	1	1
558.796	1	-3
559.986	1	-6
561.175	1	2
562.365	1	3
563.555	1	6
564.744	1	8
565.934	1	4
567.123	1	-2
568.313	1	10
569.502	1	3
570.692	1	0
571.881	1	10
573.070	1	1
574.260	1	9
575.449	1	3
576.638	1	1
577.827	1	0
579.016	1	3
580.205	1	0
581.394	1	1
582.583	1	9
583.772	1	6
584.961	1	3
586.150	1	3
587.339	1	-2
588.528	1	-2
589.717	1	-3
590.905	1	0
592.094	1	5
593.283	1	1
594.471	1	19
595.660	1	2
596.848	1	-4
598.037	1	0
599.225	1	-8
600.413	1	8
601.602	1	2
602.790	1	-3
603.978	1	0
605.166	1	9
606.355	1	5
607.543	1	-7
608.731	1	4
609.919	1	7
611.107	1	2
612.295	1	-3
613.483	1	6
614.671	1	3
615.858	1	2
617.046	1	4
618.234	1	-1
619.422	1	7
620.609	1	3
621.797	1	-2
622.985	1	7
624.172	1	6
625.360	1	5
626.547	1	-2
627.735	1	8
628.922	1	3
630.109	1	-8
631.297	1	-7
632.484	1	-4
633.671	1	1
634.858	1	5
636.045	1	11
637.232	1	-6
638.419	1	-1
639.606	1	5
640.793	1	1
641.980	1	6
643.167	1	-1
644.354	1	2
645.541	1	4
646.728	1	0
647.914	1	-7
649.101	1	-2
650.288	1	-7
651.474	1	-7
652.661	1	-1
653.847	1	5
655.034	1	8
656.220	1	-4
657.406	1	2
658.593	1	-4
659.779	1	7
660.965	1	7
662.152	1	7
663.338	1	3
664.524	1	6
665.710	1	1
666.896	1	-9
668.082	1	-4
669.268	1	-1
670.454	1	3
671.640	1	5
672.826	1	0
674.011	1	-4
675.197	1	-11
676.383	1	1
677.569	1	-2
678.754	1	-6
679.940	1	6
681.125	1	2
682.311	1	6
683.496	1	-2
684.682	1	-5
685.867	1	-3
687.053	1	4
688.238	1	2
688.746	1	-7