File: Data/GaN_200K_800ms/GaN_sample F_spot 12_UVVIS_200 K_200um_800 ms 2x2mm1_64.txt
340.368	1	6
341.565	1	-11
342.763	1	6
343.960	1	2
345.157	1	3
346.354	1	14
347.552	1	2
348.749	1	-3
349.946	1	0
351.143	1	3
352.340	1	8
353.537	1	12
354.734	1	20
355.931	1	15
357.127	1	17
358.324	1	29
359.521	1	36
360.718	1	44
361.914	1	57
363.111	1	63
364.308	1	102
365.504	1	141
366.701	1	182
367.897	1	226
369.093	1	239
370.290	1	243
371.486	1	234
372.682	1	198
373.879	1	158
375.075	1	138
376.271	1	103
377.467	1	99
378.663	1	81
379.859	1	74
381.055	1	70
382.251	1	49
383.447	1	52
384.643	1	55
385.839	1	37
387.035	1	36
388.230	1	40
389.426	1	14
390.622	1	17
391.817	1	23
393.013	1	18
394.208	1	19
395.404	1	5
396.599	1	10
397.795	1	12
398.990	1	18
400.186	1	9
401.381	1	6
402.576	1	5
403.771	1	12
404.967	1	7
406.162	1	19
407.357	1	3
408.552	1	1
409.747	1	7
410.942	1	14
412.137	1	8
413.332	1	3
414.526	1	1
415.721	1	5
416.916	1	-2
418.111	1	13
419.305	1	7
420.500	1	5
421.695	1	1
422.889	1	-4
424.084	1	3
425.278	1	12
426.472	1	7
427.667	1	11
428.861	1	6
430.055	1	1
431.250	1	5
432.444	1	3
433.638	1	1
434.832	1	10
436.026	1	20
437.220	1	9
438.414	1	-11
439.608	1	-8
440.802	1	-1
441.996	1	9
443.190	1	4
444.384	1	-4
445.578	1	1
446.771	1	11
447.965	1	10
449.159	1	2
450.352	1	1
451.546	1	0
452.739	1	1
453.933	1	-2
455.126	1	-3
456.320	1	-8
457.513	1	16
458.706	1	7
459.899	1	8
461.093	1	2
462.286	1	-5
463.479	1	1
464.672	1	-4
465.865	1	-1
467.058	1	3
468.251	1	3
469.444	1	0
470.637	1	1
471.830	1	5
473.023	1	9
474.215	1	13
475.408	1	3
476.601	1	-1
477.793	1	9
478.986	1	2
480.179	1	11
481.371	1	5
482.564	1	7
483.756	1	12
484.948	1	1
486.141	1	-1
487.333	1	3
488.525	1	11
489.718	1	10
490.910	1	6
492.102	1	0
493.294	1	-3
494.486	1	16
495.678	1	9
496.870	1	6
498.062	1	10
499.254	1	9
500.446	1	4
501.638	1	12
502.829	1	4
504.021	1	11
505.213	1	10
506.404	1	12
507.596	1	5
508.788	1	28
509.979	1	7
511.171	1	17
512.362	1	1
513.553	1	4
514.745	1	8
515.936	1	17
517.127	1	20
518.319	1	12
519.510	1	19
520.701	1	14
521.892	1	20
523.083	1	14
524.274	1	21
525.465	1	10
526.656	1	15
527.847	1	26
529.038	1	20
530.229	1	24
531.419	1	23
532.610	1	13
533.801	1	26
534.991	1	20
536.182	1	9
537.373	1	24
538.563	1	22
539.754	1	20
540.944	1	16
542.134	1	22
543.325	1	20
544.515	1	23
545.705	1	22
546.896	1	20
548.086	1	27
549.276	1	26
550.466	1	26
551.656	1	28
552.846	1	36
554.036	1	26
555.226	1	21
556.416	1	24
557.606	1	12
558.796	1	26
559.986	1	17
561.175	1	27
562.365	1	24
563.555	1	20
564.744	1	23
565.934	1	21
567.123	1	28
568.313	1	23
569.502	1	21
570.692	1	27
571.881	1	34
573.070	1	22
574.260	1	24
575.449	1	22
576.638	1	8
577.827	1	18
579.016	1	33
580.205	1	16
581.394	1	27
582.583	1	27
583.772	1	25
584.961	1	21
586.150	1	16
587.339	1	28
588.528	1	33
589.717	1	18
590.905	1	10
592.094	1	17
593.283	1	17
594.471	1	17
595.660	1	25
596.848	1	18
598.037	1	9
599.225	1	7
600.413	1	23
601.602	1	21
602.790	1	21
603.978	1	17
605.166	1	18
606.355	1	23
607.543	1	16
608.731	1	15
609.919	1	23
611.107	1	11
612.295	1	9
613.483	1	20
614.671	1	15
615.858	1	18
617.046	1	22
618.234	1	10
619.422	1	2
620.609	1	25
621.797	1	5
622.985	1	21
624.172	1	9
625.360	1	15
626.547	1	12
627.735	1	13
628.922	1	18
630.109	1	6
631.297	1	14
632.484	1	6
633.671	1	6
634.858	1	10
636.045	1	19
637.232	1	2
638.419	1	3
639.606	1	11
640.793	1	12
641.980	1	12
643.167	1	12
644.354	1	16
645.541	1	12
646.728	1	13
647.914	1	1
649.101	1	5
650.288	1	14
651.474	1	9
652.661	1	7
653.847	1	11
655.034	1	12
656.220	1	-5
657.406	1	17
658.593	1	12
659.779	1	12
660.965	1	21
662.152	1	8
663.338	1	9
664.524	1	7
665.710	1	7
666.896	1	2
668.082	1	12
669.268	1	9
670.454	1	11
671.640	1	6
672.826	1	7
674.011	1	5
675.197	1	15
676.383	1	6
677.569	1	5
678.754	1	13
679.940	1	6
681.125	1	15
682.311	1	16
683.496	1	6
684.682	1	1
685.867	1	1
687.053	1	8
688.238	1	14
688.746	1	9