File: Data/GaN_200K_800ms/GaN_sample F_spot 12_UVVIS_200 K_200um_800 ms 2x2mm1_112.txt
340.368	1	4
341.565	1	-12
342.763	1	6
343.960	1	2
345.157	1	-5
346.354	1	3
347.552	1	-1
348.749	1	3
349.946	1	-10
351.143	1	9
352.340	1	0
353.537	1	-3
354.734	1	16
355.931	1	4
357.127	1	8
358.324	1	7
359.521	1	22
360.718	1	15
361.914	1	23
363.111	1	22
364.308	1	51
365.504	1	50
366.701	1	52
367.897	1	72
369.093	1	85
370.290	1	71
371.486	1	86
372.682	1	67
373.879	1	55
375.075	1	27
376.271	1	51
377.467	1	41
378.663	1	21
379.859	1	36
381.055	1	27
382.251	1	18
383.447	1	16
384.643	1	16
385.839	1	15
387.035	1	14
388.230	1	22
389.426	1	8
390.622	1	6
391.817	1	15
393.013	1	3
394.208	1	12
395.404	1	8
396.599	1	7
397.795	1	4
398.990	1	12
400.186	1	8
401.381	1	4
402.576	1	0
403.771	1	2
404.967	1	9
406.162	1	7
407.357	1	1
408.552	1	4
409.747	1	2
410.942	1	15
412.137	1	10
413.332	1	12
414.526	1	0
415.721	1	10
416.916	1	4
418.111	1	0
419.305	1	7
420.500	1	-2
421.695	1	0
422.889	1	-12
424.084	1	3
425.278	1	12
426.472	1	-10
427.667	1	15
428.861	1	5
430.055	1	3
431.250	1	-1
432.444	1	6
433.638	1	3
434.832	1	3
436.026	1	7
437.220	1	5
438.414	1	-10
439.608	1	-11
440.802	1	-3
441.996	1	4
443.190	1	4
444.384	1	-7
445.578	1	-9
446.771	1	12
447.965	1	1
449.159	1	-5
450.352	1	0
451.546	1	-3
452.739	1	3
453.933	1	-1
455.126	1	-11
456.320	1	-1
457.513	1	7
458.706	1	7
459.899	1	5
461.093	1	1
462.286	1	2
463.479	1	-2
464.672	1	-3
465.865	1	-5
467.058	1	2
468.251	1	5
469.444	1	-8
470.637	1	3
471.830	1	-7
473.023	1	-1
474.215	1	7
475.408	1	3
476.601	1	-5
477.793	1	0
478.986	1	3
480.179	1	1
481.371	1	9
482.564	1	1
483.756	1	6
484.948	1	-7
486.141	1	-6
487.333	1	5
488.525	1	7
489.718	1	4
490.910	1	5
492.102	1	-1
493.294	1	-1
494.486	1	12
495.678	1	10
496.870	1	2
498.062	1	3
499.254	1	-1
500.446	1	-3
501.638	1	1
502.829	1	-4
504.021	1	5
505.213	1	11
506.404	1	0
507.596	1	-2
508.788	1	19
509.979	1	3
511.171	1	-2
512.362	1	-6
513.553	1	1
514.745	1	1
515.936	1	8
517.127	1	5
518.319	1	3
519.510	1	1
520.701	1	7
521.892	1	8
523.083	1	4
524.274	1	14
525.465	1	2
526.656	1	0
527.847	1	20
529.038	1	7
530.229	1	13
531.419	1	15
532.610	1	-1
533.801	1	16
534.991	1	5
536.182	1	0
537.373	1	8
538.563	1	9
539.754	1	6
540.944	1	-1
542.134	1	12
543.325	1	5
544.515	1	1
545.705	1	8
546.896	1	7
548.086	1	12
549.276	1	3
550.466	1	12
551.656	1	17
552.846	1	11
554.036	1	-1
555.226	1	9
556.416	1	6
557.606	1	13
558.796	1	3
559.986	1	9
561.175	1	7
562.365	1	11
563.555	1	5
564.744	1	7
565.934	1	14
567.123	1	16
568.313	1	17
569.502	1	10
570.692	1	9
571.881	1	11
573.070	1	14
574.260	1	12
575.449	1	4
576.638	1	-2
577.827	1	2
579.016	1	19
580.205	1	5
581.394	1	-4
582.583	1	30
583.772	1	7
584.961	1	6
586.150	1	8
587.339	1	9
588.528	1	9
589.717	1	12
590.905	1	9
592.094	1	4
593.283	1	6
594.471	1	14
595.660	1	3
596.848	1	5
598.037	1	3
599.225	1	1
600.413	1	11
601.602	1	16
602.790	1	8
603.978	1	6
605.166	1	16
606.355	1	12
607.543	1	7
608.731	1	4
609.919	1	17
611.107	1	6
612.295	1	5
613.483	1	14
614.671	1	6
615.858	1	9
617.046	1	6
618.234	1	1
619.422	1	-6
620.609	1	10
621.797	1	2
622.985	1	0
624.172	1	1
625.360	1	6
626.547	1	10
627.735	1	8
628.922	1	19
630.109	1	0
631.297	1	1
632.484	1	5
633.671	1	0
634.858	1	-7
636.045	1	19
637.232	1	0
638.419	1	8
639.606	1	3
640.793	1	13
641.980	1	9
643.167	1	-8
644.354	1	6
645.541	1	1
646.728	1	6
647.914	1	-9
649.101	1	-6
650.288	1	7
651.474	1	-4
652.661	1	4
653.847	1	7
655.034	1	14
656.220	1	7
657.406	1	3
658.593	1	1
659.779	1	9
660.965	1	3
662.152	1	11
663.338	1	16
664.524	1	14
665.710	1	3
666.896	1	-3
668.082	1	8
669.268	1	-3
670.454	1	0
671.640	1	3
672.826	1	2
674.011	1	5
675.197	1	-1
676.383	1	-2
677.569	1	1
678.754	1	0
679.940	1	-11
681.125	1	6
682.311	1	7
683.496	1	10
684.682	1	-4
685.867	1	1
687.053	1	4
688.238	1	11
688.746	1	0