File: Data/GaN_200K_800ms/GaN_sample F_spot 12_UVVIS_200 K_200um_800 ms 2x2mm1_211.txt
340.368	1	7
341.565	1	-3
342.763	1	3
343.960	1	2
345.157	1	-3
346.354	1	-3
347.552	1	-5
348.749	1	-7
349.946	1	-6
351.143	1	-2
352.340	1	7
353.537	1	5
354.734	1	3
355.931	1	-3
357.127	1	7
358.324	1	6
359.521	1	15
360.718	1	7
361.914	1	6
363.111	1	7
364.308	1	9
365.504	1	28
366.701	1	13
367.897	1	21
369.093	1	32
370.290	1	36
371.486	1	35
372.682	1	26
373.879	1	20
375.075	1	6
376.271	1	10
377.467	1	12
378.663	1	2
379.859	1	10
381.055	1	22
382.251	1	-5
383.447	1	1
384.643	1	17
385.839	1	8
387.035	1	5
388.230	1	7
389.426	1	1
390.622	1	4
391.817	1	3
393.013	1	5
394.208	1	13
395.404	1	-7
396.599	1	-4
397.795	1	3
398.990	1	1
400.186	1	2
401.381	1	-3
402.576	1	-3
403.771	1	10
404.967	1	5
406.162	1	10
407.357	1	-1
408.552	1	-3
409.747	1	-2
410.942	1	8
412.137	1	4
413.332	1	1
414.526	1	-6
415.721	1	1
416.916	1	2
418.111	1	2
419.305	1	0
420.500	1	-5
421.695	1	10
422.889	1	-8
424.084	1	-5
425.278	1	14
426.472	1	1
427.667	1	6
428.861	1	0
430.055	1	5
431.250	1	-7
432.444	1	8
433.638	1	-5
434.832	1	3
436.026	1	7
437.220	1	10
438.414	1	-10
439.608	1	-8
440.802	1	-2
441.996	1	6
443.190	1	0
444.384	1	-9
445.578	1	-5
446.771	1	15
447.965	1	10
449.159	1	-10
450.352	1	-7
451.546	1	8
452.739	1	-2
453.933	1	2
455.126	1	-4
456.320	1	-1
457.513	1	3
458.706	1	-3
459.899	1	3
461.093	1	6
462.286	1	0
463.479	1	-4
464.672	1	-2
465.865	1	0
467.058	1	1
468.251	1	0
469.444	1	-4
470.637	1	3
471.830	1	3
473.023	1	7
474.215	1	12
475.408	1	-11
476.601	1	-7
477.793	1	11
478.986	1	1
480.179	1	1
481.371	1	0
482.564	1	6
483.756	1	9
484.948	1	-4
486.141	1	-3
487.333	1	2
488.525	1	2
489.718	1	-4
490.910	1	-4
492.102	1	-3
493.294	1	-4
494.486	1	5
495.678	1	-1
496.870	1	6
498.062	1	9
499.254	1	10
500.446	1	-5
501.638	1	1
502.829	1	3
504.021	1	-9
505.213	1	9
506.404	1	6
507.596	1	3
508.788	1	2
509.979	1	-1
511.171	1	-2
512.362	1	2
513.553	1	-12
514.745	1	0
515.936	1	0
517.127	1	0
518.319	1	-1
519.510	1	-2
520.701	1	5
521.892	1	4
523.083	1	0
524.274	1	1
525.465	1	8
526.656	1	5
527.847	1	4
529.038	1	0
530.229	1	4
531.419	1	1
532.610	1	0
533.801	1	9
534.991	1	10
536.182	1	-4
537.373	1	10
538.563	1	6
539.754	1	8
540.944	1	3
542.134	1	7
543.325	1	4
544.515	1	-2
545.705	1	5
546.896	1	8
548.086	1	-2
549.276	1	-7
550.466	1	7
551.656	1	10
552.846	1	1
554.036	1	-4
555.226	1	1
556.416	1	4
557.606	1	4
558.796	1	5
559.986	1	2
561.175	1	3
562.365	1	6
563.555	1	0
564.744	1	5
565.934	1	11
567.123	1	4
568.313	1	11
569.502	1	8
570.692	1	10
571.881	1	12
573.070	1	10
574.260	1	6
575.449	1	6
576.638	1	-4
577.827	1	-2
579.016	1	8
580.205	1	-4
581.394	1	-2
582.583	1	13
583.772	1	11
584.961	1	8
586.150	1	4
587.339	1	3
588.528	1	3
589.717	1	-4
590.905	1	9
592.094	1	-1
593.283	1	-1
594.471	1	12
595.660	1	-7
596.848	1	2
598.037	1	-7
599.225	1	-1
600.413	1	11
601.602	1	14
602.790	1	-8
603.978	1	8
605.166	1	8
606.355	1	-2
607.543	1	2
608.731	1	2
609.919	1	16
611.107	1	4
612.295	1	-4
613.483	1	4
614.671	1	4
615.858	1	10
617.046	1	-2
618.234	1	1
619.422	1	-8
620.609	1	5
621.797	1	-1
622.985	1	0
624.172	1	5
625.360	1	6
626.547	1	3
627.735	1	3
628.922	1	3
630.109	1	-6
631.297	1	-3
632.484	1	1
633.671	1	1
634.858	1	6
636.045	1	10
637.232	1	-2
638.419	1	4
639.606	1	-1
640.793	1	7
641.980	1	14
643.167	1	0
644.354	1	1
645.541	1	1
646.728	1	4
647.914	1	-3
649.101	1	-4
650.288	1	5
651.474	1	2
652.661	1	-2
653.847	1	15
655.034	1	5
656.220	1	1
657.406	1	3
658.593	1	8
659.779	1	1
660.965	1	8
662.152	1	0
663.338	1	6
664.524	1	4
665.710	1	5
666.896	1	-3
668.082	1	2
669.268	1	-1
670.454	1	7
671.640	1	5
672.826	1	-2
674.011	1	-3
675.197	1	-7
676.383	1	1
677.569	1	-2
678.754	1	-1
679.940	1	-1
681.125	1	7
682.311	1	2
683.496	1	4
684.682	1	-8
685.867	1	3
687.053	1	6
688.238	1	1
688.746	1	2