File: Data/GaN_200K_800ms/GaN_sample F_spot 12_UVVIS_200 K_200um_800 ms 2x2mm1_404.txt
340.368	1	2
341.565	1	-12
342.763	1	1
343.960	1	15
345.157	1	-8
346.354	1	-3
347.552	1	-11
348.749	1	-13
349.946	1	-4
351.143	1	2
352.340	1	1
353.537	1	-1
354.734	1	0
355.931	1	-8
357.127	1	3
358.324	1	6
359.521	1	4
360.718	1	4
361.914	1	1
363.111	1	1
364.308	1	9
365.504	1	14
366.701	1	0
367.897	1	12
369.093	1	13
370.290	1	15
371.486	1	9
372.682	1	-1
373.879	1	9
375.075	1	7
376.271	1	11
377.467	1	-4
378.663	1	0
379.859	1	-2
381.055	1	10
382.251	1	-3
383.447	1	-4
384.643	1	4
385.839	1	4
387.035	1	-2
388.230	1	11
389.426	1	-1
390.622	1	-6
391.817	1	-5
393.013	1	-2
394.208	1	3
395.404	1	-9
396.599	1	0
397.795	1	3
398.990	1	2
400.186	1	3
401.381	1	-5
402.576	1	-5
403.771	1	3
404.967	1	0
406.162	1	1
407.357	1	-3
408.552	1	3
409.747	1	-3
410.942	1	6
412.137	1	1
413.332	1	-4
414.526	1	1
415.721	1	-1
416.916	1	-5
418.111	1	8
419.305	1	0
420.500	1	-7
421.695	1	-3
422.889	1	-8
424.084	1	4
425.278	1	10
426.472	1	-2
427.667	1	5
428.861	1	-6
430.055	1	-3
431.250	1	-7
432.444	1	-3
433.638	1	-2
434.832	1	0
436.026	1	5
437.220	1	-3
438.414	1	-15
439.608	1	-9
440.802	1	3
441.996	1	8
443.190	1	-1
444.384	1	-10
445.578	1	-10
446.771	1	3
447.965	1	-2
449.159	1	-4
450.352	1	-2
451.546	1	1
452.739	1	4
453.933	1	-2
455.126	1	-3
456.320	1	-9
457.513	1	-3
458.706	1	-3
459.899	1	4
461.093	1	-6
462.286	1	4
463.479	1	-7
464.672	1	-3
465.865	1	-4
467.058	1	-2
468.251	1	-7
469.444	1	-4
470.637	1	2
471.830	1	-10
473.023	1	3
474.215	1	9
475.408	1	-1
476.601	1	-3
477.793	1	-2
478.986	1	1
480.179	1	1
481.371	1	0
482.564	1	5
483.756	1	10
484.948	1	-3
486.141	1	-8
487.333	1	-6
488.525	1	-4
489.718	1	-5
490.910	1	-2
492.102	1	-7
493.294	1	-5
494.486	1	7
495.678	1	-4
496.870	1	6
498.062	1	-1
499.254	1	6
500.446	1	-8
501.638	1	3
502.829	1	0
504.021	1	-7
505.213	1	11
506.404	1	6
507.596	1	3
508.788	1	19
509.979	1	-5
511.171	1	-1
512.362	1	-7
513.553	1	-10
514.745	1	-4
515.936	1	-9
517.127	1	-3
518.319	1	2
519.510	1	-6
520.701	1	0
521.892	1	-4
523.083	1	-3
524.274	1	0
525.465	1	9
526.656	1	3
527.847	1	1
529.038	1	-4
530.229	1	2
531.419	1	-1
532.610	1	-4
533.801	1	12
534.991	1	1
536.182	1	-8
537.373	1	1
538.563	1	3
539.754	1	-1
540.944	1	-7
542.134	1	7
543.325	1	-8
544.515	1	-4
545.705	1	-6
546.896	1	-4
548.086	1	0
549.276	1	-6
550.466	1	-1
551.656	1	2
552.846	1	3
554.036	1	-1
555.226	1	-6
556.416	1	-8
557.606	1	8
558.796	1	12
559.986	1	0
561.175	1	10
562.365	1	9
563.555	1	3
564.744	1	0
565.934	1	5
567.123	1	3
568.313	1	7
569.502	1	1
570.692	1	13
571.881	1	4
573.070	1	0
574.260	1	1
575.449	1	-6
576.638	1	-4
577.827	1	-8
579.016	1	9
580.205	1	1
581.394	1	-8
582.583	1	7
583.772	1	10
584.961	1	-5
586.150	1	0
587.339	1	-7
588.528	1	1
589.717	1	1
590.905	1	-8
592.094	1	2
593.283	1	3
594.471	1	4
595.660	1	1
596.848	1	2
598.037	1	0
599.225	1	-10
600.413	1	6
601.602	1	15
602.790	1	2
603.978	1	-6
605.166	1	1
606.355	1	4
607.543	1	-3
608.731	1	6
609.919	1	10
611.107	1	-7
612.295	1	-7
613.483	1	7
614.671	1	6
615.858	1	1
617.046	1	1
618.234	1	-2
619.422	1	-17
620.609	1	12
621.797	1	-3
622.985	1	7
624.172	1	-4
625.360	1	-1
626.547	1	-3
627.735	1	-2
628.922	1	5
630.109	1	-11
631.297	1	3
632.484	1	-5
633.671	1	0
634.858	1	-6
636.045	1	13
637.232	1	-5
638.419	1	-11
639.606	1	2
640.793	1	7
641.980	1	3
643.167	1	-5
644.354	1	-4
645.541	1	1
646.728	1	0
647.914	1	-3
649.101	1	-2
650.288	1	10
651.474	1	-2
652.661	1	-8
653.847	1	6
655.034	1	-2
656.220	1	-3
657.406	1	0
658.593	1	3
659.779	1	5
660.965	1	-3
662.152	1	-3
663.338	1	6
664.524	1	-5
665.710	1	8
666.896	1	-1
668.082	1	9
669.268	1	-3
670.454	1	-1
671.640	1	0
672.826	1	-2
674.011	1	-3
675.197	1	-11
676.383	1	0
677.569	1	-9
678.754	1	-3
679.940	1	0
681.125	1	5
682.311	1	2
683.496	1	9
684.682	1	-11
685.867	1	1
687.053	1	3
688.238	1	0
688.746	1	-6