File: Data/GaN_200K_800ms/GaN_sample F_spot 12_UVVIS_200 K_200um_800 ms 2x2mm1_192.txt
340.368	1	-4
341.565	1	-2
342.763	1	8
343.960	1	7
345.157	1	3
346.354	1	9
347.552	1	-5
348.749	1	-5
349.946	1	5
351.143	1	-6
352.340	1	8
353.537	1	-1
354.734	1	7
355.931	1	8
357.127	1	6
358.324	1	8
359.521	1	17
360.718	1	4
361.914	1	11
363.111	1	5
364.308	1	7
365.504	1	23
366.701	1	27
367.897	1	39
369.093	1	34
370.290	1	27
371.486	1	34
372.682	1	37
373.879	1	30
375.075	1	19
376.271	1	29
377.467	1	16
378.663	1	10
379.859	1	6
381.055	1	18
382.251	1	7
383.447	1	1
384.643	1	20
385.839	1	9
387.035	1	13
388.230	1	12
389.426	1	7
390.622	1	0
391.817	1	5
393.013	1	0
394.208	1	3
395.404	1	-2
396.599	1	-1
397.795	1	5
398.990	1	-2
400.186	1	-2
401.381	1	-6
402.576	1	-3
403.771	1	-2
404.967	1	2
406.162	1	5
407.357	1	-1
408.552	1	4
409.747	1	1
410.942	1	10
412.137	1	5
413.332	1	5
414.526	1	-8
415.721	1	-1
416.916	1	-4
418.111	1	-2
419.305	1	-5
420.500	1	-2
421.695	1	5
422.889	1	-9
424.084	1	-3
425.278	1	5
426.472	1	0
427.667	1	10
428.861	1	-2
430.055	1	2
431.250	1	3
432.444	1	13
433.638	1	1
434.832	1	5
436.026	1	11
437.220	1	3
438.414	1	-9
439.608	1	-3
440.802	1	1
441.996	1	9
443.190	1	-2
444.384	1	-7
445.578	1	-6
446.771	1	13
447.965	1	1
449.159	1	-6
450.352	1	2
451.546	1	0
452.739	1	-1
453.933	1	7
455.126	1	-8
456.320	1	-5
457.513	1	1
458.706	1	1
459.899	1	3
461.093	1	-6
462.286	1	-7
463.479	1	-2
464.672	1	2
465.865	1	-4
467.058	1	-6
468.251	1	0
469.444	1	-9
470.637	1	5
471.830	1	3
473.023	1	2
474.215	1	10
475.408	1	1
476.601	1	0
477.793	1	-7
478.986	1	-4
480.179	1	5
481.371	1	0
482.564	1	10
483.756	1	6
484.948	1	-9
486.141	1	-1
487.333	1	-2
488.525	1	-6
489.718	1	6
490.910	1	6
492.102	1	4
493.294	1	1
494.486	1	5
495.678	1	0
496.870	1	7
498.062	1	-6
499.254	1	3
500.446	1	-9
501.638	1	-1
502.829	1	-2
504.021	1	-3
505.213	1	11
506.404	1	8
507.596	1	3
508.788	1	10
509.979	1	7
511.171	1	-5
512.362	1	-6
513.553	1	-7
514.745	1	-1
515.936	1	-3
517.127	1	-4
518.319	1	6
519.510	1	6
520.701	1	4
521.892	1	6
523.083	1	5
524.274	1	-1
525.465	1	22
526.656	1	-3
527.847	1	2
529.038	1	-1
530.229	1	5
531.419	1	1
532.610	1	-5
533.801	1	15
534.991	1	4
536.182	1	0
537.373	1	12
538.563	1	-2
539.754	1	3
540.944	1	-7
542.134	1	8
543.325	1	2
544.515	1	1
545.705	1	5
546.896	1	-4
548.086	1	12
549.276	1	-1
550.466	1	-1
551.656	1	13
552.846	1	8
554.036	1	3
555.226	1	-8
556.416	1	3
557.606	1	11
558.796	1	5
559.986	1	-3
561.175	1	-1
562.365	1	-1
563.555	1	-1
564.744	1	4
565.934	1	10
567.123	1	-2
568.313	1	10
569.502	1	2
570.692	1	13
571.881	1	13
573.070	1	4
574.260	1	9
575.449	1	-16
576.638	1	1
577.827	1	-3
579.016	1	3
580.205	1	5
581.394	1	6
582.583	1	11
583.772	1	7
584.961	1	5
586.150	1	0
587.339	1	6
588.528	1	8
589.717	1	2
590.905	1	2
592.094	1	7
593.283	1	0
594.471	1	-1
595.660	1	7
596.848	1	3
598.037	1	0
599.225	1	-5
600.413	1	2
601.602	1	14
602.790	1	-2
603.978	1	3
605.166	1	2
606.355	1	3
607.543	1	1
608.731	1	2
609.919	1	17
611.107	1	-2
612.295	1	-3
613.483	1	7
614.671	1	6
615.858	1	5
617.046	1	-5
618.234	1	0
619.422	1	-6
620.609	1	9
621.797	1	-3
622.985	1	0
624.172	1	1
625.360	1	4
626.547	1	2
627.735	1	3
628.922	1	6
630.109	1	-6
631.297	1	-3
632.484	1	2
633.671	1	5
634.858	1	-3
636.045	1	23
637.232	1	-2
638.419	1	-14
639.606	1	5
640.793	1	9
641.980	1	4
643.167	1	-2
644.354	1	4
645.541	1	1
646.728	1	6
647.914	1	2
649.101	1	-4
650.288	1	9
651.474	1	3
652.661	1	-9
653.847	1	14
655.034	1	5
656.220	1	0
657.406	1	7
658.593	1	3
659.779	1	-2
660.965	1	-1
662.152	1	11
663.338	1	3
664.524	1	1
665.710	1	6
666.896	1	-8
668.082	1	10
669.268	1	2
670.454	1	-1
671.640	1	1
672.826	1	2
674.011	1	1
675.197	1	-8
676.383	1	8
677.569	1	-3
678.754	1	-5
679.940	1	1
681.125	1	0
682.311	1	2
683.496	1	-8
684.682	1	-3
685.867	1	-3
687.053	1	4
688.238	1	5
688.746	1	5