File: Data/GaN_200K_800ms/GaN_sample F_spot 12_UVVIS_200 K_200um_800 ms 2x2mm1_78.txt
340.368	1	0
341.565	1	-12
342.763	1	13
343.960	1	3
345.157	1	-6
346.354	1	7
347.552	1	-5
348.749	1	3
349.946	1	2
351.143	1	5
352.340	1	14
353.537	1	16
354.734	1	14
355.931	1	10
357.127	1	14
358.324	1	19
359.521	1	33
360.718	1	29
361.914	1	45
363.111	1	53
364.308	1	66
365.504	1	90
366.701	1	102
367.897	1	147
369.093	1	150
370.290	1	145
371.486	1	145
372.682	1	121
373.879	1	102
375.075	1	88
376.271	1	88
377.467	1	83
378.663	1	55
379.859	1	43
381.055	1	50
382.251	1	32
383.447	1	33
384.643	1	39
385.839	1	26
387.035	1	24
388.230	1	25
389.426	1	24
390.622	1	17
391.817	1	13
393.013	1	13
394.208	1	11
395.404	1	7
396.599	1	4
397.795	1	7
398.990	1	11
400.186	1	-1
401.381	1	-8
402.576	1	9
403.771	1	8
404.967	1	10
406.162	1	19
407.357	1	3
408.552	1	-6
409.747	1	4
410.942	1	5
412.137	1	8
413.332	1	2
414.526	1	3
415.721	1	-2
416.916	1	1
418.111	1	1
419.305	1	10
420.500	1	1
421.695	1	3
422.889	1	-2
424.084	1	3
425.278	1	16
426.472	1	-1
427.667	1	9
428.861	1	-4
430.055	1	-7
431.250	1	0
432.444	1	14
433.638	1	-2
434.832	1	4
436.026	1	9
437.220	1	8
438.414	1	-3
439.608	1	-5
440.802	1	2
441.996	1	10
443.190	1	6
444.384	1	-4
445.578	1	-7
446.771	1	11
447.965	1	7
449.159	1	0
450.352	1	-1
451.546	1	2
452.739	1	3
453.933	1	3
455.126	1	-2
456.320	1	-2
457.513	1	7
458.706	1	2
459.899	1	-2
461.093	1	1
462.286	1	3
463.479	1	-5
464.672	1	3
465.865	1	3
467.058	1	4
468.251	1	3
469.444	1	1
470.637	1	6
471.830	1	4
473.023	1	5
474.215	1	9
475.408	1	2
476.601	1	0
477.793	1	1
478.986	1	2
480.179	1	6
481.371	1	2
482.564	1	8
483.756	1	15
484.948	1	5
486.141	1	3
487.333	1	-1
488.525	1	8
489.718	1	9
490.910	1	-2
492.102	1	-10
493.294	1	8
494.486	1	4
495.678	1	0
496.870	1	2
498.062	1	6
499.254	1	2
500.446	1	2
501.638	1	3
502.829	1	13
504.021	1	9
505.213	1	9
506.404	1	12
507.596	1	10
508.788	1	23
509.979	1	12
511.171	1	10
512.362	1	6
513.553	1	1
514.745	1	3
515.936	1	7
517.127	1	8
518.319	1	9
519.510	1	5
520.701	1	18
521.892	1	13
523.083	1	9
524.274	1	2
525.465	1	19
526.656	1	9
527.847	1	18
529.038	1	17
530.229	1	13
531.419	1	20
532.610	1	5
533.801	1	24
534.991	1	7
536.182	1	14
537.373	1	13
538.563	1	14
539.754	1	21
540.944	1	13
542.134	1	15
543.325	1	14
544.515	1	21
545.705	1	8
546.896	1	18
548.086	1	16
549.276	1	11
550.466	1	21
551.656	1	23
552.846	1	28
554.036	1	15
555.226	1	5
556.416	1	6
557.606	1	15
558.796	1	16
559.986	1	12
561.175	1	24
562.365	1	17
563.555	1	9
564.744	1	21
565.934	1	21
567.123	1	13
568.313	1	23
569.502	1	21
570.692	1	23
571.881	1	31
573.070	1	11
574.260	1	26
575.449	1	18
576.638	1	12
577.827	1	8
579.016	1	21
580.205	1	10
581.394	1	3
582.583	1	26
583.772	1	15
584.961	1	11
586.150	1	11
587.339	1	15
588.528	1	20
589.717	1	15
590.905	1	12
592.094	1	4
593.283	1	6
594.471	1	18
595.660	1	8
596.848	1	8
598.037	1	17
599.225	1	2
600.413	1	17
601.602	1	23
602.790	1	17
603.978	1	11
605.166	1	12
606.355	1	15
607.543	1	4
608.731	1	12
609.919	1	9
611.107	1	9
612.295	1	1
613.483	1	11
614.671	1	13
615.858	1	10
617.046	1	11
618.234	1	15
619.422	1	-1
620.609	1	13
621.797	1	5
622.985	1	8
624.172	1	16
625.360	1	16
626.547	1	5
627.735	1	9
628.922	1	16
630.109	1	-7
631.297	1	5
632.484	1	5
633.671	1	3
634.858	1	9
636.045	1	13
637.232	1	14
638.419	1	3
639.606	1	8
640.793	1	15
641.980	1	6
643.167	1	5
644.354	1	8
645.541	1	7
646.728	1	2
647.914	1	9
649.101	1	4
650.288	1	9
651.474	1	-2
652.661	1	1
653.847	1	10
655.034	1	15
656.220	1	5
657.406	1	7
658.593	1	19
659.779	1	14
660.965	1	10
662.152	1	13
663.338	1	6
664.524	1	7
665.710	1	1
666.896	1	-5
668.082	1	10
669.268	1	10
670.454	1	12
671.640	1	5
672.826	1	3
674.011	1	13
675.197	1	5
676.383	1	8
677.569	1	5
678.754	1	4
679.940	1	4
681.125	1	3
682.311	1	14
683.496	1	10
684.682	1	-2
685.867	1	3
687.053	1	6
688.238	1	13
688.746	1	13