File: Data/GaN_200K_800ms/GaN_sample F_spot 12_UVVIS_200 K_200um_800 ms 2x2mm1_329.txt
340.368	1	6
341.565	1	-10
342.763	1	3
343.960	1	-1
345.157	1	-9
346.354	1	4
347.552	1	-7
348.749	1	-3
349.946	1	-1
351.143	1	5
352.340	1	2
353.537	1	-3
354.734	1	11
355.931	1	1
357.127	1	2
358.324	1	4
359.521	1	4
360.718	1	9
361.914	1	5
363.111	1	1
364.308	1	8
365.504	1	16
366.701	1	10
367.897	1	11
369.093	1	4
370.290	1	12
371.486	1	27
372.682	1	21
373.879	1	9
375.075	1	14
376.271	1	9
377.467	1	1
378.663	1	1
379.859	1	3
381.055	1	9
382.251	1	-10
383.447	1	-1
384.643	1	8
385.839	1	7
387.035	1	4
388.230	1	10
389.426	1	-12
390.622	1	-2
391.817	1	7
393.013	1	1
394.208	1	-6
395.404	1	-5
396.599	1	-1
397.795	1	0
398.990	1	2
400.186	1	-4
401.381	1	-7
402.576	1	-6
403.771	1	7
404.967	1	9
406.162	1	1
407.357	1	-5
408.552	1	-2
409.747	1	-3
410.942	1	3
412.137	1	2
413.332	1	2
414.526	1	-5
415.721	1	1
416.916	1	-11
418.111	1	1
419.305	1	-2
420.500	1	-6
421.695	1	8
422.889	1	-7
424.084	1	-5
425.278	1	9
426.472	1	-2
427.667	1	0
428.861	1	-4
430.055	1	-1
431.250	1	1
432.444	1	7
433.638	1	0
434.832	1	3
436.026	1	-1
437.220	1	4
438.414	1	-13
439.608	1	-12
440.802	1	0
441.996	1	1
443.190	1	-1
444.384	1	-5
445.578	1	-14
446.771	1	12
447.965	1	-9
449.159	1	-2
450.352	1	3
451.546	1	0
452.739	1	-1
453.933	1	-4
455.126	1	-8
456.320	1	0
457.513	1	1
458.706	1	1
459.899	1	1
461.093	1	-4
462.286	1	-7
463.479	1	2
464.672	1	-4
465.865	1	2
467.058	1	-3
468.251	1	-7
469.444	1	-4
470.637	1	1
471.830	1	0
473.023	1	1
474.215	1	6
475.408	1	2
476.601	1	6
477.793	1	-6
478.986	1	2
480.179	1	0
481.371	1	3
482.564	1	5
483.756	1	-8
484.948	1	-5
486.141	1	5
487.333	1	-1
488.525	1	0
489.718	1	5
490.910	1	-11
492.102	1	0
493.294	1	2
494.486	1	8
495.678	1	10
496.870	1	10
498.062	1	1
499.254	1	-3
500.446	1	-8
501.638	1	-6
502.829	1	-7
504.021	1	3
505.213	1	6
506.404	1	1
507.596	1	4
508.788	1	15
509.979	1	2
511.171	1	-7
512.362	1	-13
513.553	1	-14
514.745	1	-6
515.936	1	0
517.127	1	0
518.319	1	2
519.510	1	6
520.701	1	4
521.892	1	0
523.083	1	-11
524.274	1	-5
525.465	1	3
526.656	1	-1
527.847	1	10
529.038	1	2
530.229	1	-7
531.419	1	6
532.610	1	1
533.801	1	9
534.991	1	5
536.182	1	4
537.373	1	3
538.563	1	3
539.754	1	7
540.944	1	-11
542.134	1	6
543.325	1	-8
544.515	1	6
545.705	1	0
546.896	1	6
548.086	1	3
549.276	1	-2
550.466	1	0
551.656	1	3
552.846	1	-3
554.036	1	-3
555.226	1	0
556.416	1	-8
557.606	1	4
558.796	1	-10
559.986	1	-10
561.175	1	9
562.365	1	-5
563.555	1	-1
564.744	1	7
565.934	1	1
567.123	1	7
568.313	1	7
569.502	1	-2
570.692	1	-1
571.881	1	7
573.070	1	5
574.260	1	12
575.449	1	-8
576.638	1	0
577.827	1	0
579.016	1	12
580.205	1	7
581.394	1	4
582.583	1	13
583.772	1	11
584.961	1	5
586.150	1	5
587.339	1	7
588.528	1	6
589.717	1	2
590.905	1	4
592.094	1	3
593.283	1	-5
594.471	1	14
595.660	1	2
596.848	1	-1
598.037	1	-2
599.225	1	-10
600.413	1	6
601.602	1	1
602.790	1	-3
603.978	1	1
605.166	1	4
606.355	1	2
607.543	1	-3
608.731	1	7
609.919	1	10
611.107	1	-5
612.295	1	-8
613.483	1	6
614.671	1	0
615.858	1	1
617.046	1	6
618.234	1	-1
619.422	1	-10
620.609	1	2
621.797	1	-1
622.985	1	6
624.172	1	-5
625.360	1	2
626.547	1	6
627.735	1	0
628.922	1	10
630.109	1	-8
631.297	1	1
632.484	1	0
633.671	1	-2
634.858	1	-10
636.045	1	5
637.232	1	-1
638.419	1	-5
639.606	1	10
640.793	1	10
641.980	1	9
643.167	1	-2
644.354	1	-1
645.541	1	-3
646.728	1	6
647.914	1	-3
649.101	1	-2
650.288	1	3
651.474	1	-7
652.661	1	-13
653.847	1	12
655.034	1	-1
656.220	1	-19
657.406	1	-1
658.593	1	10
659.779	1	-1
660.965	1	9
662.152	1	1
663.338	1	-3
664.524	1	3
665.710	1	-2
666.896	1	-12
668.082	1	11
669.268	1	-2
670.454	1	3
671.640	1	2
672.826	1	-10
674.011	1	-7
675.197	1	-4
676.383	1	-2
677.569	1	-1
678.754	1	-12
679.940	1	-3
681.125	1	-1
682.311	1	6
683.496	1	4
684.682	1	-1
685.867	1	-6
687.053	1	10
688.238	1	1
688.746	1	-4