File: Data/GaN_200K_800ms/GaN_sample F_spot 12_UVVIS_200 K_200um_800 ms 2x2mm1_185.txt
340.368	1	8
341.565	1	-8
342.763	1	10
343.960	1	2
345.157	1	-3
346.354	1	1
347.552	1	-9
348.749	1	0
349.946	1	0
351.143	1	-6
352.340	1	6
353.537	1	7
354.734	1	14
355.931	1	1
357.127	1	2
358.324	1	6
359.521	1	14
360.718	1	6
361.914	1	10
363.111	1	12
364.308	1	17
365.504	1	24
366.701	1	26
367.897	1	32
369.093	1	38
370.290	1	37
371.486	1	35
372.682	1	36
373.879	1	34
375.075	1	24
376.271	1	23
377.467	1	11
378.663	1	11
379.859	1	23
381.055	1	13
382.251	1	1
383.447	1	6
384.643	1	21
385.839	1	-3
387.035	1	7
388.230	1	22
389.426	1	9
390.622	1	-3
391.817	1	6
393.013	1	-15
394.208	1	2
395.404	1	5
396.599	1	0
397.795	1	3
398.990	1	7
400.186	1	-2
401.381	1	-3
402.576	1	0
403.771	1	0
404.967	1	-1
406.162	1	9
407.357	1	-12
408.552	1	-1
409.747	1	10
410.942	1	11
412.137	1	5
413.332	1	9
414.526	1	0
415.721	1	-1
416.916	1	-10
418.111	1	-1
419.305	1	-6
420.500	1	-1
421.695	1	-8
422.889	1	-9
424.084	1	-4
425.278	1	11
426.472	1	5
427.667	1	0
428.861	1	-1
430.055	1	3
431.250	1	10
432.444	1	2
433.638	1	-2
434.832	1	4
436.026	1	3
437.220	1	12
438.414	1	-2
439.608	1	-13
440.802	1	-3
441.996	1	2
443.190	1	1
444.384	1	-9
445.578	1	-8
446.771	1	2
447.965	1	-6
449.159	1	-1
450.352	1	-2
451.546	1	-1
452.739	1	3
453.933	1	0
455.126	1	-6
456.320	1	-7
457.513	1	-2
458.706	1	-1
459.899	1	2
461.093	1	-3
462.286	1	-6
463.479	1	1
464.672	1	-3
465.865	1	-3
467.058	1	-1
468.251	1	9
469.444	1	-6
470.637	1	4
471.830	1	6
473.023	1	5
474.215	1	11
475.408	1	7
476.601	1	-1
477.793	1	1
478.986	1	3
480.179	1	-2
481.371	1	2
482.564	1	6
483.756	1	5
484.948	1	-11
486.141	1	3
487.333	1	3
488.525	1	-4
489.718	1	3
490.910	1	-5
492.102	1	-4
493.294	1	-5
494.486	1	-2
495.678	1	-2
496.870	1	-2
498.062	1	0
499.254	1	-1
500.446	1	-8
501.638	1	-3
502.829	1	3
504.021	1	8
505.213	1	-6
506.404	1	-1
507.596	1	5
508.788	1	8
509.979	1	-5
511.171	1	0
512.362	1	-1
513.553	1	-12
514.745	1	5
515.936	1	-5
517.127	1	9
518.319	1	2
519.510	1	2
520.701	1	-7
521.892	1	10
523.083	1	-4
524.274	1	7
525.465	1	11
526.656	1	-4
527.847	1	9
529.038	1	3
530.229	1	5
531.419	1	0
532.610	1	0
533.801	1	8
534.991	1	3
536.182	1	5
537.373	1	4
538.563	1	4
539.754	1	11
540.944	1	0
542.134	1	14
543.325	1	-3
544.515	1	-2
545.705	1	7
546.896	1	5
548.086	1	-1
549.276	1	-4
550.466	1	4
551.656	1	8
552.846	1	7
554.036	1	3
555.226	1	2
556.416	1	-3
557.606	1	4
558.796	1	7
559.986	1	-4
561.175	1	1
562.365	1	5
563.555	1	3
564.744	1	2
565.934	1	3
567.123	1	-5
568.313	1	10
569.502	1	-5
570.692	1	10
571.881	1	11
573.070	1	9
574.260	1	14
575.449	1	1
576.638	1	-4
577.827	1	-3
579.016	1	16
580.205	1	3
581.394	1	2
582.583	1	9
583.772	1	10
584.961	1	-1
586.150	1	-1
587.339	1	0
588.528	1	6
589.717	1	2
590.905	1	8
592.094	1	-3
593.283	1	9
594.471	1	14
595.660	1	-8
596.848	1	0
598.037	1	-1
599.225	1	-5
600.413	1	8
601.602	1	13
602.790	1	0
603.978	1	-6
605.166	1	4
606.355	1	8
607.543	1	3
608.731	1	4
609.919	1	10
611.107	1	-1
612.295	1	-5
613.483	1	16
614.671	1	1
615.858	1	8
617.046	1	3
618.234	1	4
619.422	1	-4
620.609	1	6
621.797	1	1
622.985	1	5
624.172	1	1
625.360	1	6
626.547	1	-7
627.735	1	4
628.922	1	1
630.109	1	-4
631.297	1	-7
632.484	1	1
633.671	1	2
634.858	1	-5
636.045	1	4
637.232	1	-7
638.419	1	-2
639.606	1	10
640.793	1	6
641.980	1	4
643.167	1	3
644.354	1	3
645.541	1	-1
646.728	1	-5
647.914	1	-5
649.101	1	-2
650.288	1	4
651.474	1	2
652.661	1	-6
653.847	1	11
655.034	1	8
656.220	1	2
657.406	1	2
658.593	1	4
659.779	1	7
660.965	1	14
662.152	1	-5
663.338	1	13
664.524	1	7
665.710	1	-5
666.896	1	-1
668.082	1	9
669.268	1	-1
670.454	1	2
671.640	1	-2
672.826	1	6
674.011	1	-3
675.197	1	-12
676.383	1	6
677.569	1	0
678.754	1	-4
679.940	1	0
681.125	1	5
682.311	1	11
683.496	1	-3
684.682	1	-4
685.867	1	-1
687.053	1	3
688.238	1	3
688.746	1	3