File: Data/GaN_200K_800ms/GaN_sample F_spot 12_UVVIS_200 K_200um_800 ms 2x2mm1_88.txt
340.368	1	3
341.565	1	-9
342.763	1	13
343.960	1	3
345.157	1	-4
346.354	1	4
347.552	1	2
348.749	1	3
349.946	1	-5
351.143	1	9
352.340	1	6
353.537	1	11
354.734	1	9
355.931	1	8
357.127	1	6
358.324	1	8
359.521	1	20
360.718	1	27
361.914	1	36
363.111	1	35
364.308	1	50
365.504	1	67
366.701	1	86
367.897	1	102
369.093	1	116
370.290	1	121
371.486	1	125
372.682	1	99
373.879	1	83
375.075	1	74
376.271	1	62
377.467	1	53
378.663	1	40
379.859	1	36
381.055	1	38
382.251	1	30
383.447	1	15
384.643	1	25
385.839	1	23
387.035	1	23
388.230	1	16
389.426	1	10
390.622	1	8
391.817	1	21
393.013	1	9
394.208	1	9
395.404	1	8
396.599	1	0
397.795	1	15
398.990	1	14
400.186	1	9
401.381	1	-3
402.576	1	-5
403.771	1	1
404.967	1	5
406.162	1	7
407.357	1	7
408.552	1	8
409.747	1	-1
410.942	1	10
412.137	1	13
413.332	1	11
414.526	1	8
415.721	1	1
416.916	1	4
418.111	1	3
419.305	1	-1
420.500	1	5
421.695	1	-3
422.889	1	3
424.084	1	1
425.278	1	9
426.472	1	2
427.667	1	4
428.861	1	4
430.055	1	12
431.250	1	-4
432.444	1	12
433.638	1	0
434.832	1	7
436.026	1	11
437.220	1	7
438.414	1	0
439.608	1	5
440.802	1	-3
441.996	1	1
443.190	1	2
444.384	1	3
445.578	1	0
446.771	1	19
447.965	1	1
449.159	1	-5
450.352	1	5
451.546	1	12
452.739	1	6
453.933	1	1
455.126	1	-4
456.320	1	-1
457.513	1	8
458.706	1	-2
459.899	1	3
461.093	1	3
462.286	1	2
463.479	1	-1
464.672	1	9
465.865	1	-3
467.058	1	-3
468.251	1	8
469.444	1	-8
470.637	1	-1
471.830	1	-2
473.023	1	1
474.215	1	5
475.408	1	-2
476.601	1	6
477.793	1	-1
478.986	1	-5
480.179	1	0
481.371	1	11
482.564	1	10
483.756	1	10
484.948	1	-5
486.141	1	4
487.333	1	-5
488.525	1	5
489.718	1	2
490.910	1	10
492.102	1	4
493.294	1	-2
494.486	1	11
495.678	1	10
496.870	1	11
498.062	1	4
499.254	1	7
500.446	1	-9
501.638	1	-2
502.829	1	7
504.021	1	12
505.213	1	12
506.404	1	11
507.596	1	4
508.788	1	16
509.979	1	3
511.171	1	1
512.362	1	2
513.553	1	-2
514.745	1	-1
515.936	1	7
517.127	1	5
518.319	1	13
519.510	1	13
520.701	1	6
521.892	1	16
523.083	1	-1
524.274	1	10
525.465	1	17
526.656	1	14
527.847	1	7
529.038	1	8
530.229	1	13
531.419	1	15
532.610	1	8
533.801	1	26
534.991	1	10
536.182	1	18
537.373	1	12
538.563	1	16
539.754	1	24
540.944	1	6
542.134	1	13
543.325	1	5
544.515	1	14
545.705	1	11
546.896	1	14
548.086	1	23
549.276	1	9
550.466	1	19
551.656	1	18
552.846	1	25
554.036	1	13
555.226	1	15
556.416	1	6
557.606	1	14
558.796	1	12
559.986	1	6
561.175	1	17
562.365	1	14
563.555	1	12
564.744	1	21
565.934	1	11
567.123	1	19
568.313	1	11
569.502	1	14
570.692	1	14
571.881	1	25
573.070	1	17
574.260	1	21
575.449	1	11
576.638	1	5
577.827	1	4
579.016	1	15
580.205	1	13
581.394	1	16
582.583	1	20
583.772	1	19
584.961	1	15
586.150	1	10
587.339	1	11
588.528	1	16
589.717	1	11
590.905	1	16
592.094	1	12
593.283	1	17
594.471	1	21
595.660	1	14
596.848	1	14
598.037	1	3
599.225	1	2
600.413	1	17
601.602	1	16
602.790	1	6
603.978	1	7
605.166	1	8
606.355	1	10
607.543	1	9
608.731	1	10
609.919	1	24
611.107	1	8
612.295	1	7
613.483	1	18
614.671	1	17
615.858	1	15
617.046	1	14
618.234	1	10
619.422	1	7
620.609	1	10
621.797	1	8
622.985	1	11
624.172	1	6
625.360	1	8
626.547	1	6
627.735	1	24
628.922	1	14
630.109	1	5
631.297	1	12
632.484	1	-1
633.671	1	5
634.858	1	7
636.045	1	20
637.232	1	3
638.419	1	7
639.606	1	21
640.793	1	15
641.980	1	6
643.167	1	-1
644.354	1	4
645.541	1	6
646.728	1	2
647.914	1	8
649.101	1	9
650.288	1	10
651.474	1	-4
652.661	1	6
653.847	1	7
655.034	1	10
656.220	1	-3
657.406	1	3
658.593	1	2
659.779	1	3
660.965	1	11
662.152	1	1
663.338	1	17
664.524	1	12
665.710	1	14
666.896	1	-2
668.082	1	9
669.268	1	-3
670.454	1	6
671.640	1	3
672.826	1	2
674.011	1	6
675.197	1	-1
676.383	1	11
677.569	1	4
678.754	1	1
679.940	1	-3
681.125	1	6
682.311	1	18
683.496	1	5
684.682	1	-8
685.867	1	-2
687.053	1	12
688.238	1	16
688.746	1	2