File: Data/GaN_200K_800ms/GaN_sample F_spot 12_UVVIS_200 K_200um_800 ms 2x2mm1_310.txt
340.368	1	6
341.565	1	-8
342.763	1	-2
343.960	1	-4
345.157	1	2
346.354	1	-2
347.552	1	-9
348.749	1	-2
349.946	1	-2
351.143	1	6
352.340	1	-1
353.537	1	-9
354.734	1	10
355.931	1	-4
357.127	1	-3
358.324	1	3
359.521	1	16
360.718	1	9
361.914	1	16
363.111	1	-3
364.308	1	4
365.504	1	17
366.701	1	8
367.897	1	16
369.093	1	12
370.290	1	20
371.486	1	19
372.682	1	10
373.879	1	19
375.075	1	4
376.271	1	18
377.467	1	9
378.663	1	-2
379.859	1	-4
381.055	1	11
382.251	1	2
383.447	1	-3
384.643	1	11
385.839	1	8
387.035	1	12
388.230	1	8
389.426	1	1
390.622	1	-1
391.817	1	11
393.013	1	-10
394.208	1	0
395.404	1	-7
396.599	1	10
397.795	1	6
398.990	1	5
400.186	1	4
401.381	1	-8
402.576	1	-8
403.771	1	1
404.967	1	5
406.162	1	0
407.357	1	0
408.552	1	2
409.747	1	3
410.942	1	5
412.137	1	0
413.332	1	9
414.526	1	0
415.721	1	-10
416.916	1	-1
418.111	1	8
419.305	1	-1
420.500	1	-8
421.695	1	-2
422.889	1	-15
424.084	1	7
425.278	1	11
426.472	1	-6
427.667	1	7
428.861	1	3
430.055	1	-1
431.250	1	-5
432.444	1	9
433.638	1	-10
434.832	1	-4
436.026	1	8
437.220	1	4
438.414	1	-8
439.608	1	-14
440.802	1	5
441.996	1	-3
443.190	1	-6
444.384	1	-7
445.578	1	-5
446.771	1	17
447.965	1	-3
449.159	1	-3
450.352	1	-3
451.546	1	-2
452.739	1	7
453.933	1	0
455.126	1	-2
456.320	1	-1
457.513	1	8
458.706	1	-6
459.899	1	-3
461.093	1	9
462.286	1	3
463.479	1	-6
464.672	1	1
465.865	1	0
467.058	1	-8
468.251	1	-4
469.444	1	-6
470.637	1	2
471.830	1	-3
473.023	1	-3
474.215	1	11
475.408	1	4
476.601	1	-3
477.793	1	-5
478.986	1	-1
480.179	1	0
481.371	1	0
482.564	1	-3
483.756	1	7
484.948	1	-3
486.141	1	-4
487.333	1	0
488.525	1	1
489.718	1	4
490.910	1	0
492.102	1	-5
493.294	1	2
494.486	1	5
495.678	1	2
496.870	1	6
498.062	1	1
499.254	1	-2
500.446	1	-8
501.638	1	3
502.829	1	5
504.021	1	2
505.213	1	4
506.404	1	-3
507.596	1	9
508.788	1	21
509.979	1	2
511.171	1	-6
512.362	1	-7
513.553	1	-12
514.745	1	-7
515.936	1	8
517.127	1	-3
518.319	1	0
519.510	1	10
520.701	1	-2
521.892	1	2
523.083	1	-5
524.274	1	0
525.465	1	8
526.656	1	0
527.847	1	5
529.038	1	0
530.229	1	2
531.419	1	-2
532.610	1	0
533.801	1	14
534.991	1	-5
536.182	1	5
537.373	1	1
538.563	1	9
539.754	1	1
540.944	1	0
542.134	1	0
543.325	1	-2
544.515	1	1
545.705	1	1
546.896	1	0
548.086	1	4
549.276	1	-1
550.466	1	-3
551.656	1	6
552.846	1	8
554.036	1	-4
555.226	1	-7
556.416	1	-8
557.606	1	2
558.796	1	-7
559.986	1	-5
561.175	1	9
562.365	1	6
563.555	1	-4
564.744	1	7
565.934	1	6
567.123	1	2
568.313	1	-5
569.502	1	5
570.692	1	3
571.881	1	12
573.070	1	9
574.260	1	7
575.449	1	-6
576.638	1	-8
577.827	1	0
579.016	1	11
580.205	1	-1
581.394	1	0
582.583	1	13
583.772	1	9
584.961	1	1
586.150	1	0
587.339	1	1
588.528	1	7
589.717	1	-3
590.905	1	-5
592.094	1	3
593.283	1	1
594.471	1	6
595.660	1	-3
596.848	1	0
598.037	1	0
599.225	1	0
600.413	1	7
601.602	1	4
602.790	1	14
603.978	1	-4
605.166	1	8
606.355	1	3
607.543	1	-4
608.731	1	2
609.919	1	15
611.107	1	-3
612.295	1	-4
613.483	1	5
614.671	1	13
615.858	1	0
617.046	1	4
618.234	1	-2
619.422	1	-7
620.609	1	11
621.797	1	-4
622.985	1	5
624.172	1	-3
625.360	1	-6
626.547	1	-5
627.735	1	3
628.922	1	5
630.109	1	-14
631.297	1	3
632.484	1	-5
633.671	1	1
634.858	1	-9
636.045	1	8
637.232	1	-2
638.419	1	4
639.606	1	3
640.793	1	8
641.980	1	4
643.167	1	-3
644.354	1	-4
645.541	1	-5
646.728	1	0
647.914	1	3
649.101	1	0
650.288	1	0
651.474	1	-2
652.661	1	-7
653.847	1	8
655.034	1	5
656.220	1	-1
657.406	1	4
658.593	1	10
659.779	1	6
660.965	1	12
662.152	1	2
663.338	1	6
664.524	1	-4
665.710	1	-5
666.896	1	0
668.082	1	12
669.268	1	-10
670.454	1	15
671.640	1	3
672.826	1	-2
674.011	1	-1
675.197	1	-7
676.383	1	1
677.569	1	1
678.754	1	-4
679.940	1	-5
681.125	1	3
682.311	1	7
683.496	1	0
684.682	1	-3
685.867	1	5
687.053	1	4
688.238	1	8
688.746	1	-3