File: Data/GaN_200K_800ms/GaN_sample F_spot 12_UVVIS_200 K_200um_800 ms 2x2mm1_212.txt
340.368	1	1
341.565	1	-14
342.763	1	-1
343.960	1	9
345.157	1	-5
346.354	1	-8
347.552	1	-2
348.749	1	-3
349.946	1	-6
351.143	1	7
352.340	1	9
353.537	1	-5
354.734	1	6
355.931	1	0
357.127	1	5
358.324	1	-3
359.521	1	14
360.718	1	5
361.914	1	9
363.111	1	7
364.308	1	11
365.504	1	27
366.701	1	28
367.897	1	27
369.093	1	32
370.290	1	30
371.486	1	37
372.682	1	42
373.879	1	9
375.075	1	9
376.271	1	19
377.467	1	10
378.663	1	0
379.859	1	14
381.055	1	16
382.251	1	0
383.447	1	-2
384.643	1	10
385.839	1	8
387.035	1	10
388.230	1	22
389.426	1	-2
390.622	1	0
391.817	1	6
393.013	1	0
394.208	1	4
395.404	1	0
396.599	1	-8
397.795	1	5
398.990	1	0
400.186	1	9
401.381	1	-1
402.576	1	8
403.771	1	1
404.967	1	-2
406.162	1	0
407.357	1	3
408.552	1	-6
409.747	1	1
410.942	1	14
412.137	1	1
413.332	1	8
414.526	1	-2
415.721	1	-1
416.916	1	-4
418.111	1	8
419.305	1	5
420.500	1	1
421.695	1	-3
422.889	1	-10
424.084	1	-8
425.278	1	6
426.472	1	-3
427.667	1	8
428.861	1	-4
430.055	1	1
431.250	1	5
432.444	1	5
433.638	1	-1
434.832	1	-2
436.026	1	1
437.220	1	4
438.414	1	-10
439.608	1	-22
440.802	1	-7
441.996	1	5
443.190	1	0
444.384	1	-12
445.578	1	-10
446.771	1	14
447.965	1	-2
449.159	1	-1
450.352	1	2
451.546	1	0
452.739	1	-2
453.933	1	-8
455.126	1	-13
456.320	1	-4
457.513	1	-5
458.706	1	1
459.899	1	-3
461.093	1	2
462.286	1	5
463.479	1	-7
464.672	1	-8
465.865	1	12
467.058	1	-4
468.251	1	0
469.444	1	-4
470.637	1	3
471.830	1	-1
473.023	1	1
474.215	1	10
475.408	1	-5
476.601	1	0
477.793	1	0
478.986	1	-5
480.179	1	8
481.371	1	2
482.564	1	-5
483.756	1	10
484.948	1	-8
486.141	1	-4
487.333	1	-1
488.525	1	2
489.718	1	-1
490.910	1	1
492.102	1	0
493.294	1	-1
494.486	1	7
495.678	1	0
496.870	1	0
498.062	1	7
499.254	1	-6
500.446	1	-14
501.638	1	-2
502.829	1	4
504.021	1	6
505.213	1	7
506.404	1	5
507.596	1	-2
508.788	1	25
509.979	1	6
511.171	1	-4
512.362	1	-2
513.553	1	-14
514.745	1	-7
515.936	1	4
517.127	1	0
518.319	1	-6
519.510	1	6
520.701	1	2
521.892	1	2
523.083	1	1
524.274	1	7
525.465	1	6
526.656	1	-2
527.847	1	7
529.038	1	3
530.229	1	9
531.419	1	5
532.610	1	-5
533.801	1	21
534.991	1	9
536.182	1	5
537.373	1	-1
538.563	1	4
539.754	1	10
540.944	1	-1
542.134	1	14
543.325	1	11
544.515	1	5
545.705	1	6
546.896	1	1
548.086	1	7
549.276	1	5
550.466	1	17
551.656	1	7
552.846	1	5
554.036	1	12
555.226	1	1
556.416	1	5
557.606	1	10
558.796	1	11
559.986	1	12
561.175	1	14
562.365	1	4
563.555	1	3
564.744	1	12
565.934	1	2
567.123	1	7
568.313	1	5
569.502	1	3
570.692	1	6
571.881	1	14
573.070	1	3
574.260	1	13
575.449	1	-1
576.638	1	-7
577.827	1	-3
579.016	1	9
580.205	1	12
581.394	1	1
582.583	1	16
583.772	1	6
584.961	1	9
586.150	1	7
587.339	1	5
588.528	1	7
589.717	1	5
590.905	1	-3
592.094	1	5
593.283	1	-1
594.471	1	12
595.660	1	6
596.848	1	8
598.037	1	0
599.225	1	-3
600.413	1	6
601.602	1	11
602.790	1	8
603.978	1	1
605.166	1	6
606.355	1	-1
607.543	1	7
608.731	1	1
609.919	1	14
611.107	1	6
612.295	1	-5
613.483	1	8
614.671	1	7
615.858	1	0
617.046	1	0
618.234	1	1
619.422	1	-6
620.609	1	8
621.797	1	-2
622.985	1	2
624.172	1	-3
625.360	1	0
626.547	1	5
627.735	1	17
628.922	1	6
630.109	1	-3
631.297	1	3
632.484	1	-3
633.671	1	-7
634.858	1	-5
636.045	1	7
637.232	1	-4
638.419	1	14
639.606	1	9
640.793	1	15
641.980	1	5
643.167	1	-5
644.354	1	4
645.541	1	9
646.728	1	6
647.914	1	-6
649.101	1	1
650.288	1	11
651.474	1	1
652.661	1	-3
653.847	1	4
655.034	1	1
656.220	1	3
657.406	1	13
658.593	1	15
659.779	1	3
660.965	1	11
662.152	1	9
663.338	1	8
664.524	1	3
665.710	1	-3
666.896	1	-3
668.082	1	6
669.268	1	5
670.454	1	2
671.640	1	3
672.826	1	-2
674.011	1	1
675.197	1	-5
676.383	1	13
677.569	1	4
678.754	1	6
679.940	1	2
681.125	1	8
682.311	1	9
683.496	1	4
684.682	1	-8
685.867	1	0
687.053	1	5
688.238	1	2
688.746	1	1