File: Data/GaN_200K_800ms/GaN_sample F_spot 12_UVVIS_200 K_200um_800 ms 2x2mm1_324.txt
340.368	1	1
341.565	1	-9
342.763	1	5
343.960	1	-8
345.157	1	1
346.354	1	-7
347.552	1	1
348.749	1	-6
349.946	1	-10
351.143	1	-9
352.340	1	7
353.537	1	-3
354.734	1	5
355.931	1	-10
357.127	1	-1
358.324	1	1
359.521	1	7
360.718	1	5
361.914	1	6
363.111	1	13
364.308	1	8
365.504	1	11
366.701	1	14
367.897	1	7
369.093	1	6
370.290	1	6
371.486	1	21
372.682	1	14
373.879	1	6
375.075	1	9
376.271	1	18
377.467	1	5
378.663	1	1
379.859	1	4
381.055	1	7
382.251	1	-2
383.447	1	-5
384.643	1	4
385.839	1	-4
387.035	1	5
388.230	1	6
389.426	1	3
390.622	1	-1
391.817	1	10
393.013	1	-3
394.208	1	4
395.404	1	-10
396.599	1	0
397.795	1	8
398.990	1	3
400.186	1	2
401.381	1	-9
402.576	1	-8
403.771	1	1
404.967	1	-4
406.162	1	0
407.357	1	1
408.552	1	-1
409.747	1	-6
410.942	1	6
412.137	1	-1
413.332	1	5
414.526	1	-2
415.721	1	4
416.916	1	-5
418.111	1	-5
419.305	1	1
420.500	1	-8
421.695	1	2
422.889	1	-1
424.084	1	0
425.278	1	16
426.472	1	-3
427.667	1	4
428.861	1	-6
430.055	1	-1
431.250	1	-2
432.444	1	7
433.638	1	-12
434.832	1	3
436.026	1	0
437.220	1	6
438.414	1	-7
439.608	1	-10
440.802	1	-8
441.996	1	2
443.190	1	0
444.384	1	-3
445.578	1	-12
446.771	1	7
447.965	1	-3
449.159	1	-2
450.352	1	4
451.546	1	-2
452.739	1	6
453.933	1	0
455.126	1	-3
456.320	1	1
457.513	1	-4
458.706	1	5
459.899	1	6
461.093	1	1
462.286	1	1
463.479	1	1
464.672	1	-9
465.865	1	2
467.058	1	3
468.251	1	-3
469.444	1	-9
470.637	1	-4
471.830	1	3
473.023	1	0
474.215	1	19
475.408	1	-2
476.601	1	-3
477.793	1	-5
478.986	1	-2
480.179	1	-3
481.371	1	1
482.564	1	-3
483.756	1	11
484.948	1	-1
486.141	1	-4
487.333	1	-2
488.525	1	4
489.718	1	3
490.910	1	1
492.102	1	-6
493.294	1	0
494.486	1	0
495.678	1	-1
496.870	1	6
498.062	1	-5
499.254	1	2
500.446	1	-5
501.638	1	-11
502.829	1	-5
504.021	1	0
505.213	1	4
506.404	1	3
507.596	1	3
508.788	1	14
509.979	1	-5
511.171	1	-1
512.362	1	-5
513.553	1	-11
514.745	1	-7
515.936	1	2
517.127	1	0
518.319	1	-6
519.510	1	8
520.701	1	1
521.892	1	1
523.083	1	3
524.274	1	-1
525.465	1	7
526.656	1	-4
527.847	1	7
529.038	1	3
530.229	1	9
531.419	1	10
532.610	1	-7
533.801	1	13
534.991	1	6
536.182	1	-8
537.373	1	-2
538.563	1	2
539.754	1	13
540.944	1	-5
542.134	1	2
543.325	1	-5
544.515	1	0
545.705	1	3
546.896	1	2
548.086	1	3
549.276	1	5
550.466	1	1
551.656	1	0
552.846	1	4
554.036	1	-16
555.226	1	-8
556.416	1	0
557.606	1	10
558.796	1	-1
559.986	1	0
561.175	1	-3
562.365	1	6
563.555	1	4
564.744	1	2
565.934	1	4
567.123	1	-4
568.313	1	10
569.502	1	-6
570.692	1	8
571.881	1	12
573.070	1	8
574.260	1	5
575.449	1	-6
576.638	1	-6
577.827	1	-1
579.016	1	3
580.205	1	0
581.394	1	-3
582.583	1	11
583.772	1	9
584.961	1	2
586.150	1	-4
587.339	1	7
588.528	1	7
589.717	1	5
590.905	1	1
592.094	1	1
593.283	1	2
594.471	1	10
595.660	1	4
596.848	1	3
598.037	1	5
599.225	1	-5
600.413	1	9
601.602	1	13
602.790	1	7
603.978	1	-2
605.166	1	4
606.355	1	3
607.543	1	3
608.731	1	5
609.919	1	7
611.107	1	4
612.295	1	-6
613.483	1	1
614.671	1	3
615.858	1	-3
617.046	1	3
618.234	1	-4
619.422	1	-4
620.609	1	6
621.797	1	-3
622.985	1	0
624.172	1	-1
625.360	1	3
626.547	1	1
627.735	1	-1
628.922	1	2
630.109	1	-7
631.297	1	-5
632.484	1	-1
633.671	1	0
634.858	1	-10
636.045	1	10
637.232	1	-9
638.419	1	-3
639.606	1	-10
640.793	1	1
641.980	1	8
643.167	1	1
644.354	1	-6
645.541	1	2
646.728	1	-2
647.914	1	-5
649.101	1	-4
650.288	1	4
651.474	1	0
652.661	1	0
653.847	1	9
655.034	1	7
656.220	1	-12
657.406	1	9
658.593	1	1
659.779	1	-4
660.965	1	13
662.152	1	11
663.338	1	7
664.524	1	10
665.710	1	2
666.896	1	5
668.082	1	-3
669.268	1	0
670.454	1	3
671.640	1	-2
672.826	1	1
674.011	1	-9
675.197	1	0
676.383	1	1
677.569	1	-7
678.754	1	-5
679.940	1	-4
681.125	1	0
682.311	1	11
683.496	1	0
684.682	1	-5
685.867	1	2
687.053	1	6
688.238	1	6
688.746	1	-4