File: Data/GaN_200K_800ms/GaN_sample F_spot 12_UVVIS_200 K_200um_800 ms 2x2mm1_68.txt
340.368	1	9
341.565	1	-4
342.763	1	5
343.960	1	4
345.157	1	7
346.354	1	8
347.552	1	-8
348.749	1	-6
349.946	1	-2
351.143	1	4
352.340	1	16
353.537	1	13
354.734	1	17
355.931	1	13
357.127	1	22
358.324	1	24
359.521	1	40
360.718	1	40
361.914	1	49
363.111	1	61
364.308	1	84
365.504	1	133
366.701	1	155
367.897	1	193
369.093	1	203
370.290	1	215
371.486	1	199
372.682	1	170
373.879	1	130
375.075	1	104
376.271	1	117
377.467	1	89
378.663	1	68
379.859	1	55
381.055	1	58
382.251	1	39
383.447	1	43
384.643	1	46
385.839	1	30
387.035	1	33
388.230	1	40
389.426	1	16
390.622	1	14
391.817	1	13
393.013	1	18
394.208	1	15
395.404	1	9
396.599	1	13
397.795	1	8
398.990	1	8
400.186	1	2
401.381	1	9
402.576	1	14
403.771	1	9
404.967	1	7
406.162	1	8
407.357	1	3
408.552	1	-6
409.747	1	2
410.942	1	15
412.137	1	8
413.332	1	13
414.526	1	8
415.721	1	4
416.916	1	-4
418.111	1	4
419.305	1	10
420.500	1	-7
421.695	1	-6
422.889	1	-1
424.084	1	6
425.278	1	13
426.472	1	10
427.667	1	11
428.861	1	4
430.055	1	15
431.250	1	1
432.444	1	9
433.638	1	1
434.832	1	16
436.026	1	13
437.220	1	0
438.414	1	-9
439.608	1	-8
440.802	1	-6
441.996	1	2
443.190	1	5
444.384	1	-4
445.578	1	-8
446.771	1	18
447.965	1	6
449.159	1	-4
450.352	1	4
451.546	1	6
452.739	1	9
453.933	1	3
455.126	1	-4
456.320	1	1
457.513	1	4
458.706	1	-2
459.899	1	1
461.093	1	1
462.286	1	6
463.479	1	7
464.672	1	-5
465.865	1	3
467.058	1	-1
468.251	1	9
469.444	1	1
470.637	1	5
471.830	1	7
473.023	1	6
474.215	1	15
475.408	1	2
476.601	1	5
477.793	1	1
478.986	1	4
480.179	1	-1
481.371	1	1
482.564	1	-2
483.756	1	17
484.948	1	-7
486.141	1	1
487.333	1	9
488.525	1	13
489.718	1	-1
490.910	1	9
492.102	1	6
493.294	1	-7
494.486	1	8
495.678	1	11
496.870	1	11
498.062	1	11
499.254	1	7
500.446	1	-4
501.638	1	2
502.829	1	17
504.021	1	14
505.213	1	12
506.404	1	10
507.596	1	10
508.788	1	22
509.979	1	15
511.171	1	10
512.362	1	4
513.553	1	-6
514.745	1	19
515.936	1	10
517.127	1	11
518.319	1	12
519.510	1	15
520.701	1	20
521.892	1	19
523.083	1	13
524.274	1	12
525.465	1	14
526.656	1	7
527.847	1	24
529.038	1	26
530.229	1	18
531.419	1	22
532.610	1	13
533.801	1	42
534.991	1	19
536.182	1	12
537.373	1	16
538.563	1	24
539.754	1	32
540.944	1	21
542.134	1	25
543.325	1	18
544.515	1	19
545.705	1	19
546.896	1	26
548.086	1	22
549.276	1	12
550.466	1	26
551.656	1	33
552.846	1	25
554.036	1	26
555.226	1	11
556.416	1	13
557.606	1	21
558.796	1	16
559.986	1	12
561.175	1	20
562.365	1	16
563.555	1	11
564.744	1	29
565.934	1	21
567.123	1	21
568.313	1	28
569.502	1	12
570.692	1	31
571.881	1	33
573.070	1	27
574.260	1	35
575.449	1	13
576.638	1	25
577.827	1	13
579.016	1	28
580.205	1	24
581.394	1	12
582.583	1	27
583.772	1	33
584.961	1	22
586.150	1	18
587.339	1	21
588.528	1	6
589.717	1	18
590.905	1	18
592.094	1	21
593.283	1	13
594.471	1	28
595.660	1	21
596.848	1	20
598.037	1	8
599.225	1	5
600.413	1	16
601.602	1	27
602.790	1	14
603.978	1	24
605.166	1	22
606.355	1	18
607.543	1	29
608.731	1	19
609.919	1	20
611.107	1	7
612.295	1	8
613.483	1	15
614.671	1	24
615.858	1	17
617.046	1	10
618.234	1	14
619.422	1	2
620.609	1	16
621.797	1	12
622.985	1	12
624.172	1	13
625.360	1	5
626.547	1	12
627.735	1	15
628.922	1	10
630.109	1	0
631.297	1	12
632.484	1	8
633.671	1	2
634.858	1	6
636.045	1	10
637.232	1	5
638.419	1	4
639.606	1	7
640.793	1	22
641.980	1	15
643.167	1	7
644.354	1	7
645.541	1	13
646.728	1	10
647.914	1	9
649.101	1	7
650.288	1	9
651.474	1	2
652.661	1	6
653.847	1	16
655.034	1	10
656.220	1	1
657.406	1	15
658.593	1	20
659.779	1	15
660.965	1	17
662.152	1	6
663.338	1	9
664.524	1	10
665.710	1	9
666.896	1	-2
668.082	1	6
669.268	1	13
670.454	1	9
671.640	1	11
672.826	1	4
674.011	1	6
675.197	1	3
676.383	1	13
677.569	1	9
678.754	1	7
679.940	1	4
681.125	1	11
682.311	1	8
683.496	1	21
684.682	1	12
685.867	1	7
687.053	1	3
688.238	1	5
688.746	1	8