File: Data/GaN_200K_800ms/GaN_sample F_spot 12_UVVIS_200 K_200um_800 ms 2x2mm1_218.txt
340.368	1	7
341.565	1	-9
342.763	1	5
343.960	1	3
345.157	1	-7
346.354	1	-3
347.552	1	-13
348.749	1	-3
349.946	1	-2
351.143	1	1
352.340	1	0
353.537	1	7
354.734	1	15
355.931	1	1
357.127	1	8
358.324	1	-1
359.521	1	13
360.718	1	9
361.914	1	6
363.111	1	12
364.308	1	14
365.504	1	26
366.701	1	24
367.897	1	21
369.093	1	15
370.290	1	18
371.486	1	30
372.682	1	29
373.879	1	19
375.075	1	12
376.271	1	21
377.467	1	1
378.663	1	-1
379.859	1	8
381.055	1	13
382.251	1	3
383.447	1	1
384.643	1	13
385.839	1	-2
387.035	1	7
388.230	1	20
389.426	1	4
390.622	1	-5
391.817	1	-2
393.013	1	2
394.208	1	2
395.404	1	2
396.599	1	-7
397.795	1	9
398.990	1	-2
400.186	1	-1
401.381	1	-6
402.576	1	2
403.771	1	4
404.967	1	6
406.162	1	4
407.357	1	-2
408.552	1	-4
409.747	1	0
410.942	1	16
412.137	1	4
413.332	1	5
414.526	1	-5
415.721	1	-2
416.916	1	-7
418.111	1	1
419.305	1	4
420.500	1	-1
421.695	1	-6
422.889	1	-2
424.084	1	0
425.278	1	7
426.472	1	2
427.667	1	-1
428.861	1	3
430.055	1	3
431.250	1	1
432.444	1	8
433.638	1	3
434.832	1	-2
436.026	1	-1
437.220	1	10
438.414	1	-7
439.608	1	-9
440.802	1	-1
441.996	1	5
443.190	1	-12
444.384	1	-3
445.578	1	-17
446.771	1	8
447.965	1	7
449.159	1	-6
450.352	1	0
451.546	1	7
452.739	1	-7
453.933	1	-9
455.126	1	-14
456.320	1	-2
457.513	1	6
458.706	1	-4
459.899	1	2
461.093	1	4
462.286	1	7
463.479	1	-6
464.672	1	0
465.865	1	0
467.058	1	1
468.251	1	4
469.444	1	-12
470.637	1	-4
471.830	1	9
473.023	1	1
474.215	1	10
475.408	1	-1
476.601	1	7
477.793	1	-3
478.986	1	-4
480.179	1	-4
481.371	1	-5
482.564	1	-10
483.756	1	11
484.948	1	-6
486.141	1	-5
487.333	1	-5
488.525	1	-2
489.718	1	2
490.910	1	11
492.102	1	-9
493.294	1	1
494.486	1	3
495.678	1	-4
496.870	1	9
498.062	1	3
499.254	1	1
500.446	1	-8
501.638	1	0
502.829	1	-9
504.021	1	2
505.213	1	3
506.404	1	6
507.596	1	6
508.788	1	3
509.979	1	-7
511.171	1	-5
512.362	1	-4
513.553	1	-7
514.745	1	-6
515.936	1	0
517.127	1	3
518.319	1	-6
519.510	1	5
520.701	1	6
521.892	1	7
523.083	1	4
524.274	1	7
525.465	1	12
526.656	1	1
527.847	1	4
529.038	1	5
530.229	1	6
531.419	1	10
532.610	1	-4
533.801	1	15
534.991	1	-2
536.182	1	-7
537.373	1	8
538.563	1	7
539.754	1	11
540.944	1	-7
542.134	1	7
543.325	1	10
544.515	1	1
545.705	1	5
546.896	1	9
548.086	1	2
549.276	1	1
550.466	1	3
551.656	1	9
552.846	1	10
554.036	1	5
555.226	1	-5
556.416	1	7
557.606	1	0
558.796	1	2
559.986	1	0
561.175	1	2
562.365	1	7
563.555	1	8
564.744	1	3
565.934	1	4
567.123	1	6
568.313	1	7
569.502	1	2
570.692	1	7
571.881	1	17
573.070	1	5
574.260	1	10
575.449	1	3
576.638	1	-6
577.827	1	7
579.016	1	9
580.205	1	0
581.394	1	4
582.583	1	19
583.772	1	13
584.961	1	9
586.150	1	4
587.339	1	8
588.528	1	8
589.717	1	0
590.905	1	-3
592.094	1	1
593.283	1	-1
594.471	1	13
595.660	1	-1
596.848	1	4
598.037	1	-2
599.225	1	-12
600.413	1	13
601.602	1	14
602.790	1	7
603.978	1	9
605.166	1	4
606.355	1	10
607.543	1	1
608.731	1	-6
609.919	1	11
611.107	1	-3
612.295	1	-1
613.483	1	10
614.671	1	9
615.858	1	1
617.046	1	3
618.234	1	5
619.422	1	-3
620.609	1	3
621.797	1	1
622.985	1	-3
624.172	1	7
625.360	1	6
626.547	1	-2
627.735	1	9
628.922	1	1
630.109	1	-17
631.297	1	0
632.484	1	3
633.671	1	-2
634.858	1	2
636.045	1	4
637.232	1	-4
638.419	1	4
639.606	1	3
640.793	1	5
641.980	1	10
643.167	1	0
644.354	1	-5
645.541	1	0
646.728	1	-5
647.914	1	-10
649.101	1	-13
650.288	1	6
651.474	1	0
652.661	1	-3
653.847	1	3
655.034	1	5
656.220	1	-4
657.406	1	4
658.593	1	11
659.779	1	7
660.965	1	5
662.152	1	7
663.338	1	12
664.524	1	6
665.710	1	11
666.896	1	-5
668.082	1	4
669.268	1	2
670.454	1	0
671.640	1	3
672.826	1	-4
674.011	1	-4
675.197	1	4
676.383	1	6
677.569	1	-3
678.754	1	-5
679.940	1	0
681.125	1	4
682.311	1	2
683.496	1	6
684.682	1	-7
685.867	1	8
687.053	1	1
688.238	1	7
688.746	1	5