File: Data/GaN_200K_800ms/GaN_sample F_spot 12_UVVIS_200 K_200um_800 ms 2x2mm1_12.txt
340.368	1	-2
341.565	1	-14
342.763	1	4
343.960	1	0
345.157	1	-6
346.354	1	-1
347.552	1	-5
348.749	1	0
349.946	1	-3
351.143	1	2
352.340	1	4
353.537	1	1
354.734	1	5
355.931	1	-5
357.127	1	3
358.324	1	-13
359.521	1	8
360.718	1	4
361.914	1	11
363.111	1	7
364.308	1	-2
365.504	1	3
366.701	1	-3
367.897	1	-4
369.093	1	-5
370.290	1	-4
371.486	1	11
372.682	1	10
373.879	1	0
375.075	1	0
376.271	1	4
377.467	1	0
378.663	1	-10
379.859	1	-5
381.055	1	3
382.251	1	-10
383.447	1	-11
384.643	1	3
385.839	1	-1
387.035	1	3
388.230	1	6
389.426	1	-10
390.622	1	-7
391.817	1	5
393.013	1	-13
394.208	1	3
395.404	1	1
396.599	1	-2
397.795	1	6
398.990	1	4
400.186	1	-1
401.381	1	-9
402.576	1	-10
403.771	1	3
404.967	1	8
406.162	1	4
407.357	1	6
408.552	1	-10
409.747	1	-5
410.942	1	5
412.137	1	4
413.332	1	2
414.526	1	3
415.721	1	-1
416.916	1	-1
418.111	1	-4
419.305	1	-2
420.500	1	-4
421.695	1	-6
422.889	1	-12
424.084	1	1
425.278	1	10
426.472	1	3
427.667	1	13
428.861	1	-12
430.055	1	9
431.250	1	-4
432.444	1	6
433.638	1	5
434.832	1	-3
436.026	1	6
437.220	1	4
438.414	1	-5
439.608	1	-11
440.802	1	-3
441.996	1	4
443.190	1	-3
444.384	1	-6
445.578	1	-5
446.771	1	18
447.965	1	3
449.159	1	6
450.352	1	2
451.546	1	-3
452.739	1	8
453.933	1	-3
455.126	1	-2
456.320	1	4
457.513	1	4
458.706	1	0
459.899	1	2
461.093	1	5
462.286	1	3
463.479	1	-3
464.672	1	0
465.865	1	-4
467.058	1	1
468.251	1	2
469.444	1	-9
470.637	1	0
471.830	1	2
473.023	1	6
474.215	1	11
475.408	1	2
476.601	1	-1
477.793	1	2
478.986	1	4
480.179	1	0
481.371	1	2
482.564	1	11
483.756	1	0
484.948	1	-5
486.141	1	-7
487.333	1	-2
488.525	1	7
489.718	1	10
490.910	1	-2
492.102	1	-2
493.294	1	1
494.486	1	-1
495.678	1	0
496.870	1	8
498.062	1	13
499.254	1	8
500.446	1	-12
501.638	1	-1
502.829	1	-2
504.021	1	-2
505.213	1	10
506.404	1	5
507.596	1	3
508.788	1	11
509.979	1	-6
511.171	1	-4
512.362	1	1
513.553	1	-12
514.745	1	-5
515.936	1	3
517.127	1	2
518.319	1	4
519.510	1	2
520.701	1	5
521.892	1	10
523.083	1	0
524.274	1	1
525.465	1	4
526.656	1	-4
527.847	1	5
529.038	1	3
530.229	1	6
531.419	1	-1
532.610	1	-1
533.801	1	9
534.991	1	0
536.182	1	5
537.373	1	6
538.563	1	11
539.754	1	6
540.944	1	-7
542.134	1	8
543.325	1	0
544.515	1	-11
545.705	1	8
546.896	1	7
548.086	1	-9
549.276	1	0
550.466	1	-5
551.656	1	10
552.846	1	9
554.036	1	-9
555.226	1	-5
556.416	1	-6
557.606	1	8
558.796	1	-2
559.986	1	-8
561.175	1	8
562.365	1	2
563.555	1	-3
564.744	1	3
565.934	1	12
567.123	1	-1
568.313	1	8
569.502	1	-1
570.692	1	-3
571.881	1	11
573.070	1	7
574.260	1	15
575.449	1	-4
576.638	1	-7
577.827	1	2
579.016	1	10
580.205	1	-8
581.394	1	1
582.583	1	6
583.772	1	8
584.961	1	2
586.150	1	-4
587.339	1	3
588.528	1	-1
589.717	1	7
590.905	1	-2
592.094	1	-2
593.283	1	-2
594.471	1	14
595.660	1	-7
596.848	1	-4
598.037	1	1
599.225	1	-5
600.413	1	9
601.602	1	8
602.790	1	2
603.978	1	-6
605.166	1	10
606.355	1	7
607.543	1	-4
608.731	1	5
609.919	1	8
611.107	1	-4
612.295	1	-9
613.483	1	0
614.671	1	5
615.858	1	4
617.046	1	5
618.234	1	-7
619.422	1	2
620.609	1	4
621.797	1	-7
622.985	1	0
624.172	1	2
625.360	1	-3
626.547	1	2
627.735	1	-8
628.922	1	9
630.109	1	-6
631.297	1	-3
632.484	1	-7
633.671	1	-4
634.858	1	-3
636.045	1	9
637.232	1	-2
638.419	1	0
639.606	1	5
640.793	1	10
641.980	1	4
643.167	1	-7
644.354	1	0
645.541	1	4
646.728	1	-3
647.914	1	-5
649.101	1	1
650.288	1	3
651.474	1	-5
652.661	1	-2
653.847	1	4
655.034	1	-2
656.220	1	-10
657.406	1	9
658.593	1	4
659.779	1	-1
660.965	1	11
662.152	1	1
663.338	1	12
664.524	1	0
665.710	1	3
666.896	1	-2
668.082	1	7
669.268	1	5
670.454	1	4
671.640	1	3
672.826	1	3
674.011	1	5
675.197	1	-7
676.383	1	-2
677.569	1	-6
678.754	1	-3
679.940	1	3
681.125	1	-7
682.311	1	9
683.496	1	2
684.682	1	-4
685.867	1	1
687.053	1	-4
688.238	1	7
688.746	1	-2