File: Data/GaN_200K_800ms/GaN_sample F_spot 12_UVVIS_200 K_200um_800 ms 2x2mm1_194.txt
340.368	1	7
341.565	1	-11
342.763	1	5
343.960	1	4
345.157	1	-1
346.354	1	4
347.552	1	-1
348.749	1	-6
349.946	1	0
351.143	1	8
352.340	1	7
353.537	1	6
354.734	1	12
355.931	1	11
357.127	1	-1
358.324	1	4
359.521	1	12
360.718	1	3
361.914	1	10
363.111	1	9
364.308	1	6
365.504	1	27
366.701	1	26
367.897	1	30
369.093	1	30
370.290	1	33
371.486	1	36
372.682	1	29
373.879	1	18
375.075	1	11
376.271	1	29
377.467	1	22
378.663	1	0
379.859	1	1
381.055	1	20
382.251	1	1
383.447	1	9
384.643	1	21
385.839	1	15
387.035	1	-1
388.230	1	18
389.426	1	1
390.622	1	1
391.817	1	10
393.013	1	0
394.208	1	7
395.404	1	-6
396.599	1	-3
397.795	1	-4
398.990	1	4
400.186	1	-2
401.381	1	2
402.576	1	0
403.771	1	-1
404.967	1	12
406.162	1	8
407.357	1	-6
408.552	1	6
409.747	1	6
410.942	1	5
412.137	1	7
413.332	1	2
414.526	1	3
415.721	1	-4
416.916	1	1
418.111	1	-6
419.305	1	1
420.500	1	-4
421.695	1	-4
422.889	1	-9
424.084	1	9
425.278	1	12
426.472	1	1
427.667	1	13
428.861	1	-1
430.055	1	3
431.250	1	-3
432.444	1	8
433.638	1	-7
434.832	1	3
436.026	1	-1
437.220	1	8
438.414	1	-5
439.608	1	-7
440.802	1	3
441.996	1	1
443.190	1	-1
444.384	1	-3
445.578	1	-9
446.771	1	12
447.965	1	3
449.159	1	-5
450.352	1	-5
451.546	1	1
452.739	1	4
453.933	1	2
455.126	1	-7
456.320	1	-1
457.513	1	5
458.706	1	-4
459.899	1	-5
461.093	1	2
462.286	1	4
463.479	1	-5
464.672	1	2
465.865	1	-2
467.058	1	4
468.251	1	-4
469.444	1	-6
470.637	1	2
471.830	1	0
473.023	1	-2
474.215	1	7
475.408	1	-7
476.601	1	0
477.793	1	-1
478.986	1	-5
480.179	1	-1
481.371	1	2
482.564	1	-5
483.756	1	15
484.948	1	-9
486.141	1	3
487.333	1	1
488.525	1	4
489.718	1	5
490.910	1	-1
492.102	1	-6
493.294	1	0
494.486	1	12
495.678	1	5
496.870	1	11
498.062	1	-3
499.254	1	-6
500.446	1	-9
501.638	1	-7
502.829	1	0
504.021	1	3
505.213	1	-4
506.404	1	4
507.596	1	4
508.788	1	10
509.979	1	-4
511.171	1	7
512.362	1	-1
513.553	1	-2
514.745	1	3
515.936	1	-3
517.127	1	2
518.319	1	6
519.510	1	2
520.701	1	14
521.892	1	9
523.083	1	-2
524.274	1	5
525.465	1	5
526.656	1	2
527.847	1	2
529.038	1	8
530.229	1	0
531.419	1	0
532.610	1	4
533.801	1	15
534.991	1	6
536.182	1	-2
537.373	1	-5
538.563	1	7
539.754	1	1
540.944	1	5
542.134	1	0
543.325	1	-4
544.515	1	4
545.705	1	2
546.896	1	8
548.086	1	3
549.276	1	-4
550.466	1	3
551.656	1	1
552.846	1	4
554.036	1	5
555.226	1	-1
556.416	1	3
557.606	1	7
558.796	1	0
559.986	1	-6
561.175	1	5
562.365	1	4
563.555	1	-5
564.744	1	13
565.934	1	20
567.123	1	1
568.313	1	16
569.502	1	1
570.692	1	11
571.881	1	10
573.070	1	3
574.260	1	6
575.449	1	3
576.638	1	0
577.827	1	5
579.016	1	18
580.205	1	-1
581.394	1	3
582.583	1	11
583.772	1	16
584.961	1	1
586.150	1	8
587.339	1	4
588.528	1	13
589.717	1	7
590.905	1	0
592.094	1	0
593.283	1	2
594.471	1	19
595.660	1	7
596.848	1	-2
598.037	1	5
599.225	1	-11
600.413	1	19
601.602	1	16
602.790	1	7
603.978	1	4
605.166	1	9
606.355	1	10
607.543	1	1
608.731	1	6
609.919	1	8
611.107	1	3
612.295	1	2
613.483	1	7
614.671	1	10
615.858	1	10
617.046	1	6
618.234	1	1
619.422	1	3
620.609	1	6
621.797	1	2
622.985	1	2
624.172	1	-6
625.360	1	-1
626.547	1	5
627.735	1	6
628.922	1	3
630.109	1	-2
631.297	1	3
632.484	1	-1
633.671	1	-8
634.858	1	-13
636.045	1	9
637.232	1	-2
638.419	1	1
639.606	1	3
640.793	1	6
641.980	1	6
643.167	1	-4
644.354	1	6
645.541	1	2
646.728	1	-5
647.914	1	-3
649.101	1	4
650.288	1	5
651.474	1	1
652.661	1	3
653.847	1	8
655.034	1	10
656.220	1	-4
657.406	1	6
658.593	1	-1
659.779	1	3
660.965	1	9
662.152	1	7
663.338	1	0
664.524	1	2
665.710	1	6
666.896	1	-10
668.082	1	9
669.268	1	-10
670.454	1	7
671.640	1	3
672.826	1	0
674.011	1	-9
675.197	1	-6
676.383	1	10
677.569	1	-5
678.754	1	0
679.940	1	-6
681.125	1	6
682.311	1	13
683.496	1	5
684.682	1	-7
685.867	1	6
687.053	1	-4
688.238	1	2
688.746	1	-11