File: Data/GaN_200K_800ms/GaN_sample F_spot 12_UVVIS_200 K_200um_800 ms 2x2mm1_232.txt
340.368	1	9
341.565	1	-5
342.763	1	-1
343.960	1	6
345.157	1	-10
346.354	1	0
347.552	1	-2
348.749	1	6
349.946	1	0
351.143	1	2
352.340	1	-5
353.537	1	6
354.734	1	2
355.931	1	1
357.127	1	1
358.324	1	1
359.521	1	10
360.718	1	2
361.914	1	7
363.111	1	10
364.308	1	5
365.504	1	23
366.701	1	18
367.897	1	17
369.093	1	29
370.290	1	30
371.486	1	24
372.682	1	27
373.879	1	12
375.075	1	16
376.271	1	16
377.467	1	18
378.663	1	5
379.859	1	5
381.055	1	17
382.251	1	2
383.447	1	5
384.643	1	12
385.839	1	2
387.035	1	1
388.230	1	6
389.426	1	7
390.622	1	-3
391.817	1	2
393.013	1	-1
394.208	1	4
395.404	1	-1
396.599	1	-7
397.795	1	5
398.990	1	-4
400.186	1	-3
401.381	1	-5
402.576	1	7
403.771	1	5
404.967	1	7
406.162	1	1
407.357	1	-4
408.552	1	-3
409.747	1	8
410.942	1	11
412.137	1	12
413.332	1	0
414.526	1	3
415.721	1	0
416.916	1	-4
418.111	1	-3
419.305	1	-3
420.500	1	-5
421.695	1	2
422.889	1	-6
424.084	1	-6
425.278	1	21
426.472	1	0
427.667	1	-1
428.861	1	-8
430.055	1	7
431.250	1	2
432.444	1	5
433.638	1	1
434.832	1	2
436.026	1	7
437.220	1	3
438.414	1	-9
439.608	1	-12
440.802	1	-6
441.996	1	4
443.190	1	3
444.384	1	-4
445.578	1	-7
446.771	1	9
447.965	1	-4
449.159	1	-14
450.352	1	-2
451.546	1	-8
452.739	1	2
453.933	1	-5
455.126	1	-4
456.320	1	-6
457.513	1	6
458.706	1	8
459.899	1	-7
461.093	1	4
462.286	1	0
463.479	1	0
464.672	1	0
465.865	1	-5
467.058	1	-4
468.251	1	4
469.444	1	-9
470.637	1	-2
471.830	1	0
473.023	1	1
474.215	1	25
475.408	1	-12
476.601	1	-2
477.793	1	2
478.986	1	-1
480.179	1	-2
481.371	1	-3
482.564	1	2
483.756	1	6
484.948	1	-12
486.141	1	0
487.333	1	-5
488.525	1	-4
489.718	1	-1
490.910	1	6
492.102	1	-2
493.294	1	1
494.486	1	5
495.678	1	-2
496.870	1	3
498.062	1	2
499.254	1	4
500.446	1	-12
501.638	1	-3
502.829	1	9
504.021	1	6
505.213	1	8
506.404	1	4
507.596	1	-1
508.788	1	17
509.979	1	7
511.171	1	4
512.362	1	1
513.553	1	-10
514.745	1	-4
515.936	1	-7
517.127	1	-2
518.319	1	7
519.510	1	2
520.701	1	6
521.892	1	9
523.083	1	2
524.274	1	-1
525.465	1	9
526.656	1	-4
527.847	1	-6
529.038	1	6
530.229	1	3
531.419	1	4
532.610	1	-3
533.801	1	18
534.991	1	8
536.182	1	-7
537.373	1	-1
538.563	1	3
539.754	1	8
540.944	1	-2
542.134	1	14
543.325	1	-2
544.515	1	-2
545.705	1	5
546.896	1	0
548.086	1	2
549.276	1	-2
550.466	1	4
551.656	1	13
552.846	1	16
554.036	1	-1
555.226	1	-11
556.416	1	-2
557.606	1	7
558.796	1	8
559.986	1	-3
561.175	1	0
562.365	1	2
563.555	1	2
564.744	1	2
565.934	1	3
567.123	1	8
568.313	1	7
569.502	1	8
570.692	1	13
571.881	1	8
573.070	1	-8
574.260	1	13
575.449	1	4
576.638	1	-6
577.827	1	3
579.016	1	14
580.205	1	5
581.394	1	0
582.583	1	23
583.772	1	4
584.961	1	10
586.150	1	2
587.339	1	2
588.528	1	9
589.717	1	3
590.905	1	2
592.094	1	1
593.283	1	4
594.471	1	9
595.660	1	1
596.848	1	7
598.037	1	-3
599.225	1	-7
600.413	1	8
601.602	1	7
602.790	1	1
603.978	1	-1
605.166	1	12
606.355	1	4
607.543	1	-3
608.731	1	6
609.919	1	13
611.107	1	-8
612.295	1	1
613.483	1	12
614.671	1	7
615.858	1	15
617.046	1	2
618.234	1	-2
619.422	1	-7
620.609	1	4
621.797	1	-1
622.985	1	12
624.172	1	5
625.360	1	-4
626.547	1	-5
627.735	1	7
628.922	1	4
630.109	1	-5
631.297	1	-3
632.484	1	2
633.671	1	-6
634.858	1	0
636.045	1	15
637.232	1	-2
638.419	1	-1
639.606	1	-1
640.793	1	16
641.980	1	5
643.167	1	2
644.354	1	10
645.541	1	-7
646.728	1	1
647.914	1	-3
649.101	1	1
650.288	1	13
651.474	1	4
652.661	1	0
653.847	1	10
655.034	1	2
656.220	1	-8
657.406	1	-1
658.593	1	10
659.779	1	5
660.965	1	4
662.152	1	9
663.338	1	5
664.524	1	6
665.710	1	3
666.896	1	-4
668.082	1	7
669.268	1	1
670.454	1	11
671.640	1	14
672.826	1	3
674.011	1	1
675.197	1	-1
676.383	1	-1
677.569	1	-4
678.754	1	-1
679.940	1	-1
681.125	1	11
682.311	1	12
683.496	1	7
684.682	1	-2
685.867	1	2
687.053	1	-2
688.238	1	16
688.746	1	2