File: Data/GaN_200K_800ms/GaN_sample F_spot 12_UVVIS_200 K_200um_800 ms 2x2mm1_75.txt
340.368	1	2
341.565	1	-8
342.763	1	8
343.960	1	6
345.157	1	-2
346.354	1	4
347.552	1	5
348.749	1	2
349.946	1	7
351.143	1	9
352.340	1	16
353.537	1	9
354.734	1	24
355.931	1	9
357.127	1	12
358.324	1	9
359.521	1	19
360.718	1	34
361.914	1	45
363.111	1	63
364.308	1	72
365.504	1	105
366.701	1	134
367.897	1	150
369.093	1	159
370.290	1	171
371.486	1	161
372.682	1	135
373.879	1	107
375.075	1	98
376.271	1	90
377.467	1	61
378.663	1	66
379.859	1	49
381.055	1	52
382.251	1	36
383.447	1	35
384.643	1	41
385.839	1	16
387.035	1	26
388.230	1	27
389.426	1	19
390.622	1	24
391.817	1	17
393.013	1	7
394.208	1	9
395.404	1	5
396.599	1	1
397.795	1	9
398.990	1	6
400.186	1	5
401.381	1	9
402.576	1	14
403.771	1	9
404.967	1	14
406.162	1	5
407.357	1	-5
408.552	1	4
409.747	1	6
410.942	1	14
412.137	1	10
413.332	1	7
414.526	1	4
415.721	1	-2
416.916	1	1
418.111	1	4
419.305	1	3
420.500	1	-3
421.695	1	1
422.889	1	-5
424.084	1	-2
425.278	1	9
426.472	1	1
427.667	1	15
428.861	1	-1
430.055	1	7
431.250	1	4
432.444	1	7
433.638	1	2
434.832	1	4
436.026	1	8
437.220	1	16
438.414	1	-4
439.608	1	-5
440.802	1	0
441.996	1	5
443.190	1	-6
444.384	1	-4
445.578	1	-11
446.771	1	12
447.965	1	6
449.159	1	5
450.352	1	5
451.546	1	-9
452.739	1	2
453.933	1	-3
455.126	1	9
456.320	1	1
457.513	1	13
458.706	1	5
459.899	1	1
461.093	1	10
462.286	1	-2
463.479	1	-8
464.672	1	3
465.865	1	2
467.058	1	5
468.251	1	4
469.444	1	1
470.637	1	5
471.830	1	-1
473.023	1	7
474.215	1	15
475.408	1	14
476.601	1	8
477.793	1	7
478.986	1	7
480.179	1	1
481.371	1	6
482.564	1	14
483.756	1	11
484.948	1	-1
486.141	1	0
487.333	1	5
488.525	1	5
489.718	1	5
490.910	1	-4
492.102	1	5
493.294	1	-6
494.486	1	1
495.678	1	7
496.870	1	11
498.062	1	12
499.254	1	11
500.446	1	2
501.638	1	1
502.829	1	10
504.021	1	16
505.213	1	19
506.404	1	16
507.596	1	10
508.788	1	27
509.979	1	3
511.171	1	4
512.362	1	0
513.553	1	-3
514.745	1	8
515.936	1	2
517.127	1	4
518.319	1	15
519.510	1	16
520.701	1	16
521.892	1	13
523.083	1	6
524.274	1	19
525.465	1	17
526.656	1	11
527.847	1	13
529.038	1	17
530.229	1	14
531.419	1	16
532.610	1	12
533.801	1	30
534.991	1	13
536.182	1	27
537.373	1	24
538.563	1	15
539.754	1	15
540.944	1	14
542.134	1	14
543.325	1	19
544.515	1	21
545.705	1	24
546.896	1	12
548.086	1	8
549.276	1	19
550.466	1	7
551.656	1	31
552.846	1	11
554.036	1	22
555.226	1	11
556.416	1	13
557.606	1	21
558.796	1	15
559.986	1	14
561.175	1	15
562.365	1	22
563.555	1	14
564.744	1	22
565.934	1	19
567.123	1	16
568.313	1	21
569.502	1	16
570.692	1	25
571.881	1	23
573.070	1	17
574.260	1	23
575.449	1	7
576.638	1	9
577.827	1	15
579.016	1	17
580.205	1	18
581.394	1	18
582.583	1	26
583.772	1	22
584.961	1	14
586.150	1	7
587.339	1	13
588.528	1	10
589.717	1	7
590.905	1	14
592.094	1	12
593.283	1	17
594.471	1	25
595.660	1	13
596.848	1	10
598.037	1	11
599.225	1	6
600.413	1	20
601.602	1	27
602.790	1	16
603.978	1	18
605.166	1	17
606.355	1	28
607.543	1	8
608.731	1	15
609.919	1	20
611.107	1	6
612.295	1	5
613.483	1	13
614.671	1	15
615.858	1	13
617.046	1	18
618.234	1	2
619.422	1	11
620.609	1	13
621.797	1	9
622.985	1	13
624.172	1	0
625.360	1	18
626.547	1	13
627.735	1	16
628.922	1	12
630.109	1	-3
631.297	1	12
632.484	1	15
633.671	1	-8
634.858	1	8
636.045	1	21
637.232	1	-3
638.419	1	14
639.606	1	10
640.793	1	9
641.980	1	9
643.167	1	7
644.354	1	14
645.541	1	9
646.728	1	6
647.914	1	-8
649.101	1	8
650.288	1	7
651.474	1	11
652.661	1	6
653.847	1	14
655.034	1	9
656.220	1	-4
657.406	1	5
658.593	1	15
659.779	1	4
660.965	1	7
662.152	1	14
663.338	1	12
664.524	1	11
665.710	1	2
666.896	1	2
668.082	1	1
669.268	1	-1
670.454	1	13
671.640	1	5
672.826	1	5
674.011	1	10
675.197	1	12
676.383	1	7
677.569	1	2
678.754	1	2
679.940	1	-2
681.125	1	14
682.311	1	11
683.496	1	9
684.682	1	0
685.867	1	8
687.053	1	15
688.238	1	8
688.746	1	1