File: Data/GaN_200K_800ms/GaN_sample F_spot 12_UVVIS_200 K_200um_800 ms 2x2mm1_55.txt
340.368	1	-1
341.565	1	-3
342.763	1	15
343.960	1	-6
345.157	1	-5
346.354	1	10
347.552	1	13
348.749	1	2
349.946	1	6
351.143	1	12
352.340	1	13
353.537	1	11
354.734	1	17
355.931	1	15
357.127	1	20
358.324	1	24
359.521	1	52
360.718	1	61
361.914	1	77
363.111	1	90
364.308	1	138
365.504	1	204
366.701	1	255
367.897	1	336
369.093	1	363
370.290	1	392
371.486	1	331
372.682	1	271
373.879	1	222
375.075	1	192
376.271	1	162
377.467	1	134
378.663	1	119
379.859	1	93
381.055	1	100
382.251	1	73
383.447	1	66
384.643	1	58
385.839	1	44
387.035	1	47
388.230	1	41
389.426	1	32
390.622	1	29
391.817	1	34
393.013	1	33
394.208	1	30
395.404	1	15
396.599	1	13
397.795	1	16
398.990	1	14
400.186	1	18
401.381	1	5
402.576	1	6
403.771	1	14
404.967	1	9
406.162	1	14
407.357	1	9
408.552	1	8
409.747	1	14
410.942	1	16
412.137	1	8
413.332	1	10
414.526	1	2
415.721	1	2
416.916	1	0
418.111	1	12
419.305	1	3
420.500	1	2
421.695	1	6
422.889	1	-4
424.084	1	8
425.278	1	14
426.472	1	2
427.667	1	8
428.861	1	1
430.055	1	11
431.250	1	6
432.444	1	12
433.638	1	5
434.832	1	7
436.026	1	12
437.220	1	10
438.414	1	-6
439.608	1	-6
440.802	1	1
441.996	1	10
443.190	1	2
444.384	1	-1
445.578	1	-6
446.771	1	11
447.965	1	6
449.159	1	0
450.352	1	7
451.546	1	10
452.739	1	10
453.933	1	-9
455.126	1	13
456.320	1	3
457.513	1	12
458.706	1	0
459.899	1	10
461.093	1	8
462.286	1	8
463.479	1	-7
464.672	1	-1
465.865	1	8
467.058	1	4
468.251	1	-1
469.444	1	0
470.637	1	6
471.830	1	-2
473.023	1	-1
474.215	1	25
475.408	1	2
476.601	1	14
477.793	1	3
478.986	1	-2
480.179	1	5
481.371	1	13
482.564	1	0
483.756	1	9
484.948	1	1
486.141	1	-2
487.333	1	17
488.525	1	12
489.718	1	12
490.910	1	13
492.102	1	4
493.294	1	8
494.486	1	13
495.678	1	13
496.870	1	12
498.062	1	11
499.254	1	7
500.446	1	5
501.638	1	8
502.829	1	13
504.021	1	14
505.213	1	27
506.404	1	20
507.596	1	21
508.788	1	25
509.979	1	16
511.171	1	9
512.362	1	8
513.553	1	4
514.745	1	16
515.936	1	24
517.127	1	9
518.319	1	19
519.510	1	16
520.701	1	17
521.892	1	26
523.083	1	32
524.274	1	29
525.465	1	44
526.656	1	29
527.847	1	28
529.038	1	26
530.229	1	29
531.419	1	32
532.610	1	32
533.801	1	44
534.991	1	34
536.182	1	34
537.373	1	38
538.563	1	31
539.754	1	32
540.944	1	20
542.134	1	21
543.325	1	30
544.515	1	30
545.705	1	23
546.896	1	33
548.086	1	39
549.276	1	29
550.466	1	37
551.656	1	38
552.846	1	37
554.036	1	39
555.226	1	33
556.416	1	23
557.606	1	37
558.796	1	30
559.986	1	32
561.175	1	30
562.365	1	34
563.555	1	31
564.744	1	37
565.934	1	44
567.123	1	35
568.313	1	36
569.502	1	24
570.692	1	43
571.881	1	41
573.070	1	35
574.260	1	31
575.449	1	33
576.638	1	21
577.827	1	28
579.016	1	35
580.205	1	29
581.394	1	30
582.583	1	38
583.772	1	42
584.961	1	25
586.150	1	28
587.339	1	40
588.528	1	25
589.717	1	31
590.905	1	29
592.094	1	32
593.283	1	24
594.471	1	35
595.660	1	16
596.848	1	32
598.037	1	23
599.225	1	18
600.413	1	29
601.602	1	29
602.790	1	26
603.978	1	16
605.166	1	36
606.355	1	26
607.543	1	34
608.731	1	26
609.919	1	32
611.107	1	20
612.295	1	16
613.483	1	31
614.671	1	18
615.858	1	27
617.046	1	34
618.234	1	30
619.422	1	12
620.609	1	21
621.797	1	15
622.985	1	23
624.172	1	11
625.360	1	18
626.547	1	18
627.735	1	5
628.922	1	22
630.109	1	10
631.297	1	23
632.484	1	10
633.671	1	20
634.858	1	19
636.045	1	22
637.232	1	6
638.419	1	4
639.606	1	27
640.793	1	24
641.980	1	9
643.167	1	6
644.354	1	19
645.541	1	15
646.728	1	8
647.914	1	11
649.101	1	7
650.288	1	16
651.474	1	7
652.661	1	4
653.847	1	16
655.034	1	8
656.220	1	4
657.406	1	15
658.593	1	10
659.779	1	11
660.965	1	19
662.152	1	18
663.338	1	9
664.524	1	9
665.710	1	16
666.896	1	4
668.082	1	17
669.268	1	6
670.454	1	16
671.640	1	7
672.826	1	4
674.011	1	15
675.197	1	-4
676.383	1	10
677.569	1	4
678.754	1	8
679.940	1	4
681.125	1	7
682.311	1	16
683.496	1	15
684.682	1	1
685.867	1	3
687.053	1	12
688.238	1	19
688.746	1	19