File: Data/GaN_200K_800ms/GaN_sample F_spot 12_UVVIS_200 K_200um_800 ms 2x2mm1_47.txt
340.368	1	14
341.565	1	-4
342.763	1	10
343.960	1	9
345.157	1	4
346.354	1	14
347.552	1	5
348.749	1	6
349.946	1	-3
351.143	1	7
352.340	1	18
353.537	1	16
354.734	1	21
355.931	1	28
357.127	1	28
358.324	1	37
359.521	1	69
360.718	1	77
361.914	1	110
363.111	1	155
364.308	1	208
365.504	1	321
366.701	1	411
367.897	1	563
369.093	1	636
370.290	1	621
371.486	1	571
372.682	1	456
373.879	1	385
375.075	1	317
376.271	1	290
377.467	1	233
378.663	1	177
379.859	1	154
381.055	1	124
382.251	1	101
383.447	1	98
384.643	1	95
385.839	1	82
387.035	1	69
388.230	1	56
389.426	1	52
390.622	1	42
391.817	1	39
393.013	1	34
394.208	1	38
395.404	1	22
396.599	1	27
397.795	1	27
398.990	1	29
400.186	1	20
401.381	1	12
402.576	1	16
403.771	1	18
404.967	1	13
406.162	1	7
407.357	1	8
408.552	1	5
409.747	1	18
410.942	1	11
412.137	1	12
413.332	1	7
414.526	1	16
415.721	1	8
416.916	1	2
418.111	1	6
419.305	1	10
420.500	1	5
421.695	1	6
422.889	1	-4
424.084	1	11
425.278	1	17
426.472	1	5
427.667	1	15
428.861	1	2
430.055	1	7
431.250	1	9
432.444	1	11
433.638	1	2
434.832	1	9
436.026	1	6
437.220	1	11
438.414	1	-9
439.608	1	-5
440.802	1	3
441.996	1	4
443.190	1	9
444.384	1	1
445.578	1	-3
446.771	1	14
447.965	1	4
449.159	1	-2
450.352	1	5
451.546	1	19
452.739	1	10
453.933	1	0
455.126	1	-3
456.320	1	-1
457.513	1	6
458.706	1	9
459.899	1	0
461.093	1	13
462.286	1	5
463.479	1	4
464.672	1	8
465.865	1	3
467.058	1	8
468.251	1	0
469.444	1	0
470.637	1	2
471.830	1	5
473.023	1	-1
474.215	1	13
475.408	1	7
476.601	1	7
477.793	1	1
478.986	1	1
480.179	1	6
481.371	1	2
482.564	1	10
483.756	1	17
484.948	1	-4
486.141	1	9
487.333	1	17
488.525	1	9
489.718	1	13
490.910	1	15
492.102	1	13
493.294	1	4
494.486	1	19
495.678	1	9
496.870	1	21
498.062	1	15
499.254	1	15
500.446	1	13
501.638	1	22
502.829	1	13
504.021	1	27
505.213	1	31
506.404	1	29
507.596	1	29
508.788	1	35
509.979	1	25
511.171	1	25
512.362	1	27
513.553	1	27
514.745	1	37
515.936	1	25
517.127	1	39
518.319	1	33
519.510	1	26
520.701	1	37
521.892	1	36
523.083	1	39
524.274	1	38
525.465	1	40
526.656	1	40
527.847	1	42
529.038	1	42
530.229	1	53
531.419	1	53
532.610	1	41
533.801	1	67
534.991	1	48
536.182	1	41
537.373	1	48
538.563	1	52
539.754	1	50
540.944	1	44
542.134	1	44
543.325	1	40
544.515	1	41
545.705	1	42
546.896	1	50
548.086	1	54
549.276	1	55
550.466	1	52
551.656	1	52
552.846	1	56
554.036	1	47
555.226	1	51
556.416	1	45
557.606	1	54
558.796	1	51
559.986	1	48
561.175	1	55
562.365	1	44
563.555	1	40
564.744	1	49
565.934	1	60
567.123	1	56
568.313	1	57
569.502	1	50
570.692	1	61
571.881	1	49
573.070	1	51
574.260	1	63
575.449	1	32
576.638	1	39
577.827	1	47
579.016	1	57
580.205	1	42
581.394	1	49
582.583	1	52
583.772	1	50
584.961	1	50
586.150	1	42
587.339	1	50
588.528	1	46
589.717	1	43
590.905	1	55
592.094	1	38
593.283	1	40
594.471	1	50
595.660	1	43
596.848	1	38
598.037	1	34
599.225	1	40
600.413	1	39
601.602	1	52
602.790	1	36
603.978	1	33
605.166	1	40
606.355	1	33
607.543	1	41
608.731	1	48
609.919	1	39
611.107	1	31
612.295	1	26
613.483	1	34
614.671	1	26
615.858	1	42
617.046	1	31
618.234	1	25
619.422	1	22
620.609	1	36
621.797	1	18
622.985	1	28
624.172	1	22
625.360	1	22
626.547	1	27
627.735	1	26
628.922	1	33
630.109	1	20
631.297	1	24
632.484	1	25
633.671	1	19
634.858	1	8
636.045	1	35
637.232	1	9
638.419	1	37
639.606	1	29
640.793	1	24
641.980	1	37
643.167	1	21
644.354	1	32
645.541	1	19
646.728	1	19
647.914	1	19
649.101	1	12
650.288	1	28
651.474	1	10
652.661	1	16
653.847	1	21
655.034	1	9
656.220	1	11
657.406	1	20
658.593	1	24
659.779	1	15
660.965	1	22
662.152	1	15
663.338	1	18
664.524	1	16
665.710	1	10
666.896	1	13
668.082	1	20
669.268	1	7
670.454	1	17
671.640	1	17
672.826	1	20
674.011	1	17
675.197	1	9
676.383	1	16
677.569	1	5
678.754	1	7
679.940	1	5
681.125	1	22
682.311	1	20
683.496	1	16
684.682	1	10
685.867	1	18
687.053	1	9
688.238	1	20
688.746	1	15