File: Data/GaN_200K_800ms/GaN_sample F_spot 12_UVVIS_200 K_200um_800 ms 2x2mm1_341.txt
340.368	1	5
341.565	1	-15
342.763	1	4
343.960	1	10
345.157	1	-11
346.354	1	-4
347.552	1	-1
348.749	1	-5
349.946	1	-8
351.143	1	-1
352.340	1	-1
353.537	1	-2
354.734	1	1
355.931	1	-6
357.127	1	-1
358.324	1	2
359.521	1	2
360.718	1	11
361.914	1	3
363.111	1	1
364.308	1	0
365.504	1	19
366.701	1	2
367.897	1	18
369.093	1	6
370.290	1	10
371.486	1	13
372.682	1	16
373.879	1	6
375.075	1	-1
376.271	1	11
377.467	1	-1
378.663	1	0
379.859	1	0
381.055	1	3
382.251	1	-2
383.447	1	0
384.643	1	14
385.839	1	-1
387.035	1	-3
388.230	1	1
389.426	1	7
390.622	1	0
391.817	1	0
393.013	1	-2
394.208	1	2
395.404	1	-8
396.599	1	-3
397.795	1	8
398.990	1	-5
400.186	1	1
401.381	1	-4
402.576	1	0
403.771	1	3
404.967	1	2
406.162	1	2
407.357	1	-7
408.552	1	-2
409.747	1	6
410.942	1	14
412.137	1	4
413.332	1	-9
414.526	1	0
415.721	1	-7
416.916	1	-1
418.111	1	8
419.305	1	-6
420.500	1	-1
421.695	1	-8
422.889	1	-1
424.084	1	-5
425.278	1	10
426.472	1	1
427.667	1	11
428.861	1	5
430.055	1	10
431.250	1	0
432.444	1	-4
433.638	1	7
434.832	1	5
436.026	1	7
437.220	1	5
438.414	1	-14
439.608	1	-10
440.802	1	0
441.996	1	-4
443.190	1	-4
444.384	1	-10
445.578	1	-8
446.771	1	10
447.965	1	7
449.159	1	-2
450.352	1	-2
451.546	1	-11
452.739	1	-1
453.933	1	-3
455.126	1	-12
456.320	1	-2
457.513	1	5
458.706	1	4
459.899	1	-5
461.093	1	1
462.286	1	0
463.479	1	0
464.672	1	-1
465.865	1	-2
467.058	1	4
468.251	1	-5
469.444	1	-8
470.637	1	4
471.830	1	2
473.023	1	3
474.215	1	6
475.408	1	-6
476.601	1	4
477.793	1	-1
478.986	1	-6
480.179	1	2
481.371	1	1
482.564	1	2
483.756	1	7
484.948	1	-14
486.141	1	-7
487.333	1	2
488.525	1	-4
489.718	1	-1
490.910	1	-1
492.102	1	-10
493.294	1	1
494.486	1	6
495.678	1	2
496.870	1	4
498.062	1	2
499.254	1	-7
500.446	1	-6
501.638	1	-2
502.829	1	-2
504.021	1	1
505.213	1	3
506.404	1	-8
507.596	1	-1
508.788	1	16
509.979	1	1
511.171	1	-3
512.362	1	-12
513.553	1	-10
514.745	1	-10
515.936	1	0
517.127	1	-2
518.319	1	-1
519.510	1	4
520.701	1	0
521.892	1	-4
523.083	1	0
524.274	1	-2
525.465	1	3
526.656	1	-1
527.847	1	0
529.038	1	9
530.229	1	0
531.419	1	6
532.610	1	-9
533.801	1	9
534.991	1	0
536.182	1	-4
537.373	1	-1
538.563	1	9
539.754	1	4
540.944	1	4
542.134	1	7
543.325	1	-3
544.515	1	-2
545.705	1	12
546.896	1	-1
548.086	1	5
549.276	1	-3
550.466	1	0
551.656	1	3
552.846	1	8
554.036	1	4
555.226	1	-1
556.416	1	5
557.606	1	6
558.796	1	0
559.986	1	-2
561.175	1	-4
562.365	1	-4
563.555	1	-9
564.744	1	5
565.934	1	6
567.123	1	11
568.313	1	1
569.502	1	1
570.692	1	9
571.881	1	9
573.070	1	1
574.260	1	3
575.449	1	-3
576.638	1	1
577.827	1	-5
579.016	1	9
580.205	1	-4
581.394	1	-4
582.583	1	8
583.772	1	6
584.961	1	-1
586.150	1	-3
587.339	1	-6
588.528	1	-1
589.717	1	3
590.905	1	-5
592.094	1	3
593.283	1	4
594.471	1	12
595.660	1	2
596.848	1	4
598.037	1	2
599.225	1	-8
600.413	1	13
601.602	1	11
602.790	1	5
603.978	1	0
605.166	1	3
606.355	1	9
607.543	1	5
608.731	1	-7
609.919	1	3
611.107	1	-1
612.295	1	-6
613.483	1	-8
614.671	1	3
615.858	1	0
617.046	1	0
618.234	1	7
619.422	1	-9
620.609	1	2
621.797	1	-8
622.985	1	7
624.172	1	0
625.360	1	-2
626.547	1	1
627.735	1	4
628.922	1	6
630.109	1	-6
631.297	1	1
632.484	1	-8
633.671	1	-3
634.858	1	-5
636.045	1	16
637.232	1	-1
638.419	1	6
639.606	1	5
640.793	1	5
641.980	1	5
643.167	1	-1
644.354	1	0
645.541	1	1
646.728	1	3
647.914	1	-5
649.101	1	-2
650.288	1	8
651.474	1	-3
652.661	1	9
653.847	1	8
655.034	1	1
656.220	1	-1
657.406	1	2
658.593	1	10
659.779	1	2
660.965	1	4
662.152	1	-1
663.338	1	10
664.524	1	1
665.710	1	-1
666.896	1	-9
668.082	1	4
669.268	1	-10
670.454	1	8
671.640	1	4
672.826	1	-2
674.011	1	-1
675.197	1	-11
676.383	1	0
677.569	1	-6
678.754	1	-6
679.940	1	-7
681.125	1	-2
682.311	1	5
683.496	1	0
684.682	1	-7
685.867	1	4
687.053	1	-7
688.238	1	0
688.746	1	0