File: Data/GaN_200K_800ms/GaN_sample F_spot 12_UVVIS_200 K_200um_800 ms 2x2mm1_9.txt
340.368	1	-4
341.565	1	-10
342.763	1	7
343.960	1	3
345.157	1	-1
346.354	1	-2
347.552	1	-5
348.749	1	-5
349.946	1	-6
351.143	1	4
352.340	1	9
353.537	1	-4
354.734	1	6
355.931	1	2
357.127	1	4
358.324	1	-5
359.521	1	6
360.718	1	3
361.914	1	6
363.111	1	-3
364.308	1	-4
365.504	1	1
366.701	1	-3
367.897	1	5
369.093	1	-13
370.290	1	0
371.486	1	12
372.682	1	15
373.879	1	-4
375.075	1	-12
376.271	1	2
377.467	1	-3
378.663	1	-8
379.859	1	3
381.055	1	5
382.251	1	-7
383.447	1	0
384.643	1	17
385.839	1	-3
387.035	1	0
388.230	1	5
389.426	1	2
390.622	1	-5
391.817	1	9
393.013	1	0
394.208	1	0
395.404	1	1
396.599	1	-7
397.795	1	-7
398.990	1	5
400.186	1	-2
401.381	1	-9
402.576	1	-3
403.771	1	4
404.967	1	6
406.162	1	4
407.357	1	-6
408.552	1	0
409.747	1	4
410.942	1	1
412.137	1	6
413.332	1	3
414.526	1	2
415.721	1	-5
416.916	1	-1
418.111	1	-2
419.305	1	8
420.500	1	-3
421.695	1	1
422.889	1	-4
424.084	1	-3
425.278	1	7
426.472	1	1
427.667	1	13
428.861	1	-5
430.055	1	6
431.250	1	-2
432.444	1	-1
433.638	1	7
434.832	1	12
436.026	1	5
437.220	1	4
438.414	1	3
439.608	1	-10
440.802	1	1
441.996	1	0
443.190	1	-1
444.384	1	-10
445.578	1	-1
446.771	1	19
447.965	1	9
449.159	1	2
450.352	1	0
451.546	1	-9
452.739	1	8
453.933	1	-4
455.126	1	-7
456.320	1	-3
457.513	1	10
458.706	1	6
459.899	1	10
461.093	1	-5
462.286	1	-5
463.479	1	-1
464.672	1	-3
465.865	1	2
467.058	1	0
468.251	1	0
469.444	1	-6
470.637	1	7
471.830	1	6
473.023	1	7
474.215	1	10
475.408	1	0
476.601	1	4
477.793	1	0
478.986	1	-7
480.179	1	-3
481.371	1	0
482.564	1	2
483.756	1	14
484.948	1	-2
486.141	1	-4
487.333	1	6
488.525	1	1
489.718	1	10
490.910	1	-4
492.102	1	-4
493.294	1	-5
494.486	1	10
495.678	1	3
496.870	1	1
498.062	1	-5
499.254	1	-9
500.446	1	-4
501.638	1	4
502.829	1	4
504.021	1	-3
505.213	1	4
506.404	1	3
507.596	1	-1
508.788	1	15
509.979	1	-3
511.171	1	-5
512.362	1	-1
513.553	1	-8
514.745	1	-7
515.936	1	2
517.127	1	-5
518.319	1	1
519.510	1	9
520.701	1	2
521.892	1	-2
523.083	1	-4
524.274	1	3
525.465	1	6
526.656	1	-11
527.847	1	6
529.038	1	0
530.229	1	4
531.419	1	1
532.610	1	-3
533.801	1	15
534.991	1	7
536.182	1	3
537.373	1	-1
538.563	1	3
539.754	1	0
540.944	1	-4
542.134	1	8
543.325	1	-2
544.515	1	2
545.705	1	2
546.896	1	-1
548.086	1	4
549.276	1	-1
550.466	1	9
551.656	1	-5
552.846	1	-6
554.036	1	-4
555.226	1	-9
556.416	1	-4
557.606	1	6
558.796	1	-2
559.986	1	-4
561.175	1	4
562.365	1	2
563.555	1	0
564.744	1	-4
565.934	1	6
567.123	1	0
568.313	1	9
569.502	1	-3
570.692	1	-6
571.881	1	8
573.070	1	9
574.260	1	11
575.449	1	-2
576.638	1	-6
577.827	1	-1
579.016	1	10
580.205	1	2
581.394	1	-4
582.583	1	5
583.772	1	6
584.961	1	-4
586.150	1	-1
587.339	1	2
588.528	1	7
589.717	1	3
590.905	1	-1
592.094	1	-1
593.283	1	-6
594.471	1	10
595.660	1	12
596.848	1	7
598.037	1	0
599.225	1	-6
600.413	1	7
601.602	1	11
602.790	1	-2
603.978	1	-2
605.166	1	7
606.355	1	-2
607.543	1	-5
608.731	1	5
609.919	1	13
611.107	1	0
612.295	1	-3
613.483	1	-7
614.671	1	3
615.858	1	-2
617.046	1	1
618.234	1	-5
619.422	1	-2
620.609	1	1
621.797	1	1
622.985	1	1
624.172	1	5
625.360	1	-2
626.547	1	9
627.735	1	-2
628.922	1	-1
630.109	1	-5
631.297	1	-2
632.484	1	-1
633.671	1	-3
634.858	1	-5
636.045	1	3
637.232	1	-2
638.419	1	-3
639.606	1	4
640.793	1	11
641.980	1	10
643.167	1	-14
644.354	1	5
645.541	1	2
646.728	1	0
647.914	1	-5
649.101	1	2
650.288	1	11
651.474	1	4
652.661	1	-2
653.847	1	12
655.034	1	0
656.220	1	-16
657.406	1	5
658.593	1	4
659.779	1	4
660.965	1	6
662.152	1	7
663.338	1	8
664.524	1	2
665.710	1	-1
666.896	1	-6
668.082	1	-2
669.268	1	-8
670.454	1	4
671.640	1	0
672.826	1	-5
674.011	1	-7
675.197	1	2
676.383	1	2
677.569	1	-1
678.754	1	-1
679.940	1	0
681.125	1	-1
682.311	1	0
683.496	1	11
684.682	1	-3
685.867	1	0
687.053	1	8
688.238	1	5
688.746	1	-7