File: Data/GaN_200K_800ms/GaN_sample F_spot 12_UVVIS_200 K_200um_800 ms 2x2mm1_478.txt
340.368	1	7
341.565	1	-9
342.763	1	3
343.960	1	3
345.157	1	-1
346.354	1	-2
347.552	1	-5
348.749	1	-10
349.946	1	-8
351.143	1	-2
352.340	1	0
353.537	1	0
354.734	1	2
355.931	1	-1
357.127	1	-8
358.324	1	-4
359.521	1	-2
360.718	1	3
361.914	1	6
363.111	1	-6
364.308	1	1
365.504	1	9
366.701	1	6
367.897	1	9
369.093	1	3
370.290	1	9
371.486	1	18
372.682	1	13
373.879	1	2
375.075	1	-1
376.271	1	13
377.467	1	3
378.663	1	2
379.859	1	-3
381.055	1	7
382.251	1	-1
383.447	1	-6
384.643	1	10
385.839	1	1
387.035	1	1
388.230	1	6
389.426	1	-3
390.622	1	-7
391.817	1	4
393.013	1	-4
394.208	1	-5
395.404	1	-7
396.599	1	-2
397.795	1	-6
398.990	1	2
400.186	1	7
401.381	1	3
402.576	1	-3
403.771	1	-6
404.967	1	-6
406.162	1	2
407.357	1	-4
408.552	1	-7
409.747	1	3
410.942	1	9
412.137	1	7
413.332	1	4
414.526	1	-1
415.721	1	-3
416.916	1	-12
418.111	1	2
419.305	1	-3
420.500	1	-4
421.695	1	4
422.889	1	-3
424.084	1	1
425.278	1	7
426.472	1	-10
427.667	1	7
428.861	1	-17
430.055	1	-6
431.250	1	-6
432.444	1	-1
433.638	1	-9
434.832	1	7
436.026	1	4
437.220	1	6
438.414	1	1
439.608	1	-4
440.802	1	-7
441.996	1	8
443.190	1	6
444.384	1	-8
445.578	1	-8
446.771	1	9
447.965	1	5
449.159	1	-5
450.352	1	-2
451.546	1	0
452.739	1	2
453.933	1	-5
455.126	1	-9
456.320	1	-3
457.513	1	4
458.706	1	-2
459.899	1	1
461.093	1	-2
462.286	1	3
463.479	1	-7
464.672	1	-7
465.865	1	1
467.058	1	0
468.251	1	-2
469.444	1	-3
470.637	1	-4
471.830	1	-3
473.023	1	-2
474.215	1	4
475.408	1	-7
476.601	1	1
477.793	1	-1
478.986	1	-1
480.179	1	6
481.371	1	1
482.564	1	-4
483.756	1	-3
484.948	1	-9
486.141	1	2
487.333	1	-3
488.525	1	-2
489.718	1	-1
490.910	1	-5
492.102	1	-1
493.294	1	-8
494.486	1	5
495.678	1	-4
496.870	1	-2
498.062	1	-4
499.254	1	-10
500.446	1	-10
501.638	1	3
502.829	1	3
504.021	1	0
505.213	1	12
506.404	1	2
507.596	1	-4
508.788	1	10
509.979	1	-12
511.171	1	-6
512.362	1	-3
513.553	1	-4
514.745	1	-9
515.936	1	4
517.127	1	6
518.319	1	0
519.510	1	-6
520.701	1	-3
521.892	1	0
523.083	1	5
524.274	1	-8
525.465	1	-2
526.656	1	-5
527.847	1	-4
529.038	1	3
530.229	1	2
531.419	1	-3
532.610	1	-6
533.801	1	14
534.991	1	-2
536.182	1	-10
537.373	1	-2
538.563	1	3
539.754	1	6
540.944	1	-5
542.134	1	3
543.325	1	-2
544.515	1	-3
545.705	1	-3
546.896	1	4
548.086	1	-3
549.276	1	1
550.466	1	2
551.656	1	2
552.846	1	1
554.036	1	1
555.226	1	-13
556.416	1	-15
557.606	1	3
558.796	1	-7
559.986	1	-2
561.175	1	0
562.365	1	3
563.555	1	-10
564.744	1	4
565.934	1	1
567.123	1	2
568.313	1	0
569.502	1	-3
570.692	1	2
571.881	1	8
573.070	1	-1
574.260	1	6
575.449	1	-7
576.638	1	-6
577.827	1	-3
579.016	1	4
580.205	1	2
581.394	1	3
582.583	1	13
583.772	1	13
584.961	1	8
586.150	1	-5
587.339	1	-2
588.528	1	8
589.717	1	-2
590.905	1	-5
592.094	1	-8
593.283	1	-1
594.471	1	0
595.660	1	-1
596.848	1	0
598.037	1	-5
599.225	1	-7
600.413	1	14
601.602	1	14
602.790	1	6
603.978	1	-1
605.166	1	4
606.355	1	-2
607.543	1	-4
608.731	1	0
609.919	1	7
611.107	1	-3
612.295	1	-5
613.483	1	7
614.671	1	-3
615.858	1	2
617.046	1	2
618.234	1	0
619.422	1	-9
620.609	1	0
621.797	1	-13
622.985	1	-6
624.172	1	-1
625.360	1	4
626.547	1	-6
627.735	1	1
628.922	1	6
630.109	1	-4
631.297	1	3
632.484	1	-5
633.671	1	4
634.858	1	1
636.045	1	13
637.232	1	-8
638.419	1	-1
639.606	1	3
640.793	1	11
641.980	1	0
643.167	1	-4
644.354	1	-7
645.541	1	-14
646.728	1	-10
647.914	1	-6
649.101	1	1
650.288	1	0
651.474	1	1
652.661	1	-2
653.847	1	7
655.034	1	-1
656.220	1	-4
657.406	1	3
658.593	1	-5
659.779	1	-1
660.965	1	5
662.152	1	0
663.338	1	15
664.524	1	1
665.710	1	0
666.896	1	-5
668.082	1	-1
669.268	1	0
670.454	1	0
671.640	1	0
672.826	1	3
674.011	1	5
675.197	1	-9
676.383	1	-1
677.569	1	-4
678.754	1	-5
679.940	1	-4
681.125	1	7
682.311	1	5
683.496	1	6
684.682	1	-1
685.867	1	0
687.053	1	-1
688.238	1	-3
688.746	1	3