File: Data/GaN_200K_800ms/GaN_sample F_spot 12_UVVIS_200 K_200um_800 ms 2x2mm1_25.txt
340.368	1	1
341.565	1	-11
342.763	1	4
343.960	1	4
345.157	1	-1
346.354	1	3
347.552	1	-5
348.749	1	4
349.946	1	-2
351.143	1	5
352.340	1	3
353.537	1	5
354.734	1	7
355.931	1	-6
357.127	1	-3
358.324	1	1
359.521	1	9
360.718	1	2
361.914	1	11
363.111	1	5
364.308	1	0
365.504	1	19
366.701	1	-6
367.897	1	3
369.093	1	0
370.290	1	-5
371.486	1	7
372.682	1	-7
373.879	1	-1
375.075	1	1
376.271	1	4
377.467	1	8
378.663	1	7
379.859	1	4
381.055	1	8
382.251	1	3
383.447	1	-4
384.643	1	9
385.839	1	-7
387.035	1	4
388.230	1	5
389.426	1	0
390.622	1	-3
391.817	1	2
393.013	1	3
394.208	1	3
395.404	1	-11
396.599	1	-4
397.795	1	-1
398.990	1	3
400.186	1	-2
401.381	1	-3
402.576	1	2
403.771	1	5
404.967	1	9
406.162	1	5
407.357	1	-1
408.552	1	-6
409.747	1	1
410.942	1	6
412.137	1	4
413.332	1	4
414.526	1	5
415.721	1	8
416.916	1	-5
418.111	1	12
419.305	1	0
420.500	1	9
421.695	1	-5
422.889	1	-10
424.084	1	5
425.278	1	0
426.472	1	12
427.667	1	5
428.861	1	1
430.055	1	4
431.250	1	0
432.444	1	0
433.638	1	-10
434.832	1	1
436.026	1	5
437.220	1	-1
438.414	1	-5
439.608	1	-4
440.802	1	3
441.996	1	1
443.190	1	5
444.384	1	-10
445.578	1	-4
446.771	1	13
447.965	1	4
449.159	1	0
450.352	1	-4
451.546	1	1
452.739	1	1
453.933	1	1
455.126	1	-4
456.320	1	0
457.513	1	8
458.706	1	3
459.899	1	-2
461.093	1	5
462.286	1	7
463.479	1	-4
464.672	1	0
465.865	1	0
467.058	1	4
468.251	1	-3
469.444	1	-5
470.637	1	2
471.830	1	-7
473.023	1	9
474.215	1	15
475.408	1	-1
476.601	1	-4
477.793	1	4
478.986	1	-2
480.179	1	8
481.371	1	10
482.564	1	1
483.756	1	12
484.948	1	-8
486.141	1	-5
487.333	1	7
488.525	1	1
489.718	1	-5
490.910	1	1
492.102	1	-6
493.294	1	1
494.486	1	3
495.678	1	1
496.870	1	1
498.062	1	-2
499.254	1	1
500.446	1	3
501.638	1	-5
502.829	1	1
504.021	1	1
505.213	1	4
506.404	1	8
507.596	1	1
508.788	1	11
509.979	1	4
511.171	1	-1
512.362	1	-3
513.553	1	-2
514.745	1	0
515.936	1	1
517.127	1	-5
518.319	1	-1
519.510	1	-8
520.701	1	-1
521.892	1	1
523.083	1	-6
524.274	1	-2
525.465	1	4
526.656	1	-2
527.847	1	14
529.038	1	3
530.229	1	3
531.419	1	-1
532.610	1	-1
533.801	1	11
534.991	1	5
536.182	1	0
537.373	1	2
538.563	1	9
539.754	1	5
540.944	1	-2
542.134	1	0
543.325	1	6
544.515	1	1
545.705	1	-1
546.896	1	-2
548.086	1	4
549.276	1	0
550.466	1	2
551.656	1	-1
552.846	1	1
554.036	1	3
555.226	1	-8
556.416	1	-4
557.606	1	1
558.796	1	-2
559.986	1	-3
561.175	1	1
562.365	1	-1
563.555	1	-6
564.744	1	4
565.934	1	10
567.123	1	8
568.313	1	5
569.502	1	-5
570.692	1	10
571.881	1	8
573.070	1	1
574.260	1	10
575.449	1	-4
576.638	1	-2
577.827	1	8
579.016	1	4
580.205	1	5
581.394	1	6
582.583	1	6
583.772	1	5
584.961	1	-3
586.150	1	-3
587.339	1	0
588.528	1	9
589.717	1	1
590.905	1	3
592.094	1	0
593.283	1	6
594.471	1	19
595.660	1	0
596.848	1	8
598.037	1	-4
599.225	1	-14
600.413	1	-4
601.602	1	9
602.790	1	0
603.978	1	-5
605.166	1	6
606.355	1	9
607.543	1	-1
608.731	1	10
609.919	1	6
611.107	1	2
612.295	1	-5
613.483	1	4
614.671	1	6
615.858	1	5
617.046	1	7
618.234	1	-1
619.422	1	-8
620.609	1	1
621.797	1	2
622.985	1	-1
624.172	1	1
625.360	1	3
626.547	1	5
627.735	1	1
628.922	1	17
630.109	1	-9
631.297	1	6
632.484	1	-4
633.671	1	5
634.858	1	1
636.045	1	14
637.232	1	2
638.419	1	5
639.606	1	2
640.793	1	8
641.980	1	6
643.167	1	-3
644.354	1	6
645.541	1	-1
646.728	1	0
647.914	1	-4
649.101	1	-1
650.288	1	1
651.474	1	-9
652.661	1	-7
653.847	1	6
655.034	1	8
656.220	1	-1
657.406	1	7
658.593	1	5
659.779	1	7
660.965	1	13
662.152	1	4
663.338	1	12
664.524	1	2
665.710	1	7
666.896	1	-5
668.082	1	7
669.268	1	2
670.454	1	11
671.640	1	2
672.826	1	-2
674.011	1	-5
675.197	1	-6
676.383	1	2
677.569	1	-6
678.754	1	-5
679.940	1	4
681.125	1	6
682.311	1	2
683.496	1	11
684.682	1	-5
685.867	1	-3
687.053	1	9
688.238	1	12
688.746	1	5