File: Data/GaN_200K_800ms/GaN_sample F_spot 12_UVVIS_200 K_200um_800 ms 2x2mm1_82.txt
340.368	1	8
341.565	1	-3
342.763	1	10
343.960	1	2
345.157	1	1
346.354	1	9
347.552	1	4
348.749	1	2
349.946	1	-4
351.143	1	-1
352.340	1	5
353.537	1	4
354.734	1	19
355.931	1	9
357.127	1	17
358.324	1	6
359.521	1	27
360.718	1	34
361.914	1	33
363.111	1	49
364.308	1	63
365.504	1	82
366.701	1	100
367.897	1	115
369.093	1	142
370.290	1	139
371.486	1	127
372.682	1	115
373.879	1	98
375.075	1	79
376.271	1	76
377.467	1	59
378.663	1	54
379.859	1	51
381.055	1	43
382.251	1	35
383.447	1	28
384.643	1	37
385.839	1	24
387.035	1	10
388.230	1	24
389.426	1	9
390.622	1	16
391.817	1	20
393.013	1	7
394.208	1	5
395.404	1	8
396.599	1	3
397.795	1	7
398.990	1	15
400.186	1	3
401.381	1	-6
402.576	1	4
403.771	1	9
404.967	1	7
406.162	1	13
407.357	1	10
408.552	1	2
409.747	1	4
410.942	1	9
412.137	1	9
413.332	1	8
414.526	1	2
415.721	1	1
416.916	1	1
418.111	1	4
419.305	1	7
420.500	1	2
421.695	1	-4
422.889	1	0
424.084	1	3
425.278	1	7
426.472	1	4
427.667	1	13
428.861	1	4
430.055	1	8
431.250	1	0
432.444	1	10
433.638	1	12
434.832	1	2
436.026	1	6
437.220	1	5
438.414	1	-1
439.608	1	-2
440.802	1	-3
441.996	1	12
443.190	1	7
444.384	1	-9
445.578	1	-14
446.771	1	8
447.965	1	8
449.159	1	-2
450.352	1	6
451.546	1	-2
452.739	1	5
453.933	1	0
455.126	1	-3
456.320	1	-1
457.513	1	10
458.706	1	9
459.899	1	-2
461.093	1	6
462.286	1	4
463.479	1	1
464.672	1	-4
465.865	1	3
467.058	1	10
468.251	1	6
469.444	1	4
470.637	1	1
471.830	1	2
473.023	1	10
474.215	1	9
475.408	1	-7
476.601	1	-2
477.793	1	5
478.986	1	-3
480.179	1	14
481.371	1	3
482.564	1	6
483.756	1	8
484.948	1	3
486.141	1	-2
487.333	1	-2
488.525	1	-4
489.718	1	0
490.910	1	6
492.102	1	2
493.294	1	0
494.486	1	10
495.678	1	5
496.870	1	15
498.062	1	-1
499.254	1	6
500.446	1	0
501.638	1	1
502.829	1	9
504.021	1	4
505.213	1	14
506.404	1	6
507.596	1	3
508.788	1	16
509.979	1	8
511.171	1	6
512.362	1	3
513.553	1	-7
514.745	1	9
515.936	1	6
517.127	1	11
518.319	1	13
519.510	1	10
520.701	1	16
521.892	1	16
523.083	1	8
524.274	1	8
525.465	1	20
526.656	1	13
527.847	1	12
529.038	1	14
530.229	1	13
531.419	1	10
532.610	1	12
533.801	1	18
534.991	1	19
536.182	1	19
537.373	1	12
538.563	1	16
539.754	1	22
540.944	1	12
542.134	1	21
543.325	1	4
544.515	1	4
545.705	1	6
546.896	1	11
548.086	1	11
549.276	1	5
550.466	1	16
551.656	1	14
552.846	1	23
554.036	1	22
555.226	1	4
556.416	1	8
557.606	1	16
558.796	1	12
559.986	1	6
561.175	1	23
562.365	1	8
563.555	1	18
564.744	1	11
565.934	1	28
567.123	1	13
568.313	1	18
569.502	1	9
570.692	1	27
571.881	1	38
573.070	1	8
574.260	1	24
575.449	1	13
576.638	1	19
577.827	1	13
579.016	1	18
580.205	1	4
581.394	1	4
582.583	1	27
583.772	1	30
584.961	1	15
586.150	1	13
587.339	1	22
588.528	1	17
589.717	1	15
590.905	1	10
592.094	1	11
593.283	1	12
594.471	1	22
595.660	1	15
596.848	1	17
598.037	1	16
599.225	1	4
600.413	1	24
601.602	1	21
602.790	1	10
603.978	1	6
605.166	1	14
606.355	1	10
607.543	1	18
608.731	1	15
609.919	1	12
611.107	1	18
612.295	1	17
613.483	1	4
614.671	1	14
615.858	1	13
617.046	1	11
618.234	1	7
619.422	1	2
620.609	1	13
621.797	1	4
622.985	1	9
624.172	1	3
625.360	1	7
626.547	1	0
627.735	1	17
628.922	1	14
630.109	1	0
631.297	1	12
632.484	1	3
633.671	1	13
634.858	1	8
636.045	1	14
637.232	1	6
638.419	1	6
639.606	1	11
640.793	1	12
641.980	1	15
643.167	1	4
644.354	1	4
645.541	1	11
646.728	1	12
647.914	1	0
649.101	1	8
650.288	1	8
651.474	1	2
652.661	1	5
653.847	1	18
655.034	1	11
656.220	1	-8
657.406	1	17
658.593	1	11
659.779	1	7
660.965	1	5
662.152	1	12
663.338	1	14
664.524	1	9
665.710	1	2
666.896	1	-1
668.082	1	6
669.268	1	3
670.454	1	10
671.640	1	8
672.826	1	9
674.011	1	2
675.197	1	6
676.383	1	9
677.569	1	-1
678.754	1	4
679.940	1	0
681.125	1	8
682.311	1	14
683.496	1	5
684.682	1	8
685.867	1	-1
687.053	1	6
688.238	1	5
688.746	1	7