File: Data/GaN_200K_800ms/GaN_sample F_spot 12_UVVIS_200 K_200um_800 ms 2x2mm1_472.txt
340.368	1	5
341.565	1	-12
342.763	1	-5
343.960	1	0
345.157	1	-3
346.354	1	-8
347.552	1	2
348.749	1	-4
349.946	1	-17
351.143	1	1
352.340	1	2
353.537	1	-5
354.734	1	10
355.931	1	-3
357.127	1	2
358.324	1	6
359.521	1	-1
360.718	1	-6
361.914	1	2
363.111	1	8
364.308	1	1
365.504	1	14
366.701	1	4
367.897	1	5
369.093	1	-6
370.290	1	5
371.486	1	11
372.682	1	5
373.879	1	3
375.075	1	4
376.271	1	10
377.467	1	-1
378.663	1	-5
379.859	1	3
381.055	1	10
382.251	1	-7
383.447	1	0
384.643	1	9
385.839	1	-3
387.035	1	-1
388.230	1	-1
389.426	1	-7
390.622	1	-8
391.817	1	-10
393.013	1	-5
394.208	1	-6
395.404	1	-4
396.599	1	2
397.795	1	-4
398.990	1	3
400.186	1	1
401.381	1	-4
402.576	1	-3
403.771	1	2
404.967	1	7
406.162	1	6
407.357	1	-9
408.552	1	-10
409.747	1	1
410.942	1	6
412.137	1	1
413.332	1	6
414.526	1	-6
415.721	1	-1
416.916	1	-3
418.111	1	3
419.305	1	-4
420.500	1	-3
421.695	1	-4
422.889	1	-9
424.084	1	-1
425.278	1	13
426.472	1	-8
427.667	1	6
428.861	1	9
430.055	1	-2
431.250	1	-8
432.444	1	-1
433.638	1	-1
434.832	1	4
436.026	1	-4
437.220	1	5
438.414	1	-12
439.608	1	-2
440.802	1	-6
441.996	1	5
443.190	1	1
444.384	1	-8
445.578	1	-15
446.771	1	11
447.965	1	3
449.159	1	-1
450.352	1	-2
451.546	1	-2
452.739	1	0
453.933	1	-3
455.126	1	-2
456.320	1	-14
457.513	1	5
458.706	1	3
459.899	1	2
461.093	1	-6
462.286	1	0
463.479	1	-10
464.672	1	-1
465.865	1	-3
467.058	1	2
468.251	1	1
469.444	1	0
470.637	1	-1
471.830	1	-6
473.023	1	-1
474.215	1	9
475.408	1	-4
476.601	1	1
477.793	1	-3
478.986	1	-8
480.179	1	6
481.371	1	1
482.564	1	-2
483.756	1	4
484.948	1	-14
486.141	1	-6
487.333	1	-3
488.525	1	6
489.718	1	-2
490.910	1	-2
492.102	1	-10
493.294	1	0
494.486	1	11
495.678	1	-4
496.870	1	12
498.062	1	1
499.254	1	-12
500.446	1	0
501.638	1	-10
502.829	1	8
504.021	1	2
505.213	1	6
506.404	1	1
507.596	1	0
508.788	1	14
509.979	1	-5
511.171	1	-2
512.362	1	-4
513.553	1	-13
514.745	1	1
515.936	1	-4
517.127	1	-3
518.319	1	-3
519.510	1	3
520.701	1	-10
521.892	1	-2
523.083	1	-9
524.274	1	6
525.465	1	0
526.656	1	-5
527.847	1	-3
529.038	1	2
530.229	1	2
531.419	1	-1
532.610	1	2
533.801	1	11
534.991	1	-1
536.182	1	3
537.373	1	4
538.563	1	10
539.754	1	6
540.944	1	0
542.134	1	9
543.325	1	-8
544.515	1	-4
545.705	1	-8
546.896	1	4
548.086	1	-8
549.276	1	-1
550.466	1	7
551.656	1	-3
552.846	1	1
554.036	1	1
555.226	1	-9
556.416	1	4
557.606	1	-2
558.796	1	-2
559.986	1	-8
561.175	1	-1
562.365	1	1
563.555	1	0
564.744	1	-11
565.934	1	8
567.123	1	1
568.313	1	6
569.502	1	-8
570.692	1	4
571.881	1	7
573.070	1	-3
574.260	1	1
575.449	1	3
576.638	1	-5
577.827	1	2
579.016	1	-2
580.205	1	-6
581.394	1	4
582.583	1	9
583.772	1	5
584.961	1	2
586.150	1	-3
587.339	1	-8
588.528	1	5
589.717	1	4
590.905	1	4
592.094	1	-3
593.283	1	7
594.471	1	9
595.660	1	-6
596.848	1	0
598.037	1	5
599.225	1	-10
600.413	1	5
601.602	1	7
602.790	1	-4
603.978	1	-4
605.166	1	2
606.355	1	3
607.543	1	0
608.731	1	7
609.919	1	7
611.107	1	-6
612.295	1	0
613.483	1	-1
614.671	1	9
615.858	1	4
617.046	1	-2
618.234	1	-2
619.422	1	-6
620.609	1	5
621.797	1	-7
622.985	1	10
624.172	1	-9
625.360	1	-2
626.547	1	-6
627.735	1	-2
628.922	1	1
630.109	1	-11
631.297	1	4
632.484	1	-7
633.671	1	-9
634.858	1	-9
636.045	1	12
637.232	1	-4
638.419	1	-9
639.606	1	5
640.793	1	0
641.980	1	3
643.167	1	-3
644.354	1	-12
645.541	1	-9
646.728	1	-2
647.914	1	-10
649.101	1	1
650.288	1	-2
651.474	1	-2
652.661	1	4
653.847	1	9
655.034	1	-2
656.220	1	-2
657.406	1	2
658.593	1	4
659.779	1	5
660.965	1	5
662.152	1	-2
663.338	1	8
664.524	1	-2
665.710	1	0
666.896	1	-11
668.082	1	0
669.268	1	0
670.454	1	-1
671.640	1	3
672.826	1	-1
674.011	1	-2
675.197	1	-7
676.383	1	-1
677.569	1	-2
678.754	1	-10
679.940	1	-4
681.125	1	7
682.311	1	4
683.496	1	-2
684.682	1	-6
685.867	1	-2
687.053	1	1
688.238	1	-4
688.746	1	-1