File: Data/GaN_200K_800ms/GaN_sample F_spot 12_UVVIS_200 K_200um_800 ms 2x2mm1_502.txt
340.368	1	3
341.565	1	-11
342.763	1	3
343.960	1	-10
345.157	1	-7
346.354	1	-1
347.552	1	-13
348.749	1	-3
349.946	1	-6
351.143	1	-1
352.340	1	-1
353.537	1	-7
354.734	1	8
355.931	1	-7
357.127	1	0
358.324	1	4
359.521	1	3
360.718	1	1
361.914	1	4
363.111	1	-1
364.308	1	4
365.504	1	7
366.701	1	4
367.897	1	1
369.093	1	4
370.290	1	3
371.486	1	7
372.682	1	1
373.879	1	-5
375.075	1	-13
376.271	1	12
377.467	1	8
378.663	1	-3
379.859	1	0
381.055	1	-5
382.251	1	-8
383.447	1	-2
384.643	1	4
385.839	1	-4
387.035	1	-1
388.230	1	7
389.426	1	-1
390.622	1	3
391.817	1	2
393.013	1	-4
394.208	1	6
395.404	1	-2
396.599	1	-8
397.795	1	2
398.990	1	-5
400.186	1	-9
401.381	1	-2
402.576	1	-3
403.771	1	-3
404.967	1	-2
406.162	1	-4
407.357	1	1
408.552	1	-8
409.747	1	1
410.942	1	0
412.137	1	0
413.332	1	-10
414.526	1	-2
415.721	1	-12
416.916	1	-11
418.111	1	-2
419.305	1	-2
420.500	1	-3
421.695	1	-2
422.889	1	-13
424.084	1	2
425.278	1	7
426.472	1	-2
427.667	1	4
428.861	1	0
430.055	1	-4
431.250	1	-5
432.444	1	0
433.638	1	-8
434.832	1	0
436.026	1	1
437.220	1	1
438.414	1	-9
439.608	1	-9
440.802	1	-3
441.996	1	2
443.190	1	4
444.384	1	-12
445.578	1	-5
446.771	1	10
447.965	1	-1
449.159	1	-9
450.352	1	3
451.546	1	-1
452.739	1	7
453.933	1	-3
455.126	1	-5
456.320	1	0
457.513	1	3
458.706	1	-3
459.899	1	-8
461.093	1	10
462.286	1	-5
463.479	1	-5
464.672	1	-6
465.865	1	-8
467.058	1	0
468.251	1	-3
469.444	1	1
470.637	1	-1
471.830	1	-3
473.023	1	3
474.215	1	7
475.408	1	3
476.601	1	-3
477.793	1	-6
478.986	1	0
480.179	1	-8
481.371	1	3
482.564	1	0
483.756	1	3
484.948	1	-15
486.141	1	2
487.333	1	-6
488.525	1	-1
489.718	1	2
490.910	1	-4
492.102	1	-10
493.294	1	-9
494.486	1	0
495.678	1	-4
496.870	1	-1
498.062	1	-2
499.254	1	-4
500.446	1	-8
501.638	1	-2
502.829	1	-11
504.021	1	0
505.213	1	2
506.404	1	-1
507.596	1	4
508.788	1	4
509.979	1	-3
511.171	1	-9
512.362	1	-2
513.553	1	-11
514.745	1	-8
515.936	1	-3
517.127	1	-6
518.319	1	0
519.510	1	-1
520.701	1	-1
521.892	1	-4
523.083	1	3
524.274	1	-1
525.465	1	-3
526.656	1	0
527.847	1	7
529.038	1	-2
530.229	1	-1
531.419	1	0
532.610	1	-8
533.801	1	16
534.991	1	3
536.182	1	4
537.373	1	4
538.563	1	5
539.754	1	8
540.944	1	-9
542.134	1	7
543.325	1	9
544.515	1	-2
545.705	1	-6
546.896	1	4
548.086	1	-1
549.276	1	-7
550.466	1	1
551.656	1	1
552.846	1	2
554.036	1	-5
555.226	1	-4
556.416	1	-14
557.606	1	0
558.796	1	-1
559.986	1	-12
561.175	1	2
562.365	1	2
563.555	1	-7
564.744	1	5
565.934	1	8
567.123	1	4
568.313	1	1
569.502	1	-4
570.692	1	4
571.881	1	2
573.070	1	1
574.260	1	1
575.449	1	-3
576.638	1	-3
577.827	1	-5
579.016	1	-2
580.205	1	-6
581.394	1	-5
582.583	1	14
583.772	1	4
584.961	1	-4
586.150	1	-5
587.339	1	-5
588.528	1	6
589.717	1	-4
590.905	1	1
592.094	1	4
593.283	1	8
594.471	1	2
595.660	1	6
596.848	1	-5
598.037	1	2
599.225	1	-10
600.413	1	8
601.602	1	12
602.790	1	-4
603.978	1	-2
605.166	1	6
606.355	1	0
607.543	1	-3
608.731	1	5
609.919	1	9
611.107	1	-1
612.295	1	-4
613.483	1	-3
614.671	1	4
615.858	1	4
617.046	1	6
618.234	1	-2
619.422	1	-7
620.609	1	4
621.797	1	-7
622.985	1	3
624.172	1	-3
625.360	1	4
626.547	1	1
627.735	1	-7
628.922	1	3
630.109	1	-14
631.297	1	4
632.484	1	-9
633.671	1	-4
634.858	1	-6
636.045	1	7
637.232	1	-2
638.419	1	-6
639.606	1	5
640.793	1	5
641.980	1	8
643.167	1	0
644.354	1	-1
645.541	1	-4
646.728	1	2
647.914	1	-7
649.101	1	-8
650.288	1	-5
651.474	1	-1
652.661	1	7
653.847	1	2
655.034	1	-3
656.220	1	-7
657.406	1	10
658.593	1	3
659.779	1	5
660.965	1	5
662.152	1	-4
663.338	1	-2
664.524	1	-6
665.710	1	1
666.896	1	-3
668.082	1	4
669.268	1	-1
670.454	1	4
671.640	1	4
672.826	1	0
674.011	1	-4
675.197	1	-4
676.383	1	-1
677.569	1	1
678.754	1	-8
679.940	1	-7
681.125	1	-2
682.311	1	4
683.496	1	-3
684.682	1	-9
685.867	1	-5
687.053	1	-7
688.238	1	4
688.746	1	-2