File: Data/GaN_200K_800ms/GaN_sample F_spot 12_UVVIS_200 K_200um_800 ms 2x2mm1_92.txt
340.368	1	4
341.565	1	-2
342.763	1	2
343.960	1	5
345.157	1	-3
346.354	1	5
347.552	1	1
348.749	1	-8
349.946	1	0
351.143	1	10
352.340	1	4
353.537	1	5
354.734	1	9
355.931	1	4
357.127	1	10
358.324	1	17
359.521	1	14
360.718	1	23
361.914	1	41
363.111	1	31
364.308	1	55
365.504	1	72
366.701	1	79
367.897	1	91
369.093	1	107
370.290	1	112
371.486	1	106
372.682	1	103
373.879	1	67
375.075	1	69
376.271	1	70
377.467	1	50
378.663	1	37
379.859	1	32
381.055	1	37
382.251	1	28
383.447	1	26
384.643	1	26
385.839	1	13
387.035	1	15
388.230	1	26
389.426	1	7
390.622	1	7
391.817	1	15
393.013	1	-4
394.208	1	11
395.404	1	7
396.599	1	3
397.795	1	5
398.990	1	9
400.186	1	6
401.381	1	-2
402.576	1	0
403.771	1	10
404.967	1	9
406.162	1	3
407.357	1	2
408.552	1	-1
409.747	1	-2
410.942	1	13
412.137	1	5
413.332	1	1
414.526	1	8
415.721	1	7
416.916	1	-3
418.111	1	12
419.305	1	8
420.500	1	0
421.695	1	-3
422.889	1	-3
424.084	1	7
425.278	1	6
426.472	1	5
427.667	1	7
428.861	1	2
430.055	1	8
431.250	1	-3
432.444	1	14
433.638	1	6
434.832	1	11
436.026	1	11
437.220	1	5
438.414	1	-4
439.608	1	-5
440.802	1	0
441.996	1	8
443.190	1	3
444.384	1	-8
445.578	1	-2
446.771	1	4
447.965	1	2
449.159	1	4
450.352	1	2
451.546	1	-2
452.739	1	3
453.933	1	1
455.126	1	-2
456.320	1	2
457.513	1	12
458.706	1	2
459.899	1	0
461.093	1	7
462.286	1	0
463.479	1	-3
464.672	1	-4
465.865	1	-2
467.058	1	1
468.251	1	5
469.444	1	-3
470.637	1	-3
471.830	1	6
473.023	1	1
474.215	1	17
475.408	1	4
476.601	1	6
477.793	1	-4
478.986	1	1
480.179	1	7
481.371	1	4
482.564	1	3
483.756	1	11
484.948	1	-7
486.141	1	5
487.333	1	-1
488.525	1	5
489.718	1	-4
490.910	1	1
492.102	1	-7
493.294	1	2
494.486	1	9
495.678	1	-1
496.870	1	6
498.062	1	2
499.254	1	9
500.446	1	1
501.638	1	1
502.829	1	0
504.021	1	8
505.213	1	5
506.404	1	14
507.596	1	11
508.788	1	19
509.979	1	8
511.171	1	-2
512.362	1	6
513.553	1	-1
514.745	1	3
515.936	1	2
517.127	1	0
518.319	1	5
519.510	1	12
520.701	1	13
521.892	1	9
523.083	1	6
524.274	1	8
525.465	1	13
526.656	1	9
527.847	1	15
529.038	1	10
530.229	1	9
531.419	1	19
532.610	1	-4
533.801	1	21
534.991	1	14
536.182	1	10
537.373	1	19
538.563	1	10
539.754	1	16
540.944	1	6
542.134	1	9
543.325	1	13
544.515	1	5
545.705	1	11
546.896	1	11
548.086	1	9
549.276	1	10
550.466	1	25
551.656	1	15
552.846	1	15
554.036	1	12
555.226	1	9
556.416	1	6
557.606	1	25
558.796	1	8
559.986	1	12
561.175	1	17
562.365	1	17
563.555	1	5
564.744	1	20
565.934	1	17
567.123	1	14
568.313	1	18
569.502	1	8
570.692	1	17
571.881	1	26
573.070	1	7
574.260	1	20
575.449	1	9
576.638	1	4
577.827	1	10
579.016	1	27
580.205	1	12
581.394	1	6
582.583	1	14
583.772	1	21
584.961	1	19
586.150	1	15
587.339	1	11
588.528	1	17
589.717	1	14
590.905	1	20
592.094	1	14
593.283	1	9
594.471	1	21
595.660	1	8
596.848	1	7
598.037	1	7
599.225	1	2
600.413	1	20
601.602	1	14
602.790	1	16
603.978	1	12
605.166	1	21
606.355	1	8
607.543	1	9
608.731	1	7
609.919	1	14
611.107	1	0
612.295	1	5
613.483	1	10
614.671	1	10
615.858	1	18
617.046	1	10
618.234	1	3
619.422	1	5
620.609	1	6
621.797	1	12
622.985	1	8
624.172	1	11
625.360	1	2
626.547	1	10
627.735	1	15
628.922	1	16
630.109	1	-4
631.297	1	3
632.484	1	0
633.671	1	7
634.858	1	3
636.045	1	16
637.232	1	-2
638.419	1	2
639.606	1	11
640.793	1	21
641.980	1	9
643.167	1	4
644.354	1	7
645.541	1	-1
646.728	1	4
647.914	1	5
649.101	1	4
650.288	1	12
651.474	1	-5
652.661	1	2
653.847	1	13
655.034	1	7
656.220	1	5
657.406	1	1
658.593	1	14
659.779	1	1
660.965	1	10
662.152	1	12
663.338	1	6
664.524	1	5
665.710	1	8
666.896	1	4
668.082	1	10
669.268	1	5
670.454	1	0
671.640	1	4
672.826	1	16
674.011	1	1
675.197	1	-4
676.383	1	8
677.569	1	-2
678.754	1	2
679.940	1	-2
681.125	1	12
682.311	1	9
683.496	1	6
684.682	1	-2
685.867	1	8
687.053	1	10
688.238	1	10
688.746	1	0