File: Data/GaN_200K_800ms/GaN_sample F_spot 12_UVVIS_200 K_200um_800 ms 2x2mm1_285.txt
340.368	1	6
341.565	1	-7
342.763	1	0
343.960	1	0
345.157	1	-7
346.354	1	3
347.552	1	0
348.749	1	-13
349.946	1	-16
351.143	1	-3
352.340	1	5
353.537	1	1
354.734	1	9
355.931	1	4
357.127	1	5
358.324	1	-1
359.521	1	11
360.718	1	8
361.914	1	6
363.111	1	2
364.308	1	4
365.504	1	18
366.701	1	4
367.897	1	22
369.093	1	15
370.290	1	17
371.486	1	25
372.682	1	12
373.879	1	4
375.075	1	8
376.271	1	13
377.467	1	12
378.663	1	4
379.859	1	5
381.055	1	11
382.251	1	-2
383.447	1	-2
384.643	1	9
385.839	1	2
387.035	1	4
388.230	1	11
389.426	1	-12
390.622	1	-7
391.817	1	3
393.013	1	0
394.208	1	-2
395.404	1	-4
396.599	1	0
397.795	1	-2
398.990	1	5
400.186	1	8
401.381	1	0
402.576	1	4
403.771	1	15
404.967	1	-3
406.162	1	4
407.357	1	6
408.552	1	-9
409.747	1	-1
410.942	1	8
412.137	1	7
413.332	1	-2
414.526	1	-4
415.721	1	4
416.916	1	-7
418.111	1	-4
419.305	1	-2
420.500	1	-10
421.695	1	-8
422.889	1	-2
424.084	1	6
425.278	1	13
426.472	1	5
427.667	1	3
428.861	1	3
430.055	1	1
431.250	1	-1
432.444	1	6
433.638	1	-7
434.832	1	-1
436.026	1	6
437.220	1	1
438.414	1	-12
439.608	1	-5
440.802	1	-5
441.996	1	5
443.190	1	-9
444.384	1	-14
445.578	1	-8
446.771	1	9
447.965	1	-3
449.159	1	-5
450.352	1	-4
451.546	1	1
452.739	1	6
453.933	1	-7
455.126	1	-2
456.320	1	-2
457.513	1	-2
458.706	1	3
459.899	1	4
461.093	1	3
462.286	1	1
463.479	1	-6
464.672	1	-10
465.865	1	-2
467.058	1	1
468.251	1	5
469.444	1	-5
470.637	1	8
471.830	1	3
473.023	1	7
474.215	1	-4
475.408	1	-2
476.601	1	1
477.793	1	-2
478.986	1	-5
480.179	1	5
481.371	1	2
482.564	1	7
483.756	1	2
484.948	1	-10
486.141	1	0
487.333	1	0
488.525	1	-1
489.718	1	-4
490.910	1	1
492.102	1	-1
493.294	1	-1
494.486	1	4
495.678	1	-1
496.870	1	1
498.062	1	-4
499.254	1	-12
500.446	1	-4
501.638	1	-1
502.829	1	10
504.021	1	-3
505.213	1	3
506.404	1	1
507.596	1	7
508.788	1	7
509.979	1	0
511.171	1	-4
512.362	1	-9
513.553	1	-9
514.745	1	1
515.936	1	1
517.127	1	4
518.319	1	-2
519.510	1	5
520.701	1	-3
521.892	1	1
523.083	1	-5
524.274	1	2
525.465	1	1
526.656	1	5
527.847	1	0
529.038	1	-2
530.229	1	2
531.419	1	1
532.610	1	-1
533.801	1	6
534.991	1	7
536.182	1	3
537.373	1	13
538.563	1	-1
539.754	1	-1
540.944	1	6
542.134	1	6
543.325	1	1
544.515	1	-6
545.705	1	-7
546.896	1	-7
548.086	1	-6
549.276	1	-3
550.466	1	8
551.656	1	6
552.846	1	3
554.036	1	-4
555.226	1	-5
556.416	1	-4
557.606	1	-4
558.796	1	2
559.986	1	-3
561.175	1	-2
562.365	1	3
563.555	1	0
564.744	1	15
565.934	1	6
567.123	1	0
568.313	1	0
569.502	1	-4
570.692	1	2
571.881	1	13
573.070	1	5
574.260	1	7
575.449	1	1
576.638	1	-1
577.827	1	-3
579.016	1	3
580.205	1	-2
581.394	1	3
582.583	1	14
583.772	1	8
584.961	1	-4
586.150	1	-4
587.339	1	-3
588.528	1	5
589.717	1	5
590.905	1	3
592.094	1	-8
593.283	1	-6
594.471	1	1
595.660	1	1
596.848	1	-7
598.037	1	4
599.225	1	-5
600.413	1	11
601.602	1	13
602.790	1	8
603.978	1	1
605.166	1	6
606.355	1	7
607.543	1	0
608.731	1	5
609.919	1	8
611.107	1	3
612.295	1	3
613.483	1	4
614.671	1	0
615.858	1	6
617.046	1	1
618.234	1	9
619.422	1	-5
620.609	1	7
621.797	1	1
622.985	1	5
624.172	1	0
625.360	1	4
626.547	1	1
627.735	1	-5
628.922	1	3
630.109	1	-9
631.297	1	5
632.484	1	2
633.671	1	1
634.858	1	-6
636.045	1	10
637.232	1	-8
638.419	1	-4
639.606	1	7
640.793	1	18
641.980	1	7
643.167	1	-6
644.354	1	3
645.541	1	0
646.728	1	-3
647.914	1	-6
649.101	1	-7
650.288	1	3
651.474	1	-12
652.661	1	-3
653.847	1	0
655.034	1	13
656.220	1	-12
657.406	1	6
658.593	1	5
659.779	1	9
660.965	1	0
662.152	1	0
663.338	1	13
664.524	1	-1
665.710	1	4
666.896	1	-2
668.082	1	-1
669.268	1	-3
670.454	1	-3
671.640	1	-2
672.826	1	9
674.011	1	4
675.197	1	-9
676.383	1	6
677.569	1	0
678.754	1	2
679.940	1	1
681.125	1	3
682.311	1	6
683.496	1	7
684.682	1	-3
685.867	1	3
687.053	1	8
688.238	1	9
688.746	1	1