File: Data/GaN_200K_800ms/GaN_sample F_spot 12_UVVIS_200 K_200um_800 ms 2x2mm1_451.txt
340.368	1	3
341.565	1	-16
342.763	1	-2
343.960	1	0
345.157	1	-7
346.354	1	1
347.552	1	4
348.749	1	-7
349.946	1	-8
351.143	1	-5
352.340	1	-3
353.537	1	-4
354.734	1	1
355.931	1	-8
357.127	1	6
358.324	1	-2
359.521	1	10
360.718	1	3
361.914	1	5
363.111	1	3
364.308	1	-1
365.504	1	8
366.701	1	11
367.897	1	6
369.093	1	7
370.290	1	14
371.486	1	13
372.682	1	10
373.879	1	1
375.075	1	-2
376.271	1	9
377.467	1	3
378.663	1	-2
379.859	1	2
381.055	1	17
382.251	1	-9
383.447	1	-10
384.643	1	14
385.839	1	2
387.035	1	9
388.230	1	13
389.426	1	-4
390.622	1	5
391.817	1	1
393.013	1	-1
394.208	1	2
395.404	1	-2
396.599	1	-3
397.795	1	1
398.990	1	0
400.186	1	-6
401.381	1	-8
402.576	1	1
403.771	1	12
404.967	1	6
406.162	1	9
407.357	1	-7
408.552	1	-5
409.747	1	-14
410.942	1	4
412.137	1	3
413.332	1	0
414.526	1	-3
415.721	1	-3
416.916	1	-8
418.111	1	5
419.305	1	-5
420.500	1	-1
421.695	1	-5
422.889	1	-15
424.084	1	-5
425.278	1	3
426.472	1	3
427.667	1	5
428.861	1	-3
430.055	1	-5
431.250	1	-1
432.444	1	1
433.638	1	-1
434.832	1	0
436.026	1	9
437.220	1	4
438.414	1	-12
439.608	1	-5
440.802	1	-3
441.996	1	3
443.190	1	-3
444.384	1	-2
445.578	1	-14
446.771	1	3
447.965	1	0
449.159	1	-10
450.352	1	-8
451.546	1	-4
452.739	1	2
453.933	1	-6
455.126	1	-6
456.320	1	-3
457.513	1	4
458.706	1	0
459.899	1	-6
461.093	1	-1
462.286	1	0
463.479	1	-13
464.672	1	-3
465.865	1	-1
467.058	1	-4
468.251	1	-1
469.444	1	3
470.637	1	0
471.830	1	-2
473.023	1	5
474.215	1	11
475.408	1	-7
476.601	1	-3
477.793	1	-6
478.986	1	-5
480.179	1	2
481.371	1	4
482.564	1	-6
483.756	1	1
484.948	1	-6
486.141	1	-5
487.333	1	2
488.525	1	-1
489.718	1	-8
490.910	1	-5
492.102	1	-4
493.294	1	-5
494.486	1	3
495.678	1	-11
496.870	1	-3
498.062	1	4
499.254	1	1
500.446	1	-12
501.638	1	-8
502.829	1	-8
504.021	1	5
505.213	1	9
506.404	1	7
507.596	1	8
508.788	1	8
509.979	1	-4
511.171	1	-7
512.362	1	-5
513.553	1	-20
514.745	1	0
515.936	1	-1
517.127	1	-12
518.319	1	-3
519.510	1	1
520.701	1	-1
521.892	1	-4
523.083	1	-2
524.274	1	-3
525.465	1	6
526.656	1	-5
527.847	1	1
529.038	1	-3
530.229	1	4
531.419	1	5
532.610	1	-3
533.801	1	13
534.991	1	1
536.182	1	-3
537.373	1	-1
538.563	1	6
539.754	1	2
540.944	1	-2
542.134	1	3
543.325	1	-2
544.515	1	-1
545.705	1	-6
546.896	1	0
548.086	1	-1
549.276	1	-3
550.466	1	7
551.656	1	-2
552.846	1	0
554.036	1	-7
555.226	1	-10
556.416	1	-5
557.606	1	-1
558.796	1	-7
559.986	1	-5
561.175	1	9
562.365	1	-2
563.555	1	-3
564.744	1	3
565.934	1	0
567.123	1	2
568.313	1	5
569.502	1	-7
570.692	1	7
571.881	1	13
573.070	1	5
574.260	1	13
575.449	1	-6
576.638	1	-15
577.827	1	-7
579.016	1	8
580.205	1	-3
581.394	1	1
582.583	1	15
583.772	1	1
584.961	1	-3
586.150	1	-2
587.339	1	-1
588.528	1	-3
589.717	1	-2
590.905	1	7
592.094	1	5
593.283	1	4
594.471	1	7
595.660	1	-4
596.848	1	-6
598.037	1	-5
599.225	1	-5
600.413	1	9
601.602	1	13
602.790	1	-8
603.978	1	2
605.166	1	8
606.355	1	10
607.543	1	0
608.731	1	-3
609.919	1	7
611.107	1	-3
612.295	1	-7
613.483	1	0
614.671	1	6
615.858	1	9
617.046	1	9
618.234	1	0
619.422	1	-7
620.609	1	-3
621.797	1	-2
622.985	1	-1
624.172	1	-2
625.360	1	1
626.547	1	3
627.735	1	8
628.922	1	8
630.109	1	-10
631.297	1	-3
632.484	1	-2
633.671	1	-5
634.858	1	4
636.045	1	15
637.232	1	-1
638.419	1	-7
639.606	1	8
640.793	1	11
641.980	1	2
643.167	1	0
644.354	1	3
645.541	1	-4
646.728	1	-3
647.914	1	-1
649.101	1	-6
650.288	1	3
651.474	1	-5
652.661	1	-5
653.847	1	1
655.034	1	-3
656.220	1	-5
657.406	1	12
658.593	1	0
659.779	1	9
660.965	1	5
662.152	1	7
663.338	1	4
664.524	1	3
665.710	1	3
666.896	1	-13
668.082	1	-3
669.268	1	-8
670.454	1	0
671.640	1	7
672.826	1	-2
674.011	1	-3
675.197	1	-11
676.383	1	-6
677.569	1	-4
678.754	1	-11
679.940	1	-1
681.125	1	6
682.311	1	2
683.496	1	8
684.682	1	-11
685.867	1	-3
687.053	1	0
688.238	1	6
688.746	1	-6