File: Data/GaN_200K_800ms/GaN_sample F_spot 12_UVVIS_200 K_200um_800 ms 2x2mm1_283.txt
340.368	1	0
341.565	1	-2
342.763	1	13
343.960	1	-10
345.157	1	-5
346.354	1	-2
347.552	1	-16
348.749	1	-4
349.946	1	1
351.143	1	1
352.340	1	3
353.537	1	3
354.734	1	3
355.931	1	0
357.127	1	0
358.324	1	2
359.521	1	8
360.718	1	3
361.914	1	1
363.111	1	6
364.308	1	2
365.504	1	17
366.701	1	8
367.897	1	16
369.093	1	16
370.290	1	11
371.486	1	26
372.682	1	12
373.879	1	8
375.075	1	6
376.271	1	12
377.467	1	8
378.663	1	2
379.859	1	11
381.055	1	14
382.251	1	5
383.447	1	8
384.643	1	11
385.839	1	5
387.035	1	2
388.230	1	18
389.426	1	-2
390.622	1	-3
391.817	1	9
393.013	1	12
394.208	1	-4
395.404	1	-8
396.599	1	-4
397.795	1	4
398.990	1	-1
400.186	1	0
401.381	1	-6
402.576	1	1
403.771	1	-8
404.967	1	13
406.162	1	6
407.357	1	-7
408.552	1	-1
409.747	1	-2
410.942	1	14
412.137	1	7
413.332	1	5
414.526	1	1
415.721	1	-4
416.916	1	0
418.111	1	3
419.305	1	9
420.500	1	-1
421.695	1	-3
422.889	1	-9
424.084	1	-1
425.278	1	8
426.472	1	-5
427.667	1	4
428.861	1	-11
430.055	1	5
431.250	1	2
432.444	1	0
433.638	1	2
434.832	1	-1
436.026	1	7
437.220	1	-5
438.414	1	-11
439.608	1	-11
440.802	1	-7
441.996	1	7
443.190	1	5
444.384	1	-4
445.578	1	-8
446.771	1	8
447.965	1	-2
449.159	1	-3
450.352	1	-4
451.546	1	8
452.739	1	4
453.933	1	-1
455.126	1	-6
456.320	1	6
457.513	1	7
458.706	1	-6
459.899	1	-1
461.093	1	9
462.286	1	-2
463.479	1	-5
464.672	1	8
465.865	1	-3
467.058	1	-7
468.251	1	3
469.444	1	1
470.637	1	8
471.830	1	-7
473.023	1	8
474.215	1	7
475.408	1	1
476.601	1	3
477.793	1	6
478.986	1	-6
480.179	1	1
481.371	1	0
482.564	1	-2
483.756	1	1
484.948	1	-2
486.141	1	0
487.333	1	9
488.525	1	-9
489.718	1	-6
490.910	1	2
492.102	1	-2
493.294	1	-1
494.486	1	2
495.678	1	3
496.870	1	-5
498.062	1	-2
499.254	1	-6
500.446	1	-7
501.638	1	-6
502.829	1	6
504.021	1	-7
505.213	1	0
506.404	1	9
507.596	1	0
508.788	1	18
509.979	1	-1
511.171	1	-1
512.362	1	-3
513.553	1	-12
514.745	1	-1
515.936	1	-2
517.127	1	0
518.319	1	2
519.510	1	3
520.701	1	5
521.892	1	0
523.083	1	4
524.274	1	-1
525.465	1	10
526.656	1	-3
527.847	1	1
529.038	1	8
530.229	1	4
531.419	1	0
532.610	1	-3
533.801	1	15
534.991	1	5
536.182	1	-3
537.373	1	3
538.563	1	0
539.754	1	2
540.944	1	-6
542.134	1	10
543.325	1	6
544.515	1	-4
545.705	1	-4
546.896	1	5
548.086	1	8
549.276	1	-1
550.466	1	-2
551.656	1	12
552.846	1	10
554.036	1	-11
555.226	1	-1
556.416	1	-2
557.606	1	3
558.796	1	-6
559.986	1	-4
561.175	1	5
562.365	1	6
563.555	1	-5
564.744	1	10
565.934	1	4
567.123	1	-3
568.313	1	3
569.502	1	0
570.692	1	6
571.881	1	14
573.070	1	-7
574.260	1	10
575.449	1	3
576.638	1	2
577.827	1	-8
579.016	1	3
580.205	1	2
581.394	1	3
582.583	1	14
583.772	1	14
584.961	1	4
586.150	1	3
587.339	1	3
588.528	1	2
589.717	1	3
590.905	1	2
592.094	1	-2
593.283	1	5
594.471	1	8
595.660	1	6
596.848	1	-1
598.037	1	-2
599.225	1	6
600.413	1	20
601.602	1	15
602.790	1	-2
603.978	1	2
605.166	1	4
606.355	1	6
607.543	1	9
608.731	1	5
609.919	1	4
611.107	1	-2
612.295	1	-11
613.483	1	-1
614.671	1	4
615.858	1	-3
617.046	1	7
618.234	1	-4
619.422	1	-8
620.609	1	7
621.797	1	-9
622.985	1	6
624.172	1	-2
625.360	1	10
626.547	1	-2
627.735	1	-4
628.922	1	7
630.109	1	-10
631.297	1	0
632.484	1	-3
633.671	1	-1
634.858	1	0
636.045	1	16
637.232	1	-5
638.419	1	-3
639.606	1	6
640.793	1	6
641.980	1	13
643.167	1	-9
644.354	1	-2
645.541	1	1
646.728	1	-2
647.914	1	-6
649.101	1	1
650.288	1	5
651.474	1	0
652.661	1	-2
653.847	1	6
655.034	1	7
656.220	1	-12
657.406	1	9
658.593	1	9
659.779	1	4
660.965	1	16
662.152	1	1
663.338	1	4
664.524	1	0
665.710	1	-1
666.896	1	2
668.082	1	-5
669.268	1	-3
670.454	1	2
671.640	1	-1
672.826	1	-3
674.011	1	-5
675.197	1	-6
676.383	1	1
677.569	1	-3
678.754	1	0
679.940	1	-10
681.125	1	8
682.311	1	4
683.496	1	5
684.682	1	-2
685.867	1	9
687.053	1	0
688.238	1	-2
688.746	1	-4