File: Data/GaN_200K_800ms/GaN_sample F_spot 12_UVVIS_200 K_200um_800 ms 2x2mm1_40.txt
340.368	1	2
341.565	1	-8
342.763	1	11
343.960	1	10
345.157	1	10
346.354	1	10
347.552	1	4
348.749	1	4
349.946	1	6
351.143	1	19
352.340	1	25
353.537	1	22
354.734	1	34
355.931	1	43
357.127	1	47
358.324	1	65
359.521	1	92
360.718	1	132
361.914	1	184
363.111	1	273
364.308	1	421
365.504	1	645
366.701	1	934
367.897	1	1301
369.093	1	1513
370.290	1	1547
371.486	1	1372
372.682	1	1098
373.879	1	884
375.075	1	730
376.271	1	598
377.467	1	481
378.663	1	396
379.859	1	318
381.055	1	259
382.251	1	208
383.447	1	192
384.643	1	166
385.839	1	148
387.035	1	133
388.230	1	114
389.426	1	90
390.622	1	85
391.817	1	86
393.013	1	60
394.208	1	54
395.404	1	50
396.599	1	49
397.795	1	50
398.990	1	47
400.186	1	46
401.381	1	31
402.576	1	36
403.771	1	32
404.967	1	38
406.162	1	35
407.357	1	36
408.552	1	22
409.747	1	21
410.942	1	25
412.137	1	18
413.332	1	16
414.526	1	18
415.721	1	10
416.916	1	9
418.111	1	16
419.305	1	16
420.500	1	9
421.695	1	7
422.889	1	6
424.084	1	17
425.278	1	16
426.472	1	14
427.667	1	24
428.861	1	5
430.055	1	7
431.250	1	9
432.444	1	16
433.638	1	3
434.832	1	16
436.026	1	15
437.220	1	14
438.414	1	1
439.608	1	3
440.802	1	8
441.996	1	13
443.190	1	8
444.384	1	5
445.578	1	-4
446.771	1	17
447.965	1	6
449.159	1	3
450.352	1	14
451.546	1	5
452.739	1	6
453.933	1	7
455.126	1	7
456.320	1	15
457.513	1	19
458.706	1	2
459.899	1	20
461.093	1	9
462.286	1	12
463.479	1	7
464.672	1	13
465.865	1	11
467.058	1	6
468.251	1	7
469.444	1	0
470.637	1	14
471.830	1	6
473.023	1	23
474.215	1	19
475.408	1	7
476.601	1	18
477.793	1	11
478.986	1	8
480.179	1	12
481.371	1	20
482.564	1	20
483.756	1	23
484.948	1	8
486.141	1	9
487.333	1	27
488.525	1	18
489.718	1	18
490.910	1	32
492.102	1	29
493.294	1	31
494.486	1	34
495.678	1	32
496.870	1	41
498.062	1	38
499.254	1	41
500.446	1	38
501.638	1	40
502.829	1	44
504.021	1	56
505.213	1	55
506.404	1	52
507.596	1	58
508.788	1	80
509.979	1	60
511.171	1	69
512.362	1	60
513.553	1	52
514.745	1	67
515.936	1	71
517.127	1	70
518.319	1	81
519.510	1	74
520.701	1	83
521.892	1	90
523.083	1	80
524.274	1	93
525.465	1	105
526.656	1	85
527.847	1	97
529.038	1	112
530.229	1	104
531.419	1	103
532.610	1	112
533.801	1	127
534.991	1	117
536.182	1	109
537.373	1	113
538.563	1	111
539.754	1	112
540.944	1	108
542.134	1	119
543.325	1	112
544.515	1	110
545.705	1	120
546.896	1	123
548.086	1	120
549.276	1	130
550.466	1	141
551.656	1	139
552.846	1	150
554.036	1	135
555.226	1	134
556.416	1	128
557.606	1	135
558.796	1	140
559.986	1	131
561.175	1	129
562.365	1	137
563.555	1	127
564.744	1	130
565.934	1	138
567.123	1	146
568.313	1	146
569.502	1	122
570.692	1	133
571.881	1	142
573.070	1	137
574.260	1	134
575.449	1	134
576.638	1	122
577.827	1	123
579.016	1	132
580.205	1	133
581.394	1	129
582.583	1	136
583.772	1	134
584.961	1	124
586.150	1	114
587.339	1	128
588.528	1	121
589.717	1	110
590.905	1	119
592.094	1	105
593.283	1	103
594.471	1	110
595.660	1	97
596.848	1	103
598.037	1	102
599.225	1	94
600.413	1	100
601.602	1	104
602.790	1	103
603.978	1	104
605.166	1	104
606.355	1	105
607.543	1	95
608.731	1	97
609.919	1	106
611.107	1	94
612.295	1	83
613.483	1	91
614.671	1	86
615.858	1	87
617.046	1	89
618.234	1	83
619.422	1	71
620.609	1	72
621.797	1	71
622.985	1	73
624.172	1	73
625.360	1	64
626.547	1	69
627.735	1	73
628.922	1	80
630.109	1	56
631.297	1	69
632.484	1	62
633.671	1	61
634.858	1	49
636.045	1	68
637.232	1	59
638.419	1	59
639.606	1	62
640.793	1	59
641.980	1	62
643.167	1	45
644.354	1	49
645.541	1	55
646.728	1	44
647.914	1	48
649.101	1	48
650.288	1	53
651.474	1	45
652.661	1	49
653.847	1	56
655.034	1	47
656.220	1	38
657.406	1	39
658.593	1	46
659.779	1	39
660.965	1	42
662.152	1	45
663.338	1	38
664.524	1	33
665.710	1	39
666.896	1	18
668.082	1	40
669.268	1	25
670.454	1	39
671.640	1	44
672.826	1	27
674.011	1	29
675.197	1	33
676.383	1	36
677.569	1	31
678.754	1	31
679.940	1	29
681.125	1	33
682.311	1	36
683.496	1	32
684.682	1	30
685.867	1	35
687.053	1	39
688.238	1	34
688.746	1	33