File: Data/GaN_200K_800ms/GaN_sample F_spot 12_UVVIS_200 K_200um_800 ms 2x2mm1_366.txt
340.368	1	5
341.565	1	-15
342.763	1	6
343.960	1	-3
345.157	1	-5
346.354	1	3
347.552	1	-7
348.749	1	-3
349.946	1	-2
351.143	1	1
352.340	1	1
353.537	1	-5
354.734	1	5
355.931	1	-2
357.127	1	-8
358.324	1	-3
359.521	1	12
360.718	1	7
361.914	1	6
363.111	1	3
364.308	1	6
365.504	1	13
366.701	1	18
367.897	1	17
369.093	1	6
370.290	1	3
371.486	1	8
372.682	1	11
373.879	1	7
375.075	1	6
376.271	1	24
377.467	1	1
378.663	1	-5
379.859	1	-5
381.055	1	9
382.251	1	-5
383.447	1	6
384.643	1	19
385.839	1	-1
387.035	1	4
388.230	1	13
389.426	1	3
390.622	1	-6
391.817	1	-1
393.013	1	-5
394.208	1	-4
395.404	1	3
396.599	1	-3
397.795	1	-6
398.990	1	14
400.186	1	2
401.381	1	-5
402.576	1	1
403.771	1	-3
404.967	1	3
406.162	1	2
407.357	1	-6
408.552	1	-9
409.747	1	-4
410.942	1	3
412.137	1	2
413.332	1	-7
414.526	1	-4
415.721	1	-2
416.916	1	-7
418.111	1	-2
419.305	1	-4
420.500	1	5
421.695	1	-8
422.889	1	-12
424.084	1	4
425.278	1	14
426.472	1	-2
427.667	1	5
428.861	1	-3
430.055	1	1
431.250	1	-6
432.444	1	5
433.638	1	0
434.832	1	-1
436.026	1	-1
437.220	1	8
438.414	1	-10
439.608	1	-11
440.802	1	-6
441.996	1	2
443.190	1	-4
444.384	1	-11
445.578	1	-4
446.771	1	8
447.965	1	8
449.159	1	-8
450.352	1	-1
451.546	1	2
452.739	1	0
453.933	1	-8
455.126	1	0
456.320	1	-5
457.513	1	5
458.706	1	2
459.899	1	-5
461.093	1	0
462.286	1	-3
463.479	1	-3
464.672	1	0
465.865	1	-1
467.058	1	-8
468.251	1	-5
469.444	1	-9
470.637	1	-1
471.830	1	-4
473.023	1	-2
474.215	1	3
475.408	1	5
476.601	1	-5
477.793	1	-7
478.986	1	-3
480.179	1	-6
481.371	1	1
482.564	1	5
483.756	1	4
484.948	1	-5
486.141	1	1
487.333	1	4
488.525	1	-1
489.718	1	-2
490.910	1	-2
492.102	1	-4
493.294	1	1
494.486	1	5
495.678	1	-3
496.870	1	-1
498.062	1	2
499.254	1	-2
500.446	1	-12
501.638	1	-12
502.829	1	-7
504.021	1	-4
505.213	1	8
506.404	1	0
507.596	1	-4
508.788	1	17
509.979	1	-1
511.171	1	-3
512.362	1	-3
513.553	1	-8
514.745	1	-3
515.936	1	0
517.127	1	-5
518.319	1	-1
519.510	1	4
520.701	1	-4
521.892	1	1
523.083	1	0
524.274	1	0
525.465	1	6
526.656	1	1
527.847	1	5
529.038	1	4
530.229	1	-1
531.419	1	-1
532.610	1	-9
533.801	1	6
534.991	1	-1
536.182	1	5
537.373	1	-1
538.563	1	5
539.754	1	5
540.944	1	-5
542.134	1	7
543.325	1	-2
544.515	1	5
545.705	1	2
546.896	1	3
548.086	1	-6
549.276	1	-2
550.466	1	3
551.656	1	2
552.846	1	1
554.036	1	1
555.226	1	-14
556.416	1	-2
557.606	1	7
558.796	1	3
559.986	1	-3
561.175	1	0
562.365	1	3
563.555	1	-3
564.744	1	-3
565.934	1	5
567.123	1	3
568.313	1	11
569.502	1	-2
570.692	1	4
571.881	1	15
573.070	1	0
574.260	1	8
575.449	1	3
576.638	1	-5
577.827	1	-5
579.016	1	7
580.205	1	-6
581.394	1	0
582.583	1	5
583.772	1	9
584.961	1	-2
586.150	1	-6
587.339	1	2
588.528	1	1
589.717	1	6
590.905	1	3
592.094	1	-2
593.283	1	-5
594.471	1	9
595.660	1	7
596.848	1	-3
598.037	1	-5
599.225	1	-7
600.413	1	4
601.602	1	7
602.790	1	-3
603.978	1	-4
605.166	1	-1
606.355	1	0
607.543	1	4
608.731	1	-8
609.919	1	7
611.107	1	-4
612.295	1	-10
613.483	1	10
614.671	1	2
615.858	1	5
617.046	1	4
618.234	1	-11
619.422	1	-7
620.609	1	8
621.797	1	-4
622.985	1	2
624.172	1	3
625.360	1	-6
626.547	1	5
627.735	1	-2
628.922	1	8
630.109	1	-6
631.297	1	-4
632.484	1	-2
633.671	1	-8
634.858	1	-3
636.045	1	0
637.232	1	-5
638.419	1	-4
639.606	1	-6
640.793	1	6
641.980	1	5
643.167	1	4
644.354	1	-5
645.541	1	4
646.728	1	-5
647.914	1	1
649.101	1	-8
650.288	1	1
651.474	1	-1
652.661	1	-8
653.847	1	8
655.034	1	-2
656.220	1	2
657.406	1	2
658.593	1	5
659.779	1	1
660.965	1	10
662.152	1	1
663.338	1	10
664.524	1	6
665.710	1	-2
666.896	1	-8
668.082	1	8
669.268	1	-1
670.454	1	3
671.640	1	7
672.826	1	-4
674.011	1	-5
675.197	1	-9
676.383	1	-1
677.569	1	-1
678.754	1	-7
679.940	1	-6
681.125	1	-1
682.311	1	6
683.496	1	11
684.682	1	-12
685.867	1	-3
687.053	1	4
688.238	1	5
688.746	1	-2