File: Data/GaN_200K_800ms/GaN_sample F_spot 12_UVVIS_200 K_200um_800 ms 2x2mm1_352.txt
340.368	1	-3
341.565	1	-8
342.763	1	2
343.960	1	5
345.157	1	-9
346.354	1	-2
347.552	1	3
348.749	1	-17
349.946	1	-3
351.143	1	6
352.340	1	3
353.537	1	-5
354.734	1	8
355.931	1	-8
357.127	1	-3
358.324	1	-14
359.521	1	1
360.718	1	0
361.914	1	1
363.111	1	6
364.308	1	14
365.504	1	6
366.701	1	7
367.897	1	10
369.093	1	6
370.290	1	11
371.486	1	22
372.682	1	17
373.879	1	7
375.075	1	11
376.271	1	11
377.467	1	13
378.663	1	-3
379.859	1	3
381.055	1	16
382.251	1	-11
383.447	1	-2
384.643	1	16
385.839	1	2
387.035	1	3
388.230	1	6
389.426	1	1
390.622	1	1
391.817	1	-2
393.013	1	-3
394.208	1	-3
395.404	1	-13
396.599	1	-4
397.795	1	6
398.990	1	3
400.186	1	-1
401.381	1	2
402.576	1	-1
403.771	1	4
404.967	1	11
406.162	1	-1
407.357	1	-4
408.552	1	-4
409.747	1	0
410.942	1	11
412.137	1	0
413.332	1	-6
414.526	1	-7
415.721	1	-3
416.916	1	-10
418.111	1	0
419.305	1	-3
420.500	1	-5
421.695	1	-5
422.889	1	-2
424.084	1	3
425.278	1	1
426.472	1	10
427.667	1	-1
428.861	1	-2
430.055	1	0
431.250	1	0
432.444	1	3
433.638	1	-13
434.832	1	7
436.026	1	8
437.220	1	2
438.414	1	-5
439.608	1	-9
440.802	1	-5
441.996	1	1
443.190	1	-4
444.384	1	-6
445.578	1	-10
446.771	1	2
447.965	1	-4
449.159	1	-8
450.352	1	-9
451.546	1	-7
452.739	1	2
453.933	1	0
455.126	1	-2
456.320	1	2
457.513	1	14
458.706	1	0
459.899	1	-2
461.093	1	-6
462.286	1	-3
463.479	1	-8
464.672	1	6
465.865	1	3
467.058	1	2
468.251	1	2
469.444	1	-12
470.637	1	-8
471.830	1	-5
473.023	1	2
474.215	1	17
475.408	1	0
476.601	1	6
477.793	1	-2
478.986	1	2
480.179	1	-4
481.371	1	1
482.564	1	-6
483.756	1	13
484.948	1	0
486.141	1	-9
487.333	1	6
488.525	1	1
489.718	1	-2
490.910	1	-2
492.102	1	-2
493.294	1	4
494.486	1	7
495.678	1	0
496.870	1	4
498.062	1	0
499.254	1	4
500.446	1	-14
501.638	1	-8
502.829	1	2
504.021	1	1
505.213	1	4
506.404	1	-1
507.596	1	-2
508.788	1	8
509.979	1	0
511.171	1	-6
512.362	1	-14
513.553	1	-13
514.745	1	0
515.936	1	-4
517.127	1	3
518.319	1	-3
519.510	1	0
520.701	1	3
521.892	1	3
523.083	1	-2
524.274	1	2
525.465	1	8
526.656	1	-6
527.847	1	3
529.038	1	-1
530.229	1	-2
531.419	1	11
532.610	1	-2
533.801	1	11
534.991	1	-3
536.182	1	2
537.373	1	4
538.563	1	3
539.754	1	7
540.944	1	-11
542.134	1	9
543.325	1	0
544.515	1	-11
545.705	1	6
546.896	1	-5
548.086	1	-1
549.276	1	-8
550.466	1	4
551.656	1	0
552.846	1	-2
554.036	1	2
555.226	1	-12
556.416	1	-8
557.606	1	2
558.796	1	-10
559.986	1	0
561.175	1	3
562.365	1	2
563.555	1	-11
564.744	1	3
565.934	1	1
567.123	1	4
568.313	1	4
569.502	1	-6
570.692	1	6
571.881	1	12
573.070	1	0
574.260	1	2
575.449	1	-2
576.638	1	-7
577.827	1	-5
579.016	1	8
580.205	1	-2
581.394	1	-4
582.583	1	6
583.772	1	10
584.961	1	6
586.150	1	3
587.339	1	-3
588.528	1	2
589.717	1	-3
590.905	1	6
592.094	1	-1
593.283	1	-3
594.471	1	2
595.660	1	-3
596.848	1	-4
598.037	1	3
599.225	1	-3
600.413	1	10
601.602	1	10
602.790	1	6
603.978	1	3
605.166	1	4
606.355	1	0
607.543	1	-11
608.731	1	-4
609.919	1	7
611.107	1	2
612.295	1	-3
613.483	1	7
614.671	1	6
615.858	1	2
617.046	1	5
618.234	1	-1
619.422	1	-10
620.609	1	-1
621.797	1	-7
622.985	1	4
624.172	1	2
625.360	1	3
626.547	1	4
627.735	1	2
628.922	1	-2
630.109	1	-11
631.297	1	-4
632.484	1	-2
633.671	1	-3
634.858	1	-7
636.045	1	12
637.232	1	-2
638.419	1	-9
639.606	1	8
640.793	1	7
641.980	1	3
643.167	1	-4
644.354	1	4
645.541	1	-2
646.728	1	4
647.914	1	-12
649.101	1	3
650.288	1	9
651.474	1	-2
652.661	1	-9
653.847	1	3
655.034	1	12
656.220	1	-4
657.406	1	1
658.593	1	-1
659.779	1	2
660.965	1	7
662.152	1	3
663.338	1	0
664.524	1	2
665.710	1	5
666.896	1	0
668.082	1	-2
669.268	1	-1
670.454	1	14
671.640	1	0
672.826	1	2
674.011	1	-3
675.197	1	-10
676.383	1	6
677.569	1	-1
678.754	1	-6
679.940	1	1
681.125	1	1
682.311	1	-2
683.496	1	6
684.682	1	-3
685.867	1	-4
687.053	1	-2
688.238	1	6
688.746	1	-3