File: Data/GaN_200K_800ms/GaN_sample F_spot 12_UVVIS_200 K_200um_800 ms 2x2mm1_110.txt
340.368	1	10
341.565	1	-6
342.763	1	3
343.960	1	10
345.157	1	-3
346.354	1	3
347.552	1	-2
348.749	1	-8
349.946	1	6
351.143	1	9
352.340	1	7
353.537	1	4
354.734	1	8
355.931	1	7
357.127	1	9
358.324	1	11
359.521	1	13
360.718	1	18
361.914	1	28
363.111	1	24
364.308	1	36
365.504	1	54
366.701	1	58
367.897	1	77
369.093	1	79
370.290	1	87
371.486	1	75
372.682	1	77
373.879	1	49
375.075	1	49
376.271	1	46
377.467	1	39
378.663	1	29
379.859	1	37
381.055	1	23
382.251	1	13
383.447	1	20
384.643	1	30
385.839	1	19
387.035	1	21
388.230	1	18
389.426	1	4
390.622	1	14
391.817	1	14
393.013	1	6
394.208	1	8
395.404	1	1
396.599	1	1
397.795	1	12
398.990	1	7
400.186	1	7
401.381	1	-6
402.576	1	4
403.771	1	8
404.967	1	4
406.162	1	20
407.357	1	1
408.552	1	0
409.747	1	-1
410.942	1	1
412.137	1	13
413.332	1	8
414.526	1	13
415.721	1	-4
416.916	1	-8
418.111	1	7
419.305	1	5
420.500	1	-4
421.695	1	0
422.889	1	-2
424.084	1	5
425.278	1	8
426.472	1	-2
427.667	1	3
428.861	1	5
430.055	1	8
431.250	1	4
432.444	1	4
433.638	1	7
434.832	1	8
436.026	1	13
437.220	1	10
438.414	1	-13
439.608	1	-8
440.802	1	-1
441.996	1	2
443.190	1	1
444.384	1	-5
445.578	1	0
446.771	1	18
447.965	1	-3
449.159	1	0
450.352	1	-3
451.546	1	-4
452.739	1	12
453.933	1	-2
455.126	1	-4
456.320	1	-1
457.513	1	4
458.706	1	12
459.899	1	11
461.093	1	-1
462.286	1	-1
463.479	1	1
464.672	1	-5
465.865	1	3
467.058	1	9
468.251	1	1
469.444	1	-7
470.637	1	3
471.830	1	7
473.023	1	0
474.215	1	9
475.408	1	2
476.601	1	-2
477.793	1	10
478.986	1	1
480.179	1	4
481.371	1	-4
482.564	1	-1
483.756	1	11
484.948	1	1
486.141	1	-3
487.333	1	4
488.525	1	5
489.718	1	7
490.910	1	7
492.102	1	-5
493.294	1	-3
494.486	1	9
495.678	1	6
496.870	1	1
498.062	1	-1
499.254	1	6
500.446	1	-8
501.638	1	-2
502.829	1	5
504.021	1	5
505.213	1	12
506.404	1	2
507.596	1	9
508.788	1	23
509.979	1	10
511.171	1	3
512.362	1	3
513.553	1	3
514.745	1	8
515.936	1	-1
517.127	1	0
518.319	1	-1
519.510	1	15
520.701	1	3
521.892	1	8
523.083	1	3
524.274	1	10
525.465	1	21
526.656	1	7
527.847	1	11
529.038	1	6
530.229	1	9
531.419	1	10
532.610	1	-1
533.801	1	18
534.991	1	-1
536.182	1	2
537.373	1	5
538.563	1	16
539.754	1	15
540.944	1	1
542.134	1	6
543.325	1	2
544.515	1	2
545.705	1	13
546.896	1	6
548.086	1	9
549.276	1	11
550.466	1	2
551.656	1	8
552.846	1	8
554.036	1	12
555.226	1	-3
556.416	1	6
557.606	1	6
558.796	1	11
559.986	1	1
561.175	1	4
562.365	1	6
563.555	1	7
564.744	1	5
565.934	1	10
567.123	1	15
568.313	1	8
569.502	1	8
570.692	1	9
571.881	1	17
573.070	1	7
574.260	1	26
575.449	1	4
576.638	1	2
577.827	1	-1
579.016	1	13
580.205	1	10
581.394	1	10
582.583	1	17
583.772	1	11
584.961	1	3
586.150	1	17
587.339	1	14
588.528	1	17
589.717	1	15
590.905	1	4
592.094	1	4
593.283	1	5
594.471	1	15
595.660	1	12
596.848	1	1
598.037	1	10
599.225	1	-4
600.413	1	11
601.602	1	21
602.790	1	5
603.978	1	1
605.166	1	12
606.355	1	18
607.543	1	15
608.731	1	6
609.919	1	9
611.107	1	5
612.295	1	5
613.483	1	10
614.671	1	5
615.858	1	10
617.046	1	12
618.234	1	7
619.422	1	-3
620.609	1	10
621.797	1	0
622.985	1	8
624.172	1	6
625.360	1	8
626.547	1	6
627.735	1	3
628.922	1	1
630.109	1	-5
631.297	1	3
632.484	1	-2
633.671	1	0
634.858	1	5
636.045	1	11
637.232	1	2
638.419	1	1
639.606	1	12
640.793	1	8
641.980	1	10
643.167	1	2
644.354	1	6
645.541	1	-3
646.728	1	3
647.914	1	1
649.101	1	7
650.288	1	7
651.474	1	-5
652.661	1	7
653.847	1	10
655.034	1	8
656.220	1	6
657.406	1	9
658.593	1	4
659.779	1	5
660.965	1	6
662.152	1	-4
663.338	1	7
664.524	1	6
665.710	1	6
666.896	1	3
668.082	1	0
669.268	1	6
670.454	1	0
671.640	1	9
672.826	1	3
674.011	1	-1
675.197	1	2
676.383	1	7
677.569	1	1
678.754	1	-5
679.940	1	5
681.125	1	6
682.311	1	8
683.496	1	15
684.682	1	-10
685.867	1	-3
687.053	1	16
688.238	1	8
688.746	1	5