File: Data/GaN_200K_800ms/GaN_sample F_spot 12_UVVIS_200 K_200um_800 ms 2x2mm1_391.txt
340.368	1	0
341.565	1	-8
342.763	1	0
343.960	1	2
345.157	1	-3
346.354	1	1
347.552	1	-5
348.749	1	-4
349.946	1	-3
351.143	1	3
352.340	1	2
353.537	1	-6
354.734	1	1
355.931	1	2
357.127	1	-14
358.324	1	0
359.521	1	5
360.718	1	7
361.914	1	8
363.111	1	-4
364.308	1	-4
365.504	1	11
366.701	1	10
367.897	1	12
369.093	1	3
370.290	1	13
371.486	1	18
372.682	1	14
373.879	1	4
375.075	1	7
376.271	1	14
377.467	1	4
378.663	1	12
379.859	1	-6
381.055	1	7
382.251	1	-7
383.447	1	0
384.643	1	8
385.839	1	-2
387.035	1	5
388.230	1	11
389.426	1	-4
390.622	1	0
391.817	1	-3
393.013	1	-5
394.208	1	-5
395.404	1	-5
396.599	1	-9
397.795	1	-1
398.990	1	0
400.186	1	0
401.381	1	3
402.576	1	2
403.771	1	2
404.967	1	1
406.162	1	10
407.357	1	-1
408.552	1	-9
409.747	1	-3
410.942	1	9
412.137	1	-3
413.332	1	-2
414.526	1	1
415.721	1	-4
416.916	1	-6
418.111	1	1
419.305	1	0
420.500	1	-9
421.695	1	-6
422.889	1	-6
424.084	1	-5
425.278	1	7
426.472	1	-2
427.667	1	11
428.861	1	-8
430.055	1	1
431.250	1	-9
432.444	1	4
433.638	1	-6
434.832	1	2
436.026	1	1
437.220	1	0
438.414	1	-9
439.608	1	-9
440.802	1	-5
441.996	1	-1
443.190	1	-3
444.384	1	-8
445.578	1	-16
446.771	1	6
447.965	1	-4
449.159	1	-11
450.352	1	-3
451.546	1	3
452.739	1	-3
453.933	1	-2
455.126	1	-9
456.320	1	-6
457.513	1	9
458.706	1	1
459.899	1	-3
461.093	1	4
462.286	1	1
463.479	1	2
464.672	1	1
465.865	1	-3
467.058	1	-4
468.251	1	-4
469.444	1	-8
470.637	1	-1
471.830	1	-4
473.023	1	5
474.215	1	7
475.408	1	2
476.601	1	0
477.793	1	5
478.986	1	-9
480.179	1	-6
481.371	1	-8
482.564	1	4
483.756	1	7
484.948	1	-6
486.141	1	-1
487.333	1	5
488.525	1	0
489.718	1	1
490.910	1	10
492.102	1	-11
493.294	1	-3
494.486	1	0
495.678	1	1
496.870	1	4
498.062	1	-3
499.254	1	-6
500.446	1	0
501.638	1	2
502.829	1	-3
504.021	1	1
505.213	1	9
506.404	1	-3
507.596	1	6
508.788	1	8
509.979	1	-2
511.171	1	-7
512.362	1	-7
513.553	1	-20
514.745	1	-8
515.936	1	-3
517.127	1	-1
518.319	1	0
519.510	1	-2
520.701	1	3
521.892	1	2
523.083	1	-1
524.274	1	8
525.465	1	2
526.656	1	0
527.847	1	1
529.038	1	-1
530.229	1	-10
531.419	1	6
532.610	1	-8
533.801	1	9
534.991	1	-6
536.182	1	1
537.373	1	5
538.563	1	-1
539.754	1	7
540.944	1	-8
542.134	1	-3
543.325	1	-6
544.515	1	-4
545.705	1	-5
546.896	1	-10
548.086	1	-1
549.276	1	1
550.466	1	6
551.656	1	5
552.846	1	7
554.036	1	-4
555.226	1	-8
556.416	1	-6
557.606	1	7
558.796	1	-2
559.986	1	-9
561.175	1	5
562.365	1	8
563.555	1	-1
564.744	1	-2
565.934	1	9
567.123	1	0
568.313	1	5
569.502	1	-4
570.692	1	9
571.881	1	8
573.070	1	2
574.260	1	9
575.449	1	5
576.638	1	-3
577.827	1	-2
579.016	1	3
580.205	1	-2
581.394	1	0
582.583	1	5
583.772	1	5
584.961	1	-1
586.150	1	-4
587.339	1	-2
588.528	1	8
589.717	1	1
590.905	1	-12
592.094	1	0
593.283	1	-1
594.471	1	15
595.660	1	0
596.848	1	-3
598.037	1	-4
599.225	1	-2
600.413	1	5
601.602	1	10
602.790	1	-2
603.978	1	-1
605.166	1	-2
606.355	1	3
607.543	1	2
608.731	1	6
609.919	1	10
611.107	1	-4
612.295	1	-6
613.483	1	0
614.671	1	0
615.858	1	-2
617.046	1	4
618.234	1	7
619.422	1	-5
620.609	1	1
621.797	1	-1
622.985	1	-3
624.172	1	3
625.360	1	-3
626.547	1	-1
627.735	1	8
628.922	1	6
630.109	1	-4
631.297	1	-3
632.484	1	-9
633.671	1	-4
634.858	1	-4
636.045	1	12
637.232	1	-1
638.419	1	-10
639.606	1	2
640.793	1	4
641.980	1	12
643.167	1	-12
644.354	1	-8
645.541	1	-1
646.728	1	-1
647.914	1	2
649.101	1	-8
650.288	1	-1
651.474	1	3
652.661	1	-10
653.847	1	9
655.034	1	0
656.220	1	-10
657.406	1	9
658.593	1	14
659.779	1	-2
660.965	1	-2
662.152	1	1
663.338	1	9
664.524	1	-3
665.710	1	-2
666.896	1	-4
668.082	1	0
669.268	1	7
670.454	1	1
671.640	1	8
672.826	1	-8
674.011	1	7
675.197	1	2
676.383	1	1
677.569	1	4
678.754	1	1
679.940	1	-2
681.125	1	3
682.311	1	8
683.496	1	-1
684.682	1	-11
685.867	1	5
687.053	1	-5
688.238	1	4
688.746	1	2