File: Data/GaN_200K_800ms/GaN_sample F_spot 12_UVVIS_200 K_200um_800 ms 2x2mm1_471.txt
340.368	1	-1
341.565	1	-7
342.763	1	3
343.960	1	-2
345.157	1	-1
346.354	1	-4
347.552	1	-4
348.749	1	-9
349.946	1	-11
351.143	1	-6
352.340	1	10
353.537	1	-3
354.734	1	7
355.931	1	4
357.127	1	-5
358.324	1	-2
359.521	1	4
360.718	1	11
361.914	1	-4
363.111	1	1
364.308	1	1
365.504	1	10
366.701	1	6
367.897	1	8
369.093	1	2
370.290	1	5
371.486	1	4
372.682	1	10
373.879	1	1
375.075	1	0
376.271	1	16
377.467	1	0
378.663	1	-1
379.859	1	2
381.055	1	15
382.251	1	-3
383.447	1	3
384.643	1	9
385.839	1	-7
387.035	1	1
388.230	1	8
389.426	1	-4
390.622	1	-8
391.817	1	3
393.013	1	-7
394.208	1	-3
395.404	1	-8
396.599	1	-1
397.795	1	-3
398.990	1	-4
400.186	1	-5
401.381	1	-10
402.576	1	-5
403.771	1	6
404.967	1	-1
406.162	1	7
407.357	1	2
408.552	1	-4
409.747	1	-3
410.942	1	10
412.137	1	5
413.332	1	3
414.526	1	0
415.721	1	-4
416.916	1	-8
418.111	1	-5
419.305	1	0
420.500	1	-8
421.695	1	-6
422.889	1	-9
424.084	1	1
425.278	1	12
426.472	1	5
427.667	1	-7
428.861	1	-5
430.055	1	2
431.250	1	-13
432.444	1	3
433.638	1	-14
434.832	1	7
436.026	1	6
437.220	1	3
438.414	1	-11
439.608	1	-6
440.802	1	-1
441.996	1	2
443.190	1	-1
444.384	1	-12
445.578	1	-12
446.771	1	14
447.965	1	-6
449.159	1	-4
450.352	1	-2
451.546	1	-3
452.739	1	2
453.933	1	-3
455.126	1	-14
456.320	1	-1
457.513	1	10
458.706	1	-5
459.899	1	-2
461.093	1	-3
462.286	1	-3
463.479	1	4
464.672	1	-10
465.865	1	-2
467.058	1	-5
468.251	1	1
469.444	1	-11
470.637	1	-2
471.830	1	4
473.023	1	-7
474.215	1	6
475.408	1	3
476.601	1	1
477.793	1	-5
478.986	1	-8
480.179	1	0
481.371	1	0
482.564	1	-4
483.756	1	5
484.948	1	-9
486.141	1	-1
487.333	1	-1
488.525	1	-5
489.718	1	-2
490.910	1	-6
492.102	1	-2
493.294	1	-6
494.486	1	2
495.678	1	2
496.870	1	5
498.062	1	3
499.254	1	3
500.446	1	-20
501.638	1	5
502.829	1	-2
504.021	1	-2
505.213	1	3
506.404	1	1
507.596	1	-4
508.788	1	11
509.979	1	0
511.171	1	-7
512.362	1	-3
513.553	1	-8
514.745	1	-8
515.936	1	-6
517.127	1	0
518.319	1	7
519.510	1	5
520.701	1	-3
521.892	1	4
523.083	1	-5
524.274	1	1
525.465	1	8
526.656	1	0
527.847	1	-2
529.038	1	-1
530.229	1	1
531.419	1	0
532.610	1	3
533.801	1	12
534.991	1	2
536.182	1	-4
537.373	1	1
538.563	1	2
539.754	1	7
540.944	1	-3
542.134	1	8
543.325	1	5
544.515	1	-6
545.705	1	0
546.896	1	-5
548.086	1	7
549.276	1	-6
550.466	1	-3
551.656	1	3
552.846	1	-1
554.036	1	1
555.226	1	-8
556.416	1	-6
557.606	1	9
558.796	1	7
559.986	1	0
561.175	1	1
562.365	1	3
563.555	1	-1
564.744	1	5
565.934	1	4
567.123	1	-2
568.313	1	2
569.502	1	-1
570.692	1	9
571.881	1	4
573.070	1	-3
574.260	1	6
575.449	1	-3
576.638	1	-9
577.827	1	2
579.016	1	7
580.205	1	1
581.394	1	-7
582.583	1	10
583.772	1	5
584.961	1	4
586.150	1	3
587.339	1	-3
588.528	1	8
589.717	1	0
590.905	1	-2
592.094	1	-2
593.283	1	-4
594.471	1	4
595.660	1	-5
596.848	1	-4
598.037	1	-3
599.225	1	1
600.413	1	4
601.602	1	6
602.790	1	-2
603.978	1	0
605.166	1	0
606.355	1	2
607.543	1	2
608.731	1	-4
609.919	1	8
611.107	1	-1
612.295	1	-4
613.483	1	4
614.671	1	-2
615.858	1	-3
617.046	1	-3
618.234	1	-3
619.422	1	-12
620.609	1	5
621.797	1	-8
622.985	1	-10
624.172	1	-11
625.360	1	-4
626.547	1	-3
627.735	1	3
628.922	1	3
630.109	1	-11
631.297	1	0
632.484	1	-3
633.671	1	-3
634.858	1	-11
636.045	1	18
637.232	1	-2
638.419	1	-8
639.606	1	2
640.793	1	4
641.980	1	8
643.167	1	0
644.354	1	-1
645.541	1	-2
646.728	1	-1
647.914	1	0
649.101	1	-2
650.288	1	2
651.474	1	-2
652.661	1	-5
653.847	1	2
655.034	1	7
656.220	1	-11
657.406	1	5
658.593	1	5
659.779	1	6
660.965	1	3
662.152	1	5
663.338	1	6
664.524	1	6
665.710	1	0
666.896	1	-7
668.082	1	3
669.268	1	-2
670.454	1	3
671.640	1	6
672.826	1	-2
674.011	1	1
675.197	1	-11
676.383	1	-5
677.569	1	-13
678.754	1	1
679.940	1	0
681.125	1	1
682.311	1	3
683.496	1	-1
684.682	1	-7
685.867	1	0
687.053	1	2
688.238	1	5
688.746	1	-5