File: Data/GaN_200K_800ms/GaN_sample F_spot 12_UVVIS_200 K_200um_800 ms 2x2mm1_21.txt
340.368	1	3
341.565	1	1
342.763	1	5
343.960	1	2
345.157	1	-5
346.354	1	6
347.552	1	-5
348.749	1	-15
349.946	1	1
351.143	1	4
352.340	1	-1
353.537	1	4
354.734	1	5
355.931	1	-4
357.127	1	3
358.324	1	5
359.521	1	4
360.718	1	-1
361.914	1	-3
363.111	1	-7
364.308	1	-5
365.504	1	3
366.701	1	-8
367.897	1	3
369.093	1	-7
370.290	1	-6
371.486	1	4
372.682	1	2
373.879	1	0
375.075	1	-10
376.271	1	8
377.467	1	-3
378.663	1	-14
379.859	1	5
381.055	1	8
382.251	1	-9
383.447	1	0
384.643	1	3
385.839	1	0
387.035	1	3
388.230	1	10
389.426	1	5
390.622	1	-6
391.817	1	8
393.013	1	9
394.208	1	0
395.404	1	-3
396.599	1	11
397.795	1	-2
398.990	1	1
400.186	1	-3
401.381	1	-2
402.576	1	2
403.771	1	3
404.967	1	-3
406.162	1	4
407.357	1	-2
408.552	1	-1
409.747	1	-1
410.942	1	4
412.137	1	6
413.332	1	9
414.526	1	-5
415.721	1	-1
416.916	1	-3
418.111	1	5
419.305	1	3
420.500	1	-2
421.695	1	-8
422.889	1	-10
424.084	1	-5
425.278	1	15
426.472	1	-2
427.667	1	5
428.861	1	4
430.055	1	0
431.250	1	0
432.444	1	11
433.638	1	-1
434.832	1	2
436.026	1	18
437.220	1	6
438.414	1	-1
439.608	1	-15
440.802	1	-4
441.996	1	6
443.190	1	-2
444.384	1	-11
445.578	1	0
446.771	1	4
447.965	1	0
449.159	1	-9
450.352	1	6
451.546	1	1
452.739	1	6
453.933	1	1
455.126	1	-3
456.320	1	-2
457.513	1	0
458.706	1	0
459.899	1	0
461.093	1	-5
462.286	1	0
463.479	1	6
464.672	1	0
465.865	1	-1
467.058	1	-1
468.251	1	9
469.444	1	-6
470.637	1	0
471.830	1	6
473.023	1	8
474.215	1	9
475.408	1	-5
476.601	1	-1
477.793	1	-4
478.986	1	2
480.179	1	0
481.371	1	7
482.564	1	-4
483.756	1	1
484.948	1	-9
486.141	1	4
487.333	1	-7
488.525	1	-5
489.718	1	1
490.910	1	2
492.102	1	-2
493.294	1	-4
494.486	1	10
495.678	1	6
496.870	1	1
498.062	1	0
499.254	1	3
500.446	1	-12
501.638	1	-7
502.829	1	6
504.021	1	-2
505.213	1	11
506.404	1	6
507.596	1	8
508.788	1	15
509.979	1	-7
511.171	1	-7
512.362	1	-6
513.553	1	-5
514.745	1	-7
515.936	1	0
517.127	1	1
518.319	1	-8
519.510	1	3
520.701	1	4
521.892	1	11
523.083	1	-3
524.274	1	-2
525.465	1	11
526.656	1	1
527.847	1	6
529.038	1	7
530.229	1	-8
531.419	1	11
532.610	1	-3
533.801	1	10
534.991	1	-8
536.182	1	3
537.373	1	1
538.563	1	8
539.754	1	5
540.944	1	-4
542.134	1	10
543.325	1	6
544.515	1	-7
545.705	1	-1
546.896	1	-4
548.086	1	2
549.276	1	1
550.466	1	-5
551.656	1	0
552.846	1	0
554.036	1	3
555.226	1	-2
556.416	1	-2
557.606	1	4
558.796	1	-4
559.986	1	-5
561.175	1	1
562.365	1	9
563.555	1	-6
564.744	1	6
565.934	1	7
567.123	1	1
568.313	1	8
569.502	1	-6
570.692	1	3
571.881	1	13
573.070	1	3
574.260	1	6
575.449	1	-7
576.638	1	-3
577.827	1	-8
579.016	1	13
580.205	1	1
581.394	1	1
582.583	1	19
583.772	1	5
584.961	1	3
586.150	1	-5
587.339	1	-1
588.528	1	3
589.717	1	-2
590.905	1	0
592.094	1	4
593.283	1	-2
594.471	1	9
595.660	1	-3
596.848	1	-2
598.037	1	-6
599.225	1	-8
600.413	1	4
601.602	1	7
602.790	1	-4
603.978	1	2
605.166	1	-2
606.355	1	3
607.543	1	4
608.731	1	2
609.919	1	16
611.107	1	-6
612.295	1	-2
613.483	1	1
614.671	1	7
615.858	1	5
617.046	1	3
618.234	1	-5
619.422	1	-11
620.609	1	6
621.797	1	3
622.985	1	-5
624.172	1	2
625.360	1	-3
626.547	1	2
627.735	1	6
628.922	1	4
630.109	1	-7
631.297	1	0
632.484	1	-1
633.671	1	-5
634.858	1	-3
636.045	1	3
637.232	1	-1
638.419	1	-5
639.606	1	3
640.793	1	10
641.980	1	-1
643.167	1	-7
644.354	1	4
645.541	1	3
646.728	1	5
647.914	1	4
649.101	1	1
650.288	1	2
651.474	1	0
652.661	1	-3
653.847	1	11
655.034	1	9
656.220	1	1
657.406	1	7
658.593	1	4
659.779	1	4
660.965	1	11
662.152	1	1
663.338	1	7
664.524	1	4
665.710	1	6
666.896	1	-4
668.082	1	-2
669.268	1	2
670.454	1	11
671.640	1	4
672.826	1	-3
674.011	1	1
675.197	1	-7
676.383	1	-2
677.569	1	-2
678.754	1	-4
679.940	1	4
681.125	1	1
682.311	1	8
683.496	1	3
684.682	1	-7
685.867	1	3
687.053	1	6
688.238	1	1
688.746	1	-1