File: Data/GaN_200K_800ms/GaN_sample F_spot 12_UVVIS_200 K_200um_800 ms 2x2mm1_417.txt
340.368	1	3
341.565	1	-18
342.763	1	6
343.960	1	-7
345.157	1	0
346.354	1	0
347.552	1	-3
348.749	1	-4
349.946	1	-1
351.143	1	-1
352.340	1	4
353.537	1	-5
354.734	1	3
355.931	1	-3
357.127	1	-9
358.324	1	-5
359.521	1	8
360.718	1	7
361.914	1	5
363.111	1	0
364.308	1	0
365.504	1	6
366.701	1	0
367.897	1	13
369.093	1	3
370.290	1	15
371.486	1	17
372.682	1	18
373.879	1	3
375.075	1	4
376.271	1	8
377.467	1	2
378.663	1	-2
379.859	1	-6
381.055	1	12
382.251	1	-2
383.447	1	3
384.643	1	12
385.839	1	5
387.035	1	3
388.230	1	7
389.426	1	-6
390.622	1	-5
391.817	1	2
393.013	1	-8
394.208	1	-6
395.404	1	4
396.599	1	-11
397.795	1	1
398.990	1	3
400.186	1	-2
401.381	1	0
402.576	1	-4
403.771	1	3
404.967	1	3
406.162	1	6
407.357	1	-2
408.552	1	0
409.747	1	-1
410.942	1	-4
412.137	1	-3
413.332	1	0
414.526	1	-4
415.721	1	1
416.916	1	-8
418.111	1	-2
419.305	1	3
420.500	1	-9
421.695	1	-21
422.889	1	-3
424.084	1	-4
425.278	1	-1
426.472	1	-1
427.667	1	4
428.861	1	-3
430.055	1	0
431.250	1	-11
432.444	1	-2
433.638	1	-3
434.832	1	2
436.026	1	-3
437.220	1	3
438.414	1	-5
439.608	1	-5
440.802	1	-4
441.996	1	2
443.190	1	4
444.384	1	-10
445.578	1	-10
446.771	1	9
447.965	1	4
449.159	1	-8
450.352	1	0
451.546	1	-2
452.739	1	0
453.933	1	-5
455.126	1	-11
456.320	1	-1
457.513	1	8
458.706	1	-6
459.899	1	-3
461.093	1	1
462.286	1	0
463.479	1	-4
464.672	1	4
465.865	1	4
467.058	1	0
468.251	1	-11
469.444	1	-5
470.637	1	-2
471.830	1	-8
473.023	1	-1
474.215	1	6
475.408	1	0
476.601	1	-5
477.793	1	9
478.986	1	0
480.179	1	-2
481.371	1	6
482.564	1	-2
483.756	1	-2
484.948	1	-8
486.141	1	-4
487.333	1	-4
488.525	1	0
489.718	1	-1
490.910	1	-1
492.102	1	-7
493.294	1	-1
494.486	1	4
495.678	1	-9
496.870	1	3
498.062	1	-6
499.254	1	8
500.446	1	-7
501.638	1	-6
502.829	1	3
504.021	1	-4
505.213	1	3
506.404	1	10
507.596	1	1
508.788	1	13
509.979	1	-8
511.171	1	-8
512.362	1	-13
513.553	1	-12
514.745	1	1
515.936	1	-3
517.127	1	4
518.319	1	0
519.510	1	5
520.701	1	3
521.892	1	4
523.083	1	2
524.274	1	3
525.465	1	4
526.656	1	0
527.847	1	2
529.038	1	9
530.229	1	1
531.419	1	-3
532.610	1	-6
533.801	1	10
534.991	1	0
536.182	1	-1
537.373	1	-1
538.563	1	7
539.754	1	0
540.944	1	-10
542.134	1	3
543.325	1	0
544.515	1	-2
545.705	1	-5
546.896	1	-1
548.086	1	5
549.276	1	-2
550.466	1	3
551.656	1	3
552.846	1	-1
554.036	1	5
555.226	1	-9
556.416	1	-7
557.606	1	7
558.796	1	-1
559.986	1	-4
561.175	1	1
562.365	1	-7
563.555	1	-7
564.744	1	4
565.934	1	6
567.123	1	0
568.313	1	4
569.502	1	-6
570.692	1	-6
571.881	1	9
573.070	1	4
574.260	1	6
575.449	1	2
576.638	1	-1
577.827	1	-1
579.016	1	7
580.205	1	-2
581.394	1	1
582.583	1	12
583.772	1	7
584.961	1	6
586.150	1	3
587.339	1	7
588.528	1	4
589.717	1	3
590.905	1	-1
592.094	1	-1
593.283	1	-7
594.471	1	8
595.660	1	3
596.848	1	2
598.037	1	-10
599.225	1	-17
600.413	1	4
601.602	1	4
602.790	1	2
603.978	1	2
605.166	1	2
606.355	1	0
607.543	1	-1
608.731	1	4
609.919	1	4
611.107	1	-2
612.295	1	-15
613.483	1	0
614.671	1	4
615.858	1	-1
617.046	1	1
618.234	1	-7
619.422	1	-8
620.609	1	5
621.797	1	-8
622.985	1	-4
624.172	1	4
625.360	1	-1
626.547	1	-2
627.735	1	1
628.922	1	3
630.109	1	-7
631.297	1	1
632.484	1	-10
633.671	1	-9
634.858	1	-4
636.045	1	8
637.232	1	-2
638.419	1	0
639.606	1	7
640.793	1	14
641.980	1	10
643.167	1	-8
644.354	1	-1
645.541	1	0
646.728	1	-6
647.914	1	-6
649.101	1	-4
650.288	1	2
651.474	1	-6
652.661	1	1
653.847	1	6
655.034	1	3
656.220	1	-9
657.406	1	5
658.593	1	5
659.779	1	-3
660.965	1	-3
662.152	1	-4
663.338	1	17
664.524	1	8
665.710	1	-3
666.896	1	-9
668.082	1	1
669.268	1	1
670.454	1	5
671.640	1	-3
672.826	1	-1
674.011	1	-8
675.197	1	-6
676.383	1	0
677.569	1	-2
678.754	1	-6
679.940	1	-5
681.125	1	4
682.311	1	2
683.496	1	0
684.682	1	-7
685.867	1	-5
687.053	1	5
688.238	1	5
688.746	1	-1