File: Data/GaN_200K_800ms/GaN_sample F_spot 12_UVVIS_200 K_200um_800 ms 2x2mm1_461.txt
340.368	1	2
341.565	1	-9
342.763	1	10
343.960	1	2
345.157	1	-6
346.354	1	1
347.552	1	-4
348.749	1	-15
349.946	1	-5
351.143	1	-5
352.340	1	2
353.537	1	-3
354.734	1	3
355.931	1	-5
357.127	1	-6
358.324	1	-4
359.521	1	3
360.718	1	-3
361.914	1	16
363.111	1	6
364.308	1	0
365.504	1	5
366.701	1	0
367.897	1	9
369.093	1	-2
370.290	1	-3
371.486	1	9
372.682	1	9
373.879	1	1
375.075	1	0
376.271	1	13
377.467	1	3
378.663	1	5
379.859	1	3
381.055	1	0
382.251	1	-2
383.447	1	-3
384.643	1	6
385.839	1	-7
387.035	1	3
388.230	1	10
389.426	1	6
390.622	1	-7
391.817	1	5
393.013	1	4
394.208	1	1
395.404	1	7
396.599	1	-9
397.795	1	4
398.990	1	-4
400.186	1	0
401.381	1	-7
402.576	1	-1
403.771	1	-4
404.967	1	0
406.162	1	-2
407.357	1	-6
408.552	1	-8
409.747	1	-5
410.942	1	8
412.137	1	1
413.332	1	-2
414.526	1	0
415.721	1	-8
416.916	1	-10
418.111	1	-3
419.305	1	4
420.500	1	-1
421.695	1	-3
422.889	1	-8
424.084	1	-3
425.278	1	8
426.472	1	1
427.667	1	4
428.861	1	-4
430.055	1	5
431.250	1	-15
432.444	1	7
433.638	1	-10
434.832	1	8
436.026	1	0
437.220	1	-9
438.414	1	-3
439.608	1	-5
440.802	1	-8
441.996	1	-2
443.190	1	9
444.384	1	-11
445.578	1	-19
446.771	1	6
447.965	1	-2
449.159	1	-5
450.352	1	-7
451.546	1	-5
452.739	1	3
453.933	1	-1
455.126	1	-11
456.320	1	-2
457.513	1	3
458.706	1	8
459.899	1	-4
461.093	1	3
462.286	1	-2
463.479	1	-6
464.672	1	1
465.865	1	-9
467.058	1	-1
468.251	1	-3
469.444	1	-14
470.637	1	-1
471.830	1	-4
473.023	1	0
474.215	1	14
475.408	1	-6
476.601	1	-7
477.793	1	-10
478.986	1	-3
480.179	1	5
481.371	1	-8
482.564	1	-8
483.756	1	3
484.948	1	2
486.141	1	0
487.333	1	2
488.525	1	5
489.718	1	-6
490.910	1	0
492.102	1	3
493.294	1	-8
494.486	1	4
495.678	1	-4
496.870	1	7
498.062	1	-3
499.254	1	-7
500.446	1	-16
501.638	1	-6
502.829	1	-5
504.021	1	-2
505.213	1	-2
506.404	1	0
507.596	1	-4
508.788	1	6
509.979	1	2
511.171	1	-6
512.362	1	-2
513.553	1	-5
514.745	1	-3
515.936	1	2
517.127	1	5
518.319	1	1
519.510	1	0
520.701	1	-3
521.892	1	0
523.083	1	8
524.274	1	-1
525.465	1	10
526.656	1	-3
527.847	1	7
529.038	1	1
530.229	1	-6
531.419	1	3
532.610	1	-6
533.801	1	2
534.991	1	-5
536.182	1	1
537.373	1	5
538.563	1	6
539.754	1	-1
540.944	1	-12
542.134	1	6
543.325	1	-4
544.515	1	-2
545.705	1	2
546.896	1	-4
548.086	1	0
549.276	1	1
550.466	1	0
551.656	1	3
552.846	1	4
554.036	1	-3
555.226	1	-4
556.416	1	-8
557.606	1	-1
558.796	1	-1
559.986	1	-5
561.175	1	3
562.365	1	2
563.555	1	-5
564.744	1	4
565.934	1	4
567.123	1	5
568.313	1	0
569.502	1	6
570.692	1	5
571.881	1	11
573.070	1	1
574.260	1	5
575.449	1	-5
576.638	1	2
577.827	1	-12
579.016	1	11
580.205	1	-4
581.394	1	-1
582.583	1	3
583.772	1	0
584.961	1	6
586.150	1	-7
587.339	1	6
588.528	1	-6
589.717	1	7
590.905	1	-6
592.094	1	-2
593.283	1	-1
594.471	1	1
595.660	1	5
596.848	1	4
598.037	1	0
599.225	1	-12
600.413	1	2
601.602	1	8
602.790	1	5
603.978	1	-2
605.166	1	-7
606.355	1	4
607.543	1	-2
608.731	1	-4
609.919	1	13
611.107	1	-6
612.295	1	0
613.483	1	-4
614.671	1	4
615.858	1	1
617.046	1	5
618.234	1	-16
619.422	1	-4
620.609	1	8
621.797	1	-1
622.985	1	-5
624.172	1	-16
625.360	1	3
626.547	1	-2
627.735	1	4
628.922	1	3
630.109	1	-12
631.297	1	-11
632.484	1	-8
633.671	1	-13
634.858	1	-4
636.045	1	15
637.232	1	-3
638.419	1	2
639.606	1	10
640.793	1	4
641.980	1	7
643.167	1	-6
644.354	1	5
645.541	1	1
646.728	1	-5
647.914	1	-3
649.101	1	-1
650.288	1	7
651.474	1	-5
652.661	1	-9
653.847	1	7
655.034	1	1
656.220	1	-5
657.406	1	-6
658.593	1	2
659.779	1	-6
660.965	1	7
662.152	1	-1
663.338	1	9
664.524	1	3
665.710	1	-6
666.896	1	-3
668.082	1	-4
669.268	1	-12
670.454	1	5
671.640	1	2
672.826	1	-9
674.011	1	-4
675.197	1	-12
676.383	1	-6
677.569	1	-3
678.754	1	-3
679.940	1	-5
681.125	1	-1
682.311	1	3
683.496	1	3
684.682	1	-9
685.867	1	-1
687.053	1	-1
688.238	1	15
688.746	1	-2