File: Data/GaN_200K_800ms/GaN_sample F_spot 12_UVVIS_200 K_200um_800 ms 2x2mm1_523.txt
340.368	1	3
341.565	1	-7
342.763	1	3
343.960	1	-5
345.157	1	-8
346.354	1	-1
347.552	1	-2
348.749	1	-10
349.946	1	0
351.143	1	-1
352.340	1	9
353.537	1	-6
354.734	1	-4
355.931	1	-6
357.127	1	-5
358.324	1	-2
359.521	1	6
360.718	1	5
361.914	1	6
363.111	1	-6
364.308	1	5
365.504	1	19
366.701	1	3
367.897	1	6
369.093	1	-3
370.290	1	-2
371.486	1	5
372.682	1	8
373.879	1	-2
375.075	1	1
376.271	1	13
377.467	1	-1
378.663	1	2
379.859	1	1
381.055	1	7
382.251	1	7
383.447	1	-3
384.643	1	3
385.839	1	1
387.035	1	-4
388.230	1	1
389.426	1	0
390.622	1	-7
391.817	1	-12
393.013	1	-4
394.208	1	2
395.404	1	-3
396.599	1	-7
397.795	1	-1
398.990	1	0
400.186	1	-4
401.381	1	-8
402.576	1	1
403.771	1	3
404.967	1	4
406.162	1	-7
407.357	1	0
408.552	1	-2
409.747	1	-3
410.942	1	8
412.137	1	2
413.332	1	2
414.526	1	0
415.721	1	3
416.916	1	-6
418.111	1	-2
419.305	1	-1
420.500	1	1
421.695	1	-1
422.889	1	-1
424.084	1	-7
425.278	1	15
426.472	1	-9
427.667	1	2
428.861	1	1
430.055	1	2
431.250	1	3
432.444	1	8
433.638	1	-3
434.832	1	1
436.026	1	6
437.220	1	-1
438.414	1	-17
439.608	1	-10
440.802	1	-6
441.996	1	4
443.190	1	2
444.384	1	-6
445.578	1	-12
446.771	1	12
447.965	1	0
449.159	1	-14
450.352	1	-2
451.546	1	-5
452.739	1	15
453.933	1	-3
455.126	1	-12
456.320	1	-1
457.513	1	6
458.706	1	-11
459.899	1	1
461.093	1	-14
462.286	1	-1
463.479	1	-1
464.672	1	3
465.865	1	-5
467.058	1	-1
468.251	1	-3
469.444	1	-7
470.637	1	-10
471.830	1	-5
473.023	1	5
474.215	1	-2
475.408	1	-8
476.601	1	-7
477.793	1	-6
478.986	1	-6
480.179	1	-2
481.371	1	-7
482.564	1	5
483.756	1	6
484.948	1	-8
486.141	1	-5
487.333	1	6
488.525	1	-8
489.718	1	-3
490.910	1	1
492.102	1	-4
493.294	1	-16
494.486	1	5
495.678	1	0
496.870	1	2
498.062	1	3
499.254	1	6
500.446	1	-3
501.638	1	-5
502.829	1	-5
504.021	1	-1
505.213	1	5
506.404	1	2
507.596	1	-6
508.788	1	19
509.979	1	-1
511.171	1	-1
512.362	1	-5
513.553	1	-12
514.745	1	-8
515.936	1	-5
517.127	1	2
518.319	1	2
519.510	1	2
520.701	1	-2
521.892	1	-4
523.083	1	-1
524.274	1	1
525.465	1	1
526.656	1	-3
527.847	1	2
529.038	1	-2
530.229	1	5
531.419	1	-3
532.610	1	-5
533.801	1	9
534.991	1	3
536.182	1	3
537.373	1	-3
538.563	1	-5
539.754	1	-2
540.944	1	-3
542.134	1	0
543.325	1	-3
544.515	1	-7
545.705	1	8
546.896	1	0
548.086	1	4
549.276	1	-7
550.466	1	5
551.656	1	11
552.846	1	-3
554.036	1	5
555.226	1	-5
556.416	1	-8
557.606	1	1
558.796	1	-4
559.986	1	-10
561.175	1	-6
562.365	1	7
563.555	1	-7
564.744	1	0
565.934	1	10
567.123	1	3
568.313	1	4
569.502	1	-6
570.692	1	4
571.881	1	7
573.070	1	0
574.260	1	6
575.449	1	-2
576.638	1	0
577.827	1	-8
579.016	1	7
580.205	1	-4
581.394	1	-8
582.583	1	10
583.772	1	6
584.961	1	7
586.150	1	-4
587.339	1	-2
588.528	1	-2
589.717	1	-3
590.905	1	3
592.094	1	-12
593.283	1	-5
594.471	1	8
595.660	1	2
596.848	1	0
598.037	1	-5
599.225	1	-7
600.413	1	4
601.602	1	8
602.790	1	6
603.978	1	-7
605.166	1	0
606.355	1	3
607.543	1	-3
608.731	1	-4
609.919	1	10
611.107	1	4
612.295	1	-7
613.483	1	1
614.671	1	1
615.858	1	2
617.046	1	4
618.234	1	-9
619.422	1	-8
620.609	1	1
621.797	1	-9
622.985	1	-9
624.172	1	-3
625.360	1	0
626.547	1	0
627.735	1	-5
628.922	1	7
630.109	1	-7
631.297	1	10
632.484	1	-12
633.671	1	-5
634.858	1	-9
636.045	1	9
637.232	1	-5
638.419	1	-10
639.606	1	1
640.793	1	13
641.980	1	5
643.167	1	-7
644.354	1	1
645.541	1	-5
646.728	1	3
647.914	1	-6
649.101	1	0
650.288	1	-1
651.474	1	-4
652.661	1	-11
653.847	1	4
655.034	1	-3
656.220	1	-9
657.406	1	-1
658.593	1	9
659.779	1	0
660.965	1	12
662.152	1	-3
663.338	1	2
664.524	1	2
665.710	1	-3
666.896	1	-5
668.082	1	-2
669.268	1	-3
670.454	1	4
671.640	1	-1
672.826	1	-2
674.011	1	-1
675.197	1	-2
676.383	1	3
677.569	1	-7
678.754	1	-7
679.940	1	-3
681.125	1	-1
682.311	1	5
683.496	1	-1
684.682	1	-7
685.867	1	-3
687.053	1	0
688.238	1	-1
688.746	1	0