File: Data/GaN_200K_800ms/GaN_sample F_spot 12_UVVIS_200 K_200um_800 ms 2x2mm1_30.txt
340.368	1	-4
341.565	1	-13
342.763	1	1
343.960	1	6
345.157	1	-6
346.354	1	9
347.552	1	-2
348.749	1	-9
349.946	1	-12
351.143	1	-1
352.340	1	3
353.537	1	3
354.734	1	5
355.931	1	0
357.127	1	2
358.324	1	-4
359.521	1	15
360.718	1	11
361.914	1	3
363.111	1	-3
364.308	1	3
365.504	1	6
366.701	1	3
367.897	1	2
369.093	1	-3
370.290	1	-3
371.486	1	8
372.682	1	-1
373.879	1	0
375.075	1	-3
376.271	1	7
377.467	1	-7
378.663	1	-8
379.859	1	-1
381.055	1	4
382.251	1	-3
383.447	1	-6
384.643	1	1
385.839	1	0
387.035	1	-4
388.230	1	15
389.426	1	2
390.622	1	5
391.817	1	3
393.013	1	-4
394.208	1	-2
395.404	1	-3
396.599	1	4
397.795	1	5
398.990	1	2
400.186	1	-1
401.381	1	3
402.576	1	-4
403.771	1	-3
404.967	1	0
406.162	1	4
407.357	1	1
408.552	1	3
409.747	1	-5
410.942	1	5
412.137	1	11
413.332	1	2
414.526	1	-4
415.721	1	8
416.916	1	-4
418.111	1	6
419.305	1	-2
420.500	1	-6
421.695	1	-3
422.889	1	-6
424.084	1	11
425.278	1	10
426.472	1	8
427.667	1	9
428.861	1	-4
430.055	1	4
431.250	1	0
432.444	1	6
433.638	1	6
434.832	1	5
436.026	1	8
437.220	1	8
438.414	1	-3
439.608	1	-5
440.802	1	-2
441.996	1	6
443.190	1	-6
444.384	1	-9
445.578	1	-4
446.771	1	17
447.965	1	0
449.159	1	-9
450.352	1	5
451.546	1	2
452.739	1	-4
453.933	1	5
455.126	1	-7
456.320	1	-5
457.513	1	7
458.706	1	-5
459.899	1	-4
461.093	1	10
462.286	1	8
463.479	1	5
464.672	1	0
465.865	1	-5
467.058	1	-2
468.251	1	2
469.444	1	-3
470.637	1	8
471.830	1	-3
473.023	1	2
474.215	1	7
475.408	1	-1
476.601	1	0
477.793	1	-3
478.986	1	4
480.179	1	-1
481.371	1	3
482.564	1	0
483.756	1	3
484.948	1	-3
486.141	1	1
487.333	1	9
488.525	1	0
489.718	1	-3
490.910	1	3
492.102	1	-4
493.294	1	1
494.486	1	0
495.678	1	4
496.870	1	8
498.062	1	-2
499.254	1	3
500.446	1	-8
501.638	1	5
502.829	1	7
504.021	1	5
505.213	1	3
506.404	1	3
507.596	1	10
508.788	1	17
509.979	1	-9
511.171	1	-6
512.362	1	0
513.553	1	-8
514.745	1	-1
515.936	1	-1
517.127	1	4
518.319	1	-1
519.510	1	1
520.701	1	-2
521.892	1	9
523.083	1	-1
524.274	1	7
525.465	1	3
526.656	1	4
527.847	1	0
529.038	1	5
530.229	1	6
531.419	1	1
532.610	1	1
533.801	1	6
534.991	1	4
536.182	1	-1
537.373	1	5
538.563	1	11
539.754	1	5
540.944	1	0
542.134	1	7
543.325	1	1
544.515	1	2
545.705	1	-6
546.896	1	1
548.086	1	-4
549.276	1	-7
550.466	1	1
551.656	1	1
552.846	1	1
554.036	1	2
555.226	1	2
556.416	1	0
557.606	1	4
558.796	1	5
559.986	1	-3
561.175	1	-3
562.365	1	4
563.555	1	-8
564.744	1	3
565.934	1	6
567.123	1	-2
568.313	1	7
569.502	1	0
570.692	1	-6
571.881	1	13
573.070	1	-3
574.260	1	12
575.449	1	-10
576.638	1	-6
577.827	1	-8
579.016	1	5
580.205	1	2
581.394	1	-2
582.583	1	5
583.772	1	8
584.961	1	11
586.150	1	-2
587.339	1	-8
588.528	1	12
589.717	1	6
590.905	1	-1
592.094	1	1
593.283	1	0
594.471	1	19
595.660	1	-3
596.848	1	-9
598.037	1	-5
599.225	1	-3
600.413	1	5
601.602	1	9
602.790	1	-8
603.978	1	1
605.166	1	-4
606.355	1	-5
607.543	1	2
608.731	1	5
609.919	1	5
611.107	1	-6
612.295	1	3
613.483	1	1
614.671	1	0
615.858	1	5
617.046	1	5
618.234	1	2
619.422	1	0
620.609	1	4
621.797	1	-1
622.985	1	2
624.172	1	2
625.360	1	-4
626.547	1	-4
627.735	1	12
628.922	1	-1
630.109	1	-10
631.297	1	6
632.484	1	-2
633.671	1	3
634.858	1	-1
636.045	1	6
637.232	1	-1
638.419	1	-2
639.606	1	6
640.793	1	7
641.980	1	7
643.167	1	-7
644.354	1	2
645.541	1	4
646.728	1	3
647.914	1	-3
649.101	1	-1
650.288	1	5
651.474	1	5
652.661	1	-6
653.847	1	10
655.034	1	1
656.220	1	-11
657.406	1	6
658.593	1	9
659.779	1	5
660.965	1	11
662.152	1	-3
663.338	1	3
664.524	1	3
665.710	1	7
666.896	1	-2
668.082	1	2
669.268	1	2
670.454	1	4
671.640	1	6
672.826	1	0
674.011	1	3
675.197	1	-14
676.383	1	6
677.569	1	2
678.754	1	-7
679.940	1	6
681.125	1	0
682.311	1	2
683.496	1	7
684.682	1	-9
685.867	1	4
687.053	1	5
688.238	1	9
688.746	1	-9