File: Data/GaN_200K_800ms/GaN_sample F_spot 12_UVVIS_200 K_200um_800 ms 2x2mm1_182.txt
340.368	1	6
341.565	1	-13
342.763	1	5
343.960	1	-2
345.157	1	0
346.354	1	2
347.552	1	-3
348.749	1	-11
349.946	1	-3
351.143	1	-6
352.340	1	7
353.537	1	6
354.734	1	2
355.931	1	-1
357.127	1	7
358.324	1	4
359.521	1	10
360.718	1	8
361.914	1	10
363.111	1	11
364.308	1	18
365.504	1	34
366.701	1	23
367.897	1	39
369.093	1	35
370.290	1	36
371.486	1	43
372.682	1	45
373.879	1	21
375.075	1	21
376.271	1	24
377.467	1	10
378.663	1	12
379.859	1	12
381.055	1	20
382.251	1	13
383.447	1	5
384.643	1	22
385.839	1	6
387.035	1	11
388.230	1	15
389.426	1	3
390.622	1	0
391.817	1	-4
393.013	1	2
394.208	1	3
395.404	1	0
396.599	1	7
397.795	1	1
398.990	1	1
400.186	1	-1
401.381	1	-1
402.576	1	-5
403.771	1	12
404.967	1	5
406.162	1	4
407.357	1	-2
408.552	1	-6
409.747	1	-1
410.942	1	8
412.137	1	7
413.332	1	9
414.526	1	-5
415.721	1	5
416.916	1	-3
418.111	1	1
419.305	1	6
420.500	1	3
421.695	1	-5
422.889	1	-2
424.084	1	-1
425.278	1	12
426.472	1	4
427.667	1	9
428.861	1	-4
430.055	1	0
431.250	1	-9
432.444	1	11
433.638	1	-1
434.832	1	1
436.026	1	8
437.220	1	2
438.414	1	-6
439.608	1	-5
440.802	1	-8
441.996	1	1
443.190	1	1
444.384	1	-7
445.578	1	-10
446.771	1	10
447.965	1	-4
449.159	1	-8
450.352	1	-1
451.546	1	-4
452.739	1	2
453.933	1	0
455.126	1	-2
456.320	1	-3
457.513	1	10
458.706	1	1
459.899	1	-5
461.093	1	2
462.286	1	-1
463.479	1	-2
464.672	1	-2
465.865	1	-4
467.058	1	-2
468.251	1	-4
469.444	1	7
470.637	1	0
471.830	1	-5
473.023	1	13
474.215	1	8
475.408	1	3
476.601	1	4
477.793	1	-12
478.986	1	2
480.179	1	4
481.371	1	-3
482.564	1	9
483.756	1	6
484.948	1	-7
486.141	1	2
487.333	1	3
488.525	1	-3
489.718	1	13
490.910	1	1
492.102	1	-4
493.294	1	-3
494.486	1	6
495.678	1	6
496.870	1	8
498.062	1	8
499.254	1	1
500.446	1	-9
501.638	1	2
502.829	1	-1
504.021	1	4
505.213	1	6
506.404	1	10
507.596	1	1
508.788	1	21
509.979	1	3
511.171	1	1
512.362	1	1
513.553	1	-6
514.745	1	-5
515.936	1	-6
517.127	1	-4
518.319	1	-2
519.510	1	1
520.701	1	2
521.892	1	1
523.083	1	3
524.274	1	4
525.465	1	11
526.656	1	-1
527.847	1	11
529.038	1	-3
530.229	1	14
531.419	1	3
532.610	1	-2
533.801	1	20
534.991	1	6
536.182	1	8
537.373	1	7
538.563	1	2
539.754	1	5
540.944	1	1
542.134	1	15
543.325	1	4
544.515	1	2
545.705	1	0
546.896	1	1
548.086	1	3
549.276	1	-1
550.466	1	1
551.656	1	3
552.846	1	-1
554.036	1	-1
555.226	1	-8
556.416	1	-6
557.606	1	1
558.796	1	-5
559.986	1	-3
561.175	1	0
562.365	1	7
563.555	1	3
564.744	1	6
565.934	1	13
567.123	1	3
568.313	1	4
569.502	1	5
570.692	1	12
571.881	1	14
573.070	1	3
574.260	1	13
575.449	1	-10
576.638	1	3
577.827	1	-11
579.016	1	5
580.205	1	14
581.394	1	4
582.583	1	13
583.772	1	2
584.961	1	12
586.150	1	-2
587.339	1	-2
588.528	1	1
589.717	1	15
590.905	1	0
592.094	1	-4
593.283	1	7
594.471	1	7
595.660	1	3
596.848	1	-1
598.037	1	5
599.225	1	-11
600.413	1	13
601.602	1	20
602.790	1	-6
603.978	1	6
605.166	1	10
606.355	1	1
607.543	1	-5
608.731	1	-3
609.919	1	10
611.107	1	-7
612.295	1	-6
613.483	1	3
614.671	1	-1
615.858	1	1
617.046	1	2
618.234	1	6
619.422	1	-8
620.609	1	9
621.797	1	-13
622.985	1	1
624.172	1	8
625.360	1	-5
626.547	1	2
627.735	1	9
628.922	1	9
630.109	1	-10
631.297	1	-5
632.484	1	-1
633.671	1	-6
634.858	1	-6
636.045	1	24
637.232	1	-9
638.419	1	-6
639.606	1	2
640.793	1	8
641.980	1	0
643.167	1	-5
644.354	1	7
645.541	1	4
646.728	1	-3
647.914	1	2
649.101	1	-4
650.288	1	4
651.474	1	-4
652.661	1	-6
653.847	1	11
655.034	1	-2
656.220	1	-1
657.406	1	1
658.593	1	6
659.779	1	3
660.965	1	9
662.152	1	7
663.338	1	16
664.524	1	11
665.710	1	9
666.896	1	-11
668.082	1	4
669.268	1	-4
670.454	1	3
671.640	1	1
672.826	1	-2
674.011	1	-2
675.197	1	-9
676.383	1	2
677.569	1	0
678.754	1	-5
679.940	1	-8
681.125	1	2
682.311	1	12
683.496	1	3
684.682	1	-6
685.867	1	6
687.053	1	-6
688.238	1	11
688.746	1	0