File: Data/GaN_200K_800ms/GaN_sample F_spot 12_UVVIS_200 K_200um_800 ms 2x2mm1_375.txt
340.368	1	6
341.565	1	-11
342.763	1	-1
343.960	1	-2
345.157	1	-6
346.354	1	-7
347.552	1	-12
348.749	1	-7
349.946	1	-4
351.143	1	1
352.340	1	3
353.537	1	0
354.734	1	-3
355.931	1	-5
357.127	1	-7
358.324	1	-4
359.521	1	-1
360.718	1	1
361.914	1	4
363.111	1	-3
364.308	1	6
365.504	1	9
366.701	1	5
367.897	1	19
369.093	1	1
370.290	1	8
371.486	1	22
372.682	1	9
373.879	1	5
375.075	1	1
376.271	1	6
377.467	1	11
378.663	1	-12
379.859	1	3
381.055	1	7
382.251	1	-3
383.447	1	-5
384.643	1	9
385.839	1	-3
387.035	1	0
388.230	1	17
389.426	1	-7
390.622	1	-13
391.817	1	-1
393.013	1	6
394.208	1	2
395.404	1	-4
396.599	1	-7
397.795	1	2
398.990	1	-1
400.186	1	-6
401.381	1	-5
402.576	1	-13
403.771	1	-1
404.967	1	9
406.162	1	3
407.357	1	-1
408.552	1	0
409.747	1	-3
410.942	1	5
412.137	1	3
413.332	1	1
414.526	1	-2
415.721	1	2
416.916	1	-7
418.111	1	-3
419.305	1	7
420.500	1	-6
421.695	1	-9
422.889	1	-5
424.084	1	1
425.278	1	9
426.472	1	2
427.667	1	7
428.861	1	-7
430.055	1	-7
431.250	1	-6
432.444	1	10
433.638	1	-11
434.832	1	2
436.026	1	-2
437.220	1	-2
438.414	1	-9
439.608	1	-17
440.802	1	-2
441.996	1	7
443.190	1	4
444.384	1	-14
445.578	1	-5
446.771	1	1
447.965	1	3
449.159	1	-3
450.352	1	-4
451.546	1	3
452.739	1	-3
453.933	1	-2
455.126	1	-5
456.320	1	-7
457.513	1	1
458.706	1	3
459.899	1	-2
461.093	1	-7
462.286	1	1
463.479	1	1
464.672	1	-1
465.865	1	4
467.058	1	-5
468.251	1	-4
469.444	1	-4
470.637	1	-7
471.830	1	-6
473.023	1	2
474.215	1	6
475.408	1	2
476.601	1	6
477.793	1	5
478.986	1	-2
480.179	1	-6
481.371	1	5
482.564	1	8
483.756	1	2
484.948	1	-8
486.141	1	-4
487.333	1	2
488.525	1	1
489.718	1	-4
490.910	1	4
492.102	1	-11
493.294	1	-1
494.486	1	-2
495.678	1	-2
496.870	1	-2
498.062	1	0
499.254	1	-1
500.446	1	-7
501.638	1	0
502.829	1	-6
504.021	1	4
505.213	1	12
506.404	1	5
507.596	1	-8
508.788	1	13
509.979	1	-2
511.171	1	-9
512.362	1	4
513.553	1	-7
514.745	1	-8
515.936	1	0
517.127	1	-4
518.319	1	7
519.510	1	-2
520.701	1	-3
521.892	1	2
523.083	1	-3
524.274	1	-6
525.465	1	10
526.656	1	-3
527.847	1	-1
529.038	1	-10
530.229	1	12
531.419	1	2
532.610	1	1
533.801	1	5
534.991	1	6
536.182	1	-5
537.373	1	-1
538.563	1	3
539.754	1	-4
540.944	1	-4
542.134	1	7
543.325	1	1
544.515	1	-6
545.705	1	4
546.896	1	0
548.086	1	-2
549.276	1	-2
550.466	1	-4
551.656	1	-1
552.846	1	1
554.036	1	4
555.226	1	-14
556.416	1	-9
557.606	1	0
558.796	1	-4
559.986	1	-15
561.175	1	2
562.365	1	6
563.555	1	-5
564.744	1	9
565.934	1	14
567.123	1	-4
568.313	1	3
569.502	1	-3
570.692	1	6
571.881	1	14
573.070	1	2
574.260	1	7
575.449	1	-2
576.638	1	-5
577.827	1	-4
579.016	1	13
580.205	1	-2
581.394	1	-8
582.583	1	5
583.772	1	-7
584.961	1	3
586.150	1	-4
587.339	1	6
588.528	1	0
589.717	1	1
590.905	1	-2
592.094	1	-9
593.283	1	-8
594.471	1	12
595.660	1	0
596.848	1	1
598.037	1	0
599.225	1	-11
600.413	1	8
601.602	1	7
602.790	1	6
603.978	1	-4
605.166	1	4
606.355	1	2
607.543	1	-3
608.731	1	-6
609.919	1	1
611.107	1	-10
612.295	1	-17
613.483	1	1
614.671	1	-3
615.858	1	2
617.046	1	-2
618.234	1	1
619.422	1	-8
620.609	1	8
621.797	1	0
622.985	1	6
624.172	1	-4
625.360	1	-1
626.547	1	4
627.735	1	4
628.922	1	4
630.109	1	-18
631.297	1	0
632.484	1	1
633.671	1	0
634.858	1	-5
636.045	1	4
637.232	1	-3
638.419	1	-8
639.606	1	6
640.793	1	9
641.980	1	1
643.167	1	-5
644.354	1	-2
645.541	1	-8
646.728	1	4
647.914	1	-4
649.101	1	-6
650.288	1	4
651.474	1	5
652.661	1	-7
653.847	1	-4
655.034	1	0
656.220	1	-1
657.406	1	5
658.593	1	1
659.779	1	-6
660.965	1	1
662.152	1	8
663.338	1	7
664.524	1	-3
665.710	1	5
666.896	1	-3
668.082	1	0
669.268	1	-3
670.454	1	8
671.640	1	-5
672.826	1	-6
674.011	1	0
675.197	1	-10
676.383	1	9
677.569	1	-9
678.754	1	-1
679.940	1	-11
681.125	1	2
682.311	1	6
683.496	1	5
684.682	1	-4
685.867	1	-4
687.053	1	1
688.238	1	-5
688.746	1	1