File: Data/GaN_200K_800ms/GaN_sample F_spot 12_UVVIS_200 K_200um_800 ms 2x2mm1_53.txt
340.368	1	6
341.565	1	-9
342.763	1	5
343.960	1	6
345.157	1	5
346.354	1	8
347.552	1	1
348.749	1	2
349.946	1	3
351.143	1	13
352.340	1	11
353.537	1	15
354.734	1	20
355.931	1	20
357.127	1	29
358.324	1	36
359.521	1	51
360.718	1	60
361.914	1	77
363.111	1	106
364.308	1	164
365.504	1	240
366.701	1	281
367.897	1	364
369.093	1	414
370.290	1	409
371.486	1	373
372.682	1	313
373.879	1	268
375.075	1	221
376.271	1	191
377.467	1	162
378.663	1	128
379.859	1	102
381.055	1	93
382.251	1	70
383.447	1	67
384.643	1	67
385.839	1	59
387.035	1	41
388.230	1	43
389.426	1	37
390.622	1	34
391.817	1	36
393.013	1	30
394.208	1	24
395.404	1	19
396.599	1	19
397.795	1	17
398.990	1	15
400.186	1	22
401.381	1	10
402.576	1	19
403.771	1	9
404.967	1	13
406.162	1	19
407.357	1	12
408.552	1	2
409.747	1	6
410.942	1	20
412.137	1	12
413.332	1	12
414.526	1	8
415.721	1	7
416.916	1	3
418.111	1	8
419.305	1	4
420.500	1	4
421.695	1	5
422.889	1	0
424.084	1	3
425.278	1	10
426.472	1	9
427.667	1	12
428.861	1	4
430.055	1	11
431.250	1	4
432.444	1	12
433.638	1	6
434.832	1	9
436.026	1	3
437.220	1	8
438.414	1	-7
439.608	1	-6
440.802	1	2
441.996	1	8
443.190	1	6
444.384	1	1
445.578	1	-8
446.771	1	18
447.965	1	2
449.159	1	3
450.352	1	9
451.546	1	1
452.739	1	7
453.933	1	10
455.126	1	5
456.320	1	-1
457.513	1	9
458.706	1	-2
459.899	1	-8
461.093	1	5
462.286	1	10
463.479	1	-5
464.672	1	8
465.865	1	-1
467.058	1	-3
468.251	1	9
469.444	1	-1
470.637	1	13
471.830	1	5
473.023	1	4
474.215	1	17
475.408	1	8
476.601	1	9
477.793	1	3
478.986	1	6
480.179	1	5
481.371	1	16
482.564	1	12
483.756	1	8
484.948	1	-4
486.141	1	5
487.333	1	1
488.525	1	9
489.718	1	11
490.910	1	6
492.102	1	10
493.294	1	4
494.486	1	12
495.678	1	12
496.870	1	11
498.062	1	18
499.254	1	13
500.446	1	6
501.638	1	15
502.829	1	13
504.021	1	16
505.213	1	28
506.404	1	21
507.596	1	29
508.788	1	27
509.979	1	26
511.171	1	9
512.362	1	21
513.553	1	8
514.745	1	26
515.936	1	25
517.127	1	18
518.319	1	30
519.510	1	24
520.701	1	24
521.892	1	28
523.083	1	26
524.274	1	25
525.465	1	41
526.656	1	29
527.847	1	33
529.038	1	36
530.229	1	36
531.419	1	41
532.610	1	22
533.801	1	50
534.991	1	37
536.182	1	28
537.373	1	36
538.563	1	41
539.754	1	30
540.944	1	24
542.134	1	36
543.325	1	38
544.515	1	32
545.705	1	35
546.896	1	35
548.086	1	34
549.276	1	26
550.466	1	47
551.656	1	44
552.846	1	34
554.036	1	38
555.226	1	23
556.416	1	30
557.606	1	42
558.796	1	29
559.986	1	26
561.175	1	46
562.365	1	33
563.555	1	36
564.744	1	46
565.934	1	42
567.123	1	33
568.313	1	42
569.502	1	34
570.692	1	46
571.881	1	45
573.070	1	39
574.260	1	41
575.449	1	32
576.638	1	37
577.827	1	28
579.016	1	38
580.205	1	30
581.394	1	44
582.583	1	41
583.772	1	35
584.961	1	38
586.150	1	22
587.339	1	34
588.528	1	36
589.717	1	20
590.905	1	37
592.094	1	32
593.283	1	25
594.471	1	27
595.660	1	30
596.848	1	24
598.037	1	26
599.225	1	29
600.413	1	29
601.602	1	31
602.790	1	35
603.978	1	29
605.166	1	31
606.355	1	33
607.543	1	28
608.731	1	30
609.919	1	37
611.107	1	17
612.295	1	16
613.483	1	18
614.671	1	26
615.858	1	23
617.046	1	19
618.234	1	14
619.422	1	20
620.609	1	34
621.797	1	13
622.985	1	15
624.172	1	13
625.360	1	28
626.547	1	19
627.735	1	12
628.922	1	19
630.109	1	19
631.297	1	11
632.484	1	11
633.671	1	8
634.858	1	10
636.045	1	26
637.232	1	14
638.419	1	13
639.606	1	20
640.793	1	21
641.980	1	20
643.167	1	10
644.354	1	13
645.541	1	10
646.728	1	7
647.914	1	9
649.101	1	12
650.288	1	19
651.474	1	2
652.661	1	12
653.847	1	19
655.034	1	14
656.220	1	8
657.406	1	11
658.593	1	23
659.779	1	7
660.965	1	19
662.152	1	5
663.338	1	19
664.524	1	12
665.710	1	9
666.896	1	-4
668.082	1	17
669.268	1	-4
670.454	1	20
671.640	1	13
672.826	1	9
674.011	1	11
675.197	1	0
676.383	1	8
677.569	1	4
678.754	1	6
679.940	1	-2
681.125	1	15
682.311	1	9
683.496	1	17
684.682	1	5
685.867	1	5
687.053	1	14
688.238	1	11
688.746	1	13