File: Data/GaN_200K_800ms/GaN_sample F_spot 12_UVVIS_200 K_200um_800 ms 2x2mm1_499.txt
340.368	1	4
341.565	1	-16
342.763	1	5
343.960	1	2
345.157	1	-9
346.354	1	2
347.552	1	-10
348.749	1	-9
349.946	1	0
351.143	1	-8
352.340	1	1
353.537	1	-7
354.734	1	6
355.931	1	0
357.127	1	5
358.324	1	3
359.521	1	9
360.718	1	0
361.914	1	7
363.111	1	3
364.308	1	2
365.504	1	8
366.701	1	2
367.897	1	8
369.093	1	-1
370.290	1	12
371.486	1	5
372.682	1	7
373.879	1	3
375.075	1	-3
376.271	1	8
377.467	1	0
378.663	1	-3
379.859	1	-1
381.055	1	7
382.251	1	-9
383.447	1	1
384.643	1	8
385.839	1	-6
387.035	1	-1
388.230	1	0
389.426	1	-12
390.622	1	-3
391.817	1	2
393.013	1	-6
394.208	1	4
395.404	1	-4
396.599	1	-7
397.795	1	0
398.990	1	1
400.186	1	-4
401.381	1	-8
402.576	1	-3
403.771	1	-4
404.967	1	-2
406.162	1	5
407.357	1	-3
408.552	1	-4
409.747	1	-4
410.942	1	10
412.137	1	1
413.332	1	4
414.526	1	-4
415.721	1	-4
416.916	1	-4
418.111	1	-2
419.305	1	2
420.500	1	-1
421.695	1	-10
422.889	1	-8
424.084	1	0
425.278	1	6
426.472	1	-6
427.667	1	3
428.861	1	2
430.055	1	-2
431.250	1	-1
432.444	1	4
433.638	1	7
434.832	1	0
436.026	1	4
437.220	1	3
438.414	1	-6
439.608	1	-10
440.802	1	-10
441.996	1	6
443.190	1	5
444.384	1	-5
445.578	1	-6
446.771	1	5
447.965	1	-4
449.159	1	-2
450.352	1	4
451.546	1	-7
452.739	1	-6
453.933	1	0
455.126	1	-11
456.320	1	-7
457.513	1	7
458.706	1	3
459.899	1	-11
461.093	1	-1
462.286	1	-1
463.479	1	4
464.672	1	0
465.865	1	-3
467.058	1	-4
468.251	1	-4
469.444	1	-7
470.637	1	3
471.830	1	-1
473.023	1	2
474.215	1	4
475.408	1	-8
476.601	1	-8
477.793	1	0
478.986	1	-9
480.179	1	-7
481.371	1	4
482.564	1	-6
483.756	1	5
484.948	1	-5
486.141	1	-13
487.333	1	5
488.525	1	-1
489.718	1	2
490.910	1	-4
492.102	1	-6
493.294	1	-2
494.486	1	6
495.678	1	0
496.870	1	5
498.062	1	4
499.254	1	1
500.446	1	-14
501.638	1	-12
502.829	1	-1
504.021	1	3
505.213	1	5
506.404	1	-2
507.596	1	-3
508.788	1	23
509.979	1	-3
511.171	1	-3
512.362	1	-10
513.553	1	-12
514.745	1	-2
515.936	1	0
517.127	1	-8
518.319	1	-5
519.510	1	-10
520.701	1	4
521.892	1	-1
523.083	1	-8
524.274	1	5
525.465	1	9
526.656	1	0
527.847	1	0
529.038	1	0
530.229	1	0
531.419	1	5
532.610	1	-5
533.801	1	12
534.991	1	-6
536.182	1	5
537.373	1	1
538.563	1	0
539.754	1	0
540.944	1	-6
542.134	1	3
543.325	1	4
544.515	1	-8
545.705	1	0
546.896	1	-3
548.086	1	2
549.276	1	-5
550.466	1	1
551.656	1	5
552.846	1	2
554.036	1	-1
555.226	1	-7
556.416	1	-3
557.606	1	10
558.796	1	-3
559.986	1	-3
561.175	1	-3
562.365	1	-1
563.555	1	0
564.744	1	0
565.934	1	-1
567.123	1	-2
568.313	1	4
569.502	1	-2
570.692	1	3
571.881	1	11
573.070	1	-6
574.260	1	6
575.449	1	-2
576.638	1	-8
577.827	1	-6
579.016	1	-4
580.205	1	-2
581.394	1	7
582.583	1	3
583.772	1	4
584.961	1	7
586.150	1	-7
587.339	1	2
588.528	1	5
589.717	1	8
590.905	1	-1
592.094	1	6
593.283	1	4
594.471	1	19
595.660	1	-4
596.848	1	5
598.037	1	0
599.225	1	-9
600.413	1	2
601.602	1	16
602.790	1	-3
603.978	1	-1
605.166	1	0
606.355	1	5
607.543	1	4
608.731	1	3
609.919	1	0
611.107	1	2
612.295	1	-5
613.483	1	3
614.671	1	8
615.858	1	4
617.046	1	-5
618.234	1	-3
619.422	1	-7
620.609	1	1
621.797	1	-9
622.985	1	1
624.172	1	-1
625.360	1	-7
626.547	1	-4
627.735	1	2
628.922	1	0
630.109	1	-8
631.297	1	1
632.484	1	-9
633.671	1	1
634.858	1	-1
636.045	1	6
637.232	1	-12
638.419	1	-5
639.606	1	7
640.793	1	8
641.980	1	5
643.167	1	-4
644.354	1	0
645.541	1	-7
646.728	1	-6
647.914	1	-12
649.101	1	-3
650.288	1	9
651.474	1	-5
652.661	1	-6
653.847	1	0
655.034	1	7
656.220	1	-9
657.406	1	0
658.593	1	0
659.779	1	3
660.965	1	2
662.152	1	4
663.338	1	5
664.524	1	-2
665.710	1	0
666.896	1	-3
668.082	1	9
669.268	1	0
670.454	1	-7
671.640	1	5
672.826	1	-2
674.011	1	2
675.197	1	-10
676.383	1	1
677.569	1	-4
678.754	1	-4
679.940	1	-8
681.125	1	-2
682.311	1	11
683.496	1	-5
684.682	1	-11
685.867	1	1
687.053	1	-6
688.238	1	-4
688.746	1	-2