File: Data/GaN_200K_800ms/GaN_sample F_spot 12_UVVIS_200 K_200um_800 ms 2x2mm1_380.txt
340.368	1	5
341.565	1	-18
342.763	1	3
343.960	1	1
345.157	1	-13
346.354	1	4
347.552	1	-8
348.749	1	-6
349.946	1	-15
351.143	1	-5
352.340	1	-1
353.537	1	-2
354.734	1	-1
355.931	1	-1
357.127	1	-4
358.324	1	-6
359.521	1	3
360.718	1	-3
361.914	1	7
363.111	1	0
364.308	1	-3
365.504	1	7
366.701	1	5
367.897	1	8
369.093	1	6
370.290	1	8
371.486	1	14
372.682	1	15
373.879	1	5
375.075	1	6
376.271	1	18
377.467	1	2
378.663	1	-6
379.859	1	3
381.055	1	6
382.251	1	-8
383.447	1	-1
384.643	1	2
385.839	1	4
387.035	1	1
388.230	1	4
389.426	1	-4
390.622	1	-3
391.817	1	-4
393.013	1	-2
394.208	1	-2
395.404	1	-6
396.599	1	-4
397.795	1	6
398.990	1	3
400.186	1	-3
401.381	1	-2
402.576	1	-3
403.771	1	4
404.967	1	6
406.162	1	3
407.357	1	2
408.552	1	1
409.747	1	0
410.942	1	10
412.137	1	-1
413.332	1	4
414.526	1	-3
415.721	1	6
416.916	1	-8
418.111	1	3
419.305	1	8
420.500	1	-3
421.695	1	-2
422.889	1	-3
424.084	1	2
425.278	1	7
426.472	1	2
427.667	1	4
428.861	1	0
430.055	1	4
431.250	1	-9
432.444	1	0
433.638	1	-4
434.832	1	5
436.026	1	4
437.220	1	8
438.414	1	-10
439.608	1	-13
440.802	1	-13
441.996	1	2
443.190	1	-1
444.384	1	-9
445.578	1	-12
446.771	1	11
447.965	1	-2
449.159	1	-2
450.352	1	4
451.546	1	1
452.739	1	10
453.933	1	2
455.126	1	-12
456.320	1	2
457.513	1	-5
458.706	1	-3
459.899	1	5
461.093	1	-4
462.286	1	-3
463.479	1	-10
464.672	1	0
465.865	1	1
467.058	1	-8
468.251	1	0
469.444	1	-11
470.637	1	-2
471.830	1	-3
473.023	1	5
474.215	1	6
475.408	1	0
476.601	1	5
477.793	1	-4
478.986	1	1
480.179	1	-2
481.371	1	4
482.564	1	4
483.756	1	7
484.948	1	-9
486.141	1	3
487.333	1	-7
488.525	1	3
489.718	1	-3
490.910	1	0
492.102	1	-1
493.294	1	-9
494.486	1	-1
495.678	1	1
496.870	1	5
498.062	1	-2
499.254	1	6
500.446	1	-14
501.638	1	0
502.829	1	-3
504.021	1	-3
505.213	1	1
506.404	1	1
507.596	1	-5
508.788	1	6
509.979	1	-3
511.171	1	-4
512.362	1	-6
513.553	1	-7
514.745	1	-3
515.936	1	-1
517.127	1	6
518.319	1	-5
519.510	1	5
520.701	1	-2
521.892	1	6
523.083	1	1
524.274	1	5
525.465	1	5
526.656	1	5
527.847	1	0
529.038	1	1
530.229	1	-7
531.419	1	5
532.610	1	-2
533.801	1	17
534.991	1	-10
536.182	1	2
537.373	1	-1
538.563	1	0
539.754	1	8
540.944	1	-6
542.134	1	2
543.325	1	0
544.515	1	-4
545.705	1	-6
546.896	1	-6
548.086	1	-5
549.276	1	-4
550.466	1	2
551.656	1	4
552.846	1	1
554.036	1	-4
555.226	1	4
556.416	1	-2
557.606	1	9
558.796	1	-2
559.986	1	1
561.175	1	7
562.365	1	-6
563.555	1	0
564.744	1	3
565.934	1	3
567.123	1	2
568.313	1	2
569.502	1	-8
570.692	1	7
571.881	1	11
573.070	1	6
574.260	1	7
575.449	1	-2
576.638	1	-9
577.827	1	-14
579.016	1	8
580.205	1	-1
581.394	1	-3
582.583	1	8
583.772	1	6
584.961	1	12
586.150	1	0
587.339	1	2
588.528	1	12
589.717	1	1
590.905	1	4
592.094	1	-9
593.283	1	2
594.471	1	9
595.660	1	-2
596.848	1	-3
598.037	1	-2
599.225	1	-2
600.413	1	2
601.602	1	15
602.790	1	-2
603.978	1	4
605.166	1	-2
606.355	1	3
607.543	1	0
608.731	1	2
609.919	1	5
611.107	1	-4
612.295	1	-4
613.483	1	-5
614.671	1	5
615.858	1	2
617.046	1	-5
618.234	1	2
619.422	1	-1
620.609	1	9
621.797	1	-4
622.985	1	1
624.172	1	0
625.360	1	0
626.547	1	0
627.735	1	3
628.922	1	0
630.109	1	-6
631.297	1	-10
632.484	1	-2
633.671	1	-11
634.858	1	-6
636.045	1	5
637.232	1	-5
638.419	1	3
639.606	1	3
640.793	1	3
641.980	1	5
643.167	1	-2
644.354	1	1
645.541	1	5
646.728	1	-1
647.914	1	-12
649.101	1	-11
650.288	1	2
651.474	1	-9
652.661	1	5
653.847	1	3
655.034	1	0
656.220	1	-12
657.406	1	3
658.593	1	7
659.779	1	-2
660.965	1	7
662.152	1	-2
663.338	1	8
664.524	1	2
665.710	1	2
666.896	1	2
668.082	1	-2
669.268	1	-3
670.454	1	4
671.640	1	1
672.826	1	2
674.011	1	1
675.197	1	0
676.383	1	-2
677.569	1	-3
678.754	1	-6
679.940	1	-2
681.125	1	8
682.311	1	8
683.496	1	2
684.682	1	-8
685.867	1	-2
687.053	1	1
688.238	1	-5
688.746	1	8