File: Data/GaN_200K_800ms/GaN_sample F_spot 12_UVVIS_200 K_200um_800 ms 2x2mm1_477.txt
340.368	1	1
341.565	1	-14
342.763	1	0
343.960	1	1
345.157	1	-2
346.354	1	-2
347.552	1	-6
348.749	1	-15
349.946	1	1
351.143	1	-2
352.340	1	-5
353.537	1	-2
354.734	1	3
355.931	1	4
357.127	1	-4
358.324	1	0
359.521	1	1
360.718	1	-3
361.914	1	11
363.111	1	1
364.308	1	1
365.504	1	8
366.701	1	9
367.897	1	0
369.093	1	11
370.290	1	3
371.486	1	11
372.682	1	11
373.879	1	-2
375.075	1	3
376.271	1	8
377.467	1	7
378.663	1	0
379.859	1	6
381.055	1	10
382.251	1	-2
383.447	1	-1
384.643	1	6
385.839	1	7
387.035	1	10
388.230	1	9
389.426	1	2
390.622	1	-9
391.817	1	-1
393.013	1	1
394.208	1	-3
395.404	1	-6
396.599	1	-3
397.795	1	8
398.990	1	-2
400.186	1	5
401.381	1	-4
402.576	1	-6
403.771	1	2
404.967	1	1
406.162	1	4
407.357	1	9
408.552	1	-5
409.747	1	-1
410.942	1	5
412.137	1	1
413.332	1	3
414.526	1	0
415.721	1	2
416.916	1	-3
418.111	1	-2
419.305	1	5
420.500	1	-3
421.695	1	-6
422.889	1	-10
424.084	1	3
425.278	1	12
426.472	1	-3
427.667	1	10
428.861	1	1
430.055	1	-4
431.250	1	-4
432.444	1	6
433.638	1	-3
434.832	1	-5
436.026	1	10
437.220	1	3
438.414	1	-9
439.608	1	-8
440.802	1	0
441.996	1	5
443.190	1	-2
444.384	1	-2
445.578	1	-10
446.771	1	14
447.965	1	-4
449.159	1	5
450.352	1	-7
451.546	1	5
452.739	1	-8
453.933	1	-4
455.126	1	-10
456.320	1	1
457.513	1	9
458.706	1	-2
459.899	1	-3
461.093	1	6
462.286	1	-1
463.479	1	-1
464.672	1	-1
465.865	1	-2
467.058	1	0
468.251	1	-4
469.444	1	-8
470.637	1	1
471.830	1	-3
473.023	1	2
474.215	1	3
475.408	1	1
476.601	1	2
477.793	1	-6
478.986	1	3
480.179	1	8
481.371	1	11
482.564	1	-2
483.756	1	12
484.948	1	-8
486.141	1	3
487.333	1	-8
488.525	1	2
489.718	1	1
490.910	1	-4
492.102	1	-12
493.294	1	-7
494.486	1	3
495.678	1	-1
496.870	1	4
498.062	1	-3
499.254	1	1
500.446	1	-3
501.638	1	0
502.829	1	1
504.021	1	-8
505.213	1	6
506.404	1	-5
507.596	1	-1
508.788	1	12
509.979	1	-7
511.171	1	-4
512.362	1	-8
513.553	1	-8
514.745	1	4
515.936	1	3
517.127	1	-2
518.319	1	0
519.510	1	2
520.701	1	-9
521.892	1	4
523.083	1	3
524.274	1	-5
525.465	1	7
526.656	1	2
527.847	1	2
529.038	1	1
530.229	1	0
531.419	1	1
532.610	1	2
533.801	1	14
534.991	1	-2
536.182	1	-5
537.373	1	6
538.563	1	3
539.754	1	-1
540.944	1	-7
542.134	1	3
543.325	1	0
544.515	1	0
545.705	1	2
546.896	1	-7
548.086	1	0
549.276	1	-6
550.466	1	15
551.656	1	2
552.846	1	1
554.036	1	1
555.226	1	-1
556.416	1	-4
557.606	1	7
558.796	1	-5
559.986	1	-5
561.175	1	-1
562.365	1	-1
563.555	1	-10
564.744	1	0
565.934	1	7
567.123	1	-3
568.313	1	7
569.502	1	-5
570.692	1	12
571.881	1	2
573.070	1	-3
574.260	1	9
575.449	1	-7
576.638	1	-7
577.827	1	-6
579.016	1	11
580.205	1	-2
581.394	1	-1
582.583	1	5
583.772	1	-4
584.961	1	2
586.150	1	-5
587.339	1	3
588.528	1	-1
589.717	1	-3
590.905	1	-2
592.094	1	1
593.283	1	6
594.471	1	6
595.660	1	-1
596.848	1	0
598.037	1	-5
599.225	1	-11
600.413	1	8
601.602	1	8
602.790	1	-8
603.978	1	1
605.166	1	12
606.355	1	3
607.543	1	-3
608.731	1	1
609.919	1	2
611.107	1	-9
612.295	1	-5
613.483	1	6
614.671	1	0
615.858	1	4
617.046	1	1
618.234	1	-5
619.422	1	-8
620.609	1	3
621.797	1	2
622.985	1	-2
624.172	1	-8
625.360	1	-3
626.547	1	2
627.735	1	2
628.922	1	7
630.109	1	-11
631.297	1	-1
632.484	1	2
633.671	1	-3
634.858	1	4
636.045	1	8
637.232	1	3
638.419	1	-7
639.606	1	1
640.793	1	11
641.980	1	3
643.167	1	-2
644.354	1	0
645.541	1	4
646.728	1	-6
647.914	1	-4
649.101	1	2
650.288	1	-9
651.474	1	-9
652.661	1	-5
653.847	1	7
655.034	1	3
656.220	1	-12
657.406	1	10
658.593	1	-2
659.779	1	2
660.965	1	3
662.152	1	5
663.338	1	14
664.524	1	0
665.710	1	-1
666.896	1	-6
668.082	1	2
669.268	1	-4
670.454	1	1
671.640	1	6
672.826	1	-10
674.011	1	6
675.197	1	-20
676.383	1	-5
677.569	1	2
678.754	1	-5
679.940	1	-4
681.125	1	1
682.311	1	-5
683.496	1	-4
684.682	1	-15
685.867	1	2
687.053	1	6
688.238	1	4
688.746	1	-7