File: Data/GaN_200K_800ms/GaN_sample F_spot 12_UVVIS_200 K_200um_800 ms 2x2mm1_54.txt
340.368	1	6
341.565	1	2
342.763	1	9
343.960	1	4
345.157	1	-2
346.354	1	0
347.552	1	3
348.749	1	4
349.946	1	-2
351.143	1	10
352.340	1	14
353.537	1	9
354.734	1	13
355.931	1	19
357.127	1	25
358.324	1	36
359.521	1	45
360.718	1	63
361.914	1	69
363.111	1	108
364.308	1	129
365.504	1	216
366.701	1	273
367.897	1	340
369.093	1	389
370.290	1	378
371.486	1	357
372.682	1	303
373.879	1	236
375.075	1	213
376.271	1	187
377.467	1	139
378.663	1	114
379.859	1	95
381.055	1	94
382.251	1	73
383.447	1	66
384.643	1	66
385.839	1	54
387.035	1	47
388.230	1	48
389.426	1	35
390.622	1	28
391.817	1	28
393.013	1	30
394.208	1	26
395.404	1	21
396.599	1	17
397.795	1	19
398.990	1	12
400.186	1	16
401.381	1	3
402.576	1	5
403.771	1	13
404.967	1	15
406.162	1	12
407.357	1	11
408.552	1	-6
409.747	1	12
410.942	1	12
412.137	1	12
413.332	1	8
414.526	1	-2
415.721	1	3
416.916	1	6
418.111	1	6
419.305	1	5
420.500	1	6
421.695	1	4
422.889	1	-3
424.084	1	5
425.278	1	14
426.472	1	9
427.667	1	8
428.861	1	-2
430.055	1	14
431.250	1	4
432.444	1	8
433.638	1	4
434.832	1	4
436.026	1	10
437.220	1	8
438.414	1	-8
439.608	1	3
440.802	1	-1
441.996	1	9
443.190	1	11
444.384	1	-3
445.578	1	-6
446.771	1	14
447.965	1	8
449.159	1	1
450.352	1	2
451.546	1	3
452.739	1	12
453.933	1	10
455.126	1	1
456.320	1	3
457.513	1	11
458.706	1	2
459.899	1	5
461.093	1	2
462.286	1	6
463.479	1	2
464.672	1	7
465.865	1	9
467.058	1	6
468.251	1	5
469.444	1	-3
470.637	1	3
471.830	1	9
473.023	1	11
474.215	1	14
475.408	1	1
476.601	1	0
477.793	1	0
478.986	1	-5
480.179	1	5
481.371	1	13
482.564	1	5
483.756	1	13
484.948	1	3
486.141	1	4
487.333	1	11
488.525	1	10
489.718	1	5
490.910	1	3
492.102	1	-2
493.294	1	5
494.486	1	15
495.678	1	8
496.870	1	16
498.062	1	8
499.254	1	9
500.446	1	14
501.638	1	7
502.829	1	9
504.021	1	11
505.213	1	32
506.404	1	12
507.596	1	27
508.788	1	36
509.979	1	10
511.171	1	15
512.362	1	23
513.553	1	2
514.745	1	12
515.936	1	25
517.127	1	18
518.319	1	11
519.510	1	32
520.701	1	32
521.892	1	25
523.083	1	26
524.274	1	28
525.465	1	33
526.656	1	29
527.847	1	36
529.038	1	30
530.229	1	25
531.419	1	44
532.610	1	31
533.801	1	48
534.991	1	30
536.182	1	24
537.373	1	39
538.563	1	32
539.754	1	31
540.944	1	26
542.134	1	43
543.325	1	31
544.515	1	31
545.705	1	34
546.896	1	28
548.086	1	23
549.276	1	37
550.466	1	33
551.656	1	40
552.846	1	46
554.036	1	29
555.226	1	31
556.416	1	26
557.606	1	30
558.796	1	29
559.986	1	35
561.175	1	36
562.365	1	32
563.555	1	32
564.744	1	36
565.934	1	41
567.123	1	45
568.313	1	43
569.502	1	37
570.692	1	37
571.881	1	52
573.070	1	34
574.260	1	43
575.449	1	28
576.638	1	32
577.827	1	15
579.016	1	42
580.205	1	32
581.394	1	23
582.583	1	40
583.772	1	37
584.961	1	28
586.150	1	25
587.339	1	32
588.528	1	33
589.717	1	32
590.905	1	26
592.094	1	31
593.283	1	24
594.471	1	31
595.660	1	24
596.848	1	22
598.037	1	22
599.225	1	17
600.413	1	23
601.602	1	40
602.790	1	29
603.978	1	20
605.166	1	33
606.355	1	33
607.543	1	27
608.731	1	22
609.919	1	24
611.107	1	28
612.295	1	21
613.483	1	28
614.671	1	16
615.858	1	13
617.046	1	18
618.234	1	19
619.422	1	9
620.609	1	21
621.797	1	8
622.985	1	29
624.172	1	19
625.360	1	24
626.547	1	27
627.735	1	19
628.922	1	18
630.109	1	-1
631.297	1	19
632.484	1	17
633.671	1	14
634.858	1	15
636.045	1	23
637.232	1	12
638.419	1	13
639.606	1	20
640.793	1	26
641.980	1	14
643.167	1	14
644.354	1	10
645.541	1	10
646.728	1	17
647.914	1	7
649.101	1	14
650.288	1	20
651.474	1	10
652.661	1	11
653.847	1	21
655.034	1	6
656.220	1	2
657.406	1	13
658.593	1	15
659.779	1	11
660.965	1	17
662.152	1	14
663.338	1	19
664.524	1	14
665.710	1	6
666.896	1	-3
668.082	1	11
669.268	1	-3
670.454	1	11
671.640	1	14
672.826	1	4
674.011	1	10
675.197	1	11
676.383	1	9
677.569	1	-6
678.754	1	10
679.940	1	11
681.125	1	11
682.311	1	12
683.496	1	15
684.682	1	6
685.867	1	9
687.053	1	18
688.238	1	12
688.746	1	9