File: Data/GaN_200K_800ms/GaN_sample F_spot 12_UVVIS_200 K_200um_800 ms 2x2mm1_297.txt
340.368	1	4
341.565	1	-10
342.763	1	0
343.960	1	6
345.157	1	-6
346.354	1	0
347.552	1	0
348.749	1	-8
349.946	1	-9
351.143	1	3
352.340	1	8
353.537	1	-11
354.734	1	6
355.931	1	1
357.127	1	3
358.324	1	0
359.521	1	0
360.718	1	3
361.914	1	7
363.111	1	4
364.308	1	9
365.504	1	12
366.701	1	3
367.897	1	18
369.093	1	6
370.290	1	21
371.486	1	21
372.682	1	19
373.879	1	6
375.075	1	7
376.271	1	25
377.467	1	11
378.663	1	1
379.859	1	0
381.055	1	14
382.251	1	9
383.447	1	-4
384.643	1	3
385.839	1	2
387.035	1	3
388.230	1	17
389.426	1	2
390.622	1	-3
391.817	1	3
393.013	1	-3
394.208	1	-2
395.404	1	0
396.599	1	5
397.795	1	-11
398.990	1	-1
400.186	1	5
401.381	1	-3
402.576	1	-5
403.771	1	3
404.967	1	2
406.162	1	4
407.357	1	-2
408.552	1	-7
409.747	1	-5
410.942	1	5
412.137	1	-2
413.332	1	7
414.526	1	2
415.721	1	-11
416.916	1	1
418.111	1	0
419.305	1	1
420.500	1	-5
421.695	1	-3
422.889	1	-8
424.084	1	-2
425.278	1	9
426.472	1	4
427.667	1	2
428.861	1	-1
430.055	1	3
431.250	1	-3
432.444	1	3
433.638	1	-1
434.832	1	-2
436.026	1	9
437.220	1	6
438.414	1	-4
439.608	1	-7
440.802	1	-2
441.996	1	7
443.190	1	-2
444.384	1	-7
445.578	1	-11
446.771	1	11
447.965	1	5
449.159	1	-9
450.352	1	-7
451.546	1	7
452.739	1	1
453.933	1	-7
455.126	1	-6
456.320	1	-2
457.513	1	4
458.706	1	-4
459.899	1	-5
461.093	1	-5
462.286	1	-9
463.479	1	6
464.672	1	-4
465.865	1	-6
467.058	1	0
468.251	1	0
469.444	1	-6
470.637	1	-5
471.830	1	-3
473.023	1	5
474.215	1	8
475.408	1	-3
476.601	1	-5
477.793	1	-9
478.986	1	-2
480.179	1	-1
481.371	1	5
482.564	1	3
483.756	1	10
484.948	1	-5
486.141	1	-11
487.333	1	4
488.525	1	9
489.718	1	-1
490.910	1	4
492.102	1	-2
493.294	1	0
494.486	1	2
495.678	1	-7
496.870	1	8
498.062	1	-9
499.254	1	1
500.446	1	-6
501.638	1	-1
502.829	1	-1
504.021	1	1
505.213	1	7
506.404	1	7
507.596	1	6
508.788	1	13
509.979	1	-12
511.171	1	-5
512.362	1	-7
513.553	1	-14
514.745	1	-8
515.936	1	-12
517.127	1	-10
518.319	1	0
519.510	1	-6
520.701	1	-3
521.892	1	1
523.083	1	2
524.274	1	-2
525.465	1	7
526.656	1	8
527.847	1	6
529.038	1	-4
530.229	1	7
531.419	1	7
532.610	1	1
533.801	1	15
534.991	1	6
536.182	1	3
537.373	1	-2
538.563	1	0
539.754	1	-2
540.944	1	-4
542.134	1	9
543.325	1	9
544.515	1	-3
545.705	1	-6
546.896	1	1
548.086	1	-6
549.276	1	-7
550.466	1	7
551.656	1	4
552.846	1	3
554.036	1	-4
555.226	1	-1
556.416	1	2
557.606	1	2
558.796	1	-1
559.986	1	-4
561.175	1	0
562.365	1	9
563.555	1	-2
564.744	1	6
565.934	1	14
567.123	1	4
568.313	1	8
569.502	1	8
570.692	1	3
571.881	1	6
573.070	1	5
574.260	1	19
575.449	1	3
576.638	1	-6
577.827	1	2
579.016	1	12
580.205	1	-2
581.394	1	0
582.583	1	15
583.772	1	4
584.961	1	0
586.150	1	7
587.339	1	9
588.528	1	4
589.717	1	9
590.905	1	6
592.094	1	-3
593.283	1	4
594.471	1	11
595.660	1	-2
596.848	1	-4
598.037	1	1
599.225	1	-5
600.413	1	4
601.602	1	1
602.790	1	-4
603.978	1	7
605.166	1	9
606.355	1	-7
607.543	1	4
608.731	1	2
609.919	1	9
611.107	1	2
612.295	1	-8
613.483	1	10
614.671	1	8
615.858	1	6
617.046	1	9
618.234	1	-3
619.422	1	-3
620.609	1	5
621.797	1	-2
622.985	1	6
624.172	1	-10
625.360	1	4
626.547	1	0
627.735	1	-1
628.922	1	3
630.109	1	-18
631.297	1	0
632.484	1	0
633.671	1	-13
634.858	1	-10
636.045	1	17
637.232	1	4
638.419	1	-8
639.606	1	1
640.793	1	8
641.980	1	-1
643.167	1	-11
644.354	1	3
645.541	1	8
646.728	1	-1
647.914	1	-6
649.101	1	0
650.288	1	4
651.474	1	2
652.661	1	-6
653.847	1	9
655.034	1	2
656.220	1	0
657.406	1	4
658.593	1	0
659.779	1	0
660.965	1	3
662.152	1	-3
663.338	1	0
664.524	1	1
665.710	1	-6
666.896	1	-6
668.082	1	2
669.268	1	1
670.454	1	-4
671.640	1	3
672.826	1	6
674.011	1	-8
675.197	1	-5
676.383	1	3
677.569	1	-9
678.754	1	-6
679.940	1	5
681.125	1	8
682.311	1	4
683.496	1	4
684.682	1	-14
685.867	1	0
687.053	1	-3
688.238	1	8
688.746	1	-5