File: Data/GaN_200K_800ms/GaN_sample F_spot 12_UVVIS_200 K_200um_800 ms 2x2mm1_14.txt
340.368	1	3
341.565	1	0
342.763	1	8
343.960	1	-2
345.157	1	-5
346.354	1	5
347.552	1	-7
348.749	1	-10
349.946	1	-10
351.143	1	-6
352.340	1	-2
353.537	1	5
354.734	1	5
355.931	1	0
357.127	1	2
358.324	1	4
359.521	1	8
360.718	1	2
361.914	1	7
363.111	1	-4
364.308	1	0
365.504	1	10
366.701	1	-3
367.897	1	-3
369.093	1	-7
370.290	1	-6
371.486	1	-7
372.682	1	-4
373.879	1	3
375.075	1	-2
376.271	1	3
377.467	1	3
378.663	1	-2
379.859	1	3
381.055	1	14
382.251	1	2
383.447	1	1
384.643	1	10
385.839	1	0
387.035	1	-2
388.230	1	0
389.426	1	-6
390.622	1	3
391.817	1	3
393.013	1	1
394.208	1	4
395.404	1	0
396.599	1	-2
397.795	1	-2
398.990	1	-1
400.186	1	2
401.381	1	-1
402.576	1	0
403.771	1	6
404.967	1	-2
406.162	1	8
407.357	1	-8
408.552	1	-4
409.747	1	-3
410.942	1	12
412.137	1	5
413.332	1	3
414.526	1	-1
415.721	1	2
416.916	1	1
418.111	1	4
419.305	1	0
420.500	1	2
421.695	1	-3
422.889	1	-8
424.084	1	-2
425.278	1	5
426.472	1	0
427.667	1	7
428.861	1	1
430.055	1	1
431.250	1	-5
432.444	1	-3
433.638	1	-2
434.832	1	11
436.026	1	2
437.220	1	-3
438.414	1	-6
439.608	1	-6
440.802	1	-5
441.996	1	6
443.190	1	5
444.384	1	-11
445.578	1	-10
446.771	1	16
447.965	1	-1
449.159	1	2
450.352	1	5
451.546	1	4
452.739	1	3
453.933	1	-6
455.126	1	-5
456.320	1	6
457.513	1	6
458.706	1	1
459.899	1	-6
461.093	1	4
462.286	1	5
463.479	1	0
464.672	1	-2
465.865	1	-1
467.058	1	8
468.251	1	9
469.444	1	1
470.637	1	1
471.830	1	-5
473.023	1	-2
474.215	1	5
475.408	1	8
476.601	1	2
477.793	1	3
478.986	1	-9
480.179	1	1
481.371	1	4
482.564	1	2
483.756	1	6
484.948	1	-7
486.141	1	0
487.333	1	7
488.525	1	2
489.718	1	0
490.910	1	-1
492.102	1	-7
493.294	1	0
494.486	1	5
495.678	1	1
496.870	1	3
498.062	1	-2
499.254	1	-1
500.446	1	-6
501.638	1	-5
502.829	1	7
504.021	1	-1
505.213	1	-3
506.404	1	2
507.596	1	3
508.788	1	5
509.979	1	-1
511.171	1	-2
512.362	1	-12
513.553	1	-10
514.745	1	1
515.936	1	-2
517.127	1	-4
518.319	1	-2
519.510	1	-6
520.701	1	5
521.892	1	7
523.083	1	-5
524.274	1	8
525.465	1	7
526.656	1	5
527.847	1	8
529.038	1	3
530.229	1	0
531.419	1	7
532.610	1	-10
533.801	1	6
534.991	1	4
536.182	1	3
537.373	1	-6
538.563	1	7
539.754	1	5
540.944	1	-4
542.134	1	8
543.325	1	1
544.515	1	6
545.705	1	-2
546.896	1	-1
548.086	1	4
549.276	1	-3
550.466	1	1
551.656	1	6
552.846	1	7
554.036	1	-1
555.226	1	-5
556.416	1	-2
557.606	1	3
558.796	1	-3
559.986	1	-7
561.175	1	13
562.365	1	7
563.555	1	-4
564.744	1	4
565.934	1	8
567.123	1	8
568.313	1	3
569.502	1	4
570.692	1	-3
571.881	1	7
573.070	1	-1
574.260	1	2
575.449	1	0
576.638	1	-5
577.827	1	-3
579.016	1	0
580.205	1	0
581.394	1	1
582.583	1	12
583.772	1	4
584.961	1	4
586.150	1	1
587.339	1	3
588.528	1	3
589.717	1	-3
590.905	1	4
592.094	1	-1
593.283	1	-3
594.471	1	8
595.660	1	-3
596.848	1	5
598.037	1	1
599.225	1	-1
600.413	1	2
601.602	1	6
602.790	1	-11
603.978	1	2
605.166	1	-2
606.355	1	1
607.543	1	-9
608.731	1	2
609.919	1	4
611.107	1	7
612.295	1	-9
613.483	1	6
614.671	1	9
615.858	1	-1
617.046	1	-1
618.234	1	-1
619.422	1	-11
620.609	1	-2
621.797	1	-5
622.985	1	2
624.172	1	-3
625.360	1	6
626.547	1	-2
627.735	1	2
628.922	1	7
630.109	1	-3
631.297	1	-1
632.484	1	-8
633.671	1	6
634.858	1	-10
636.045	1	17
637.232	1	2
638.419	1	-3
639.606	1	2
640.793	1	2
641.980	1	12
643.167	1	-5
644.354	1	3
645.541	1	6
646.728	1	-7
647.914	1	-5
649.101	1	-1
650.288	1	8
651.474	1	-1
652.661	1	-2
653.847	1	8
655.034	1	0
656.220	1	-1
657.406	1	2
658.593	1	4
659.779	1	4
660.965	1	-3
662.152	1	2
663.338	1	7
664.524	1	3
665.710	1	1
666.896	1	-7
668.082	1	8
669.268	1	-5
670.454	1	3
671.640	1	3
672.826	1	-4
674.011	1	3
675.197	1	5
676.383	1	-6
677.569	1	-4
678.754	1	-4
679.940	1	3
681.125	1	10
682.311	1	14
683.496	1	-3
684.682	1	-7
685.867	1	1
687.053	1	8
688.238	1	10
688.746	1	-7