File: Data/GaN_200K_800ms/GaN_sample F_spot 12_UVVIS_200 K_200um_800 ms 2x2mm1_85.txt
340.368	1	5
341.565	1	-4
342.763	1	10
343.960	1	3
345.157	1	6
346.354	1	7
347.552	1	-5
348.749	1	4
349.946	1	-5
351.143	1	7
352.340	1	15
353.537	1	15
354.734	1	10
355.931	1	7
357.127	1	9
358.324	1	17
359.521	1	33
360.718	1	11
361.914	1	38
363.111	1	37
364.308	1	53
365.504	1	87
366.701	1	97
367.897	1	106
369.093	1	127
370.290	1	134
371.486	1	120
372.682	1	109
373.879	1	88
375.075	1	67
376.271	1	64
377.467	1	56
378.663	1	51
379.859	1	39
381.055	1	50
382.251	1	35
383.447	1	35
384.643	1	38
385.839	1	20
387.035	1	7
388.230	1	17
389.426	1	12
390.622	1	10
391.817	1	12
393.013	1	6
394.208	1	22
395.404	1	7
396.599	1	-4
397.795	1	15
398.990	1	8
400.186	1	14
401.381	1	-4
402.576	1	5
403.771	1	9
404.967	1	14
406.162	1	9
407.357	1	4
408.552	1	-4
409.747	1	-1
410.942	1	15
412.137	1	8
413.332	1	12
414.526	1	4
415.721	1	7
416.916	1	2
418.111	1	-1
419.305	1	3
420.500	1	-8
421.695	1	1
422.889	1	-2
424.084	1	-2
425.278	1	13
426.472	1	0
427.667	1	6
428.861	1	-3
430.055	1	6
431.250	1	-2
432.444	1	5
433.638	1	2
434.832	1	0
436.026	1	15
437.220	1	7
438.414	1	-2
439.608	1	-5
440.802	1	0
441.996	1	0
443.190	1	9
444.384	1	-8
445.578	1	-10
446.771	1	16
447.965	1	-2
449.159	1	0
450.352	1	3
451.546	1	5
452.739	1	13
453.933	1	0
455.126	1	-9
456.320	1	0
457.513	1	4
458.706	1	-2
459.899	1	8
461.093	1	5
462.286	1	3
463.479	1	5
464.672	1	0
465.865	1	-3
467.058	1	8
468.251	1	-5
469.444	1	-9
470.637	1	7
471.830	1	-4
473.023	1	8
474.215	1	13
475.408	1	1
476.601	1	6
477.793	1	5
478.986	1	4
480.179	1	8
481.371	1	11
482.564	1	12
483.756	1	6
484.948	1	-2
486.141	1	2
487.333	1	6
488.525	1	0
489.718	1	-1
490.910	1	3
492.102	1	-2
493.294	1	-2
494.486	1	17
495.678	1	9
496.870	1	10
498.062	1	2
499.254	1	12
500.446	1	-7
501.638	1	-3
502.829	1	9
504.021	1	4
505.213	1	11
506.404	1	8
507.596	1	15
508.788	1	18
509.979	1	-2
511.171	1	0
512.362	1	1
513.553	1	-7
514.745	1	6
515.936	1	7
517.127	1	2
518.319	1	6
519.510	1	7
520.701	1	7
521.892	1	12
523.083	1	9
524.274	1	5
525.465	1	12
526.656	1	5
527.847	1	10
529.038	1	13
530.229	1	12
531.419	1	18
532.610	1	2
533.801	1	23
534.991	1	13
536.182	1	7
537.373	1	12
538.563	1	19
539.754	1	20
540.944	1	1
542.134	1	16
543.325	1	12
544.515	1	1
545.705	1	8
546.896	1	8
548.086	1	14
549.276	1	12
550.466	1	15
551.656	1	14
552.846	1	16
554.036	1	20
555.226	1	-3
556.416	1	6
557.606	1	24
558.796	1	12
559.986	1	13
561.175	1	11
562.365	1	9
563.555	1	-1
564.744	1	10
565.934	1	20
567.123	1	26
568.313	1	16
569.502	1	4
570.692	1	10
571.881	1	26
573.070	1	17
574.260	1	15
575.449	1	9
576.638	1	5
577.827	1	4
579.016	1	19
580.205	1	18
581.394	1	9
582.583	1	13
583.772	1	23
584.961	1	19
586.150	1	9
587.339	1	15
588.528	1	13
589.717	1	5
590.905	1	3
592.094	1	13
593.283	1	11
594.471	1	22
595.660	1	5
596.848	1	11
598.037	1	9
599.225	1	0
600.413	1	10
601.602	1	18
602.790	1	4
603.978	1	7
605.166	1	7
606.355	1	18
607.543	1	8
608.731	1	10
609.919	1	12
611.107	1	3
612.295	1	9
613.483	1	14
614.671	1	12
615.858	1	12
617.046	1	11
618.234	1	-2
619.422	1	2
620.609	1	11
621.797	1	4
622.985	1	6
624.172	1	-2
625.360	1	8
626.547	1	5
627.735	1	3
628.922	1	10
630.109	1	-9
631.297	1	12
632.484	1	1
633.671	1	-3
634.858	1	18
636.045	1	17
637.232	1	4
638.419	1	-1
639.606	1	18
640.793	1	12
641.980	1	14
643.167	1	5
644.354	1	15
645.541	1	1
646.728	1	3
647.914	1	-3
649.101	1	3
650.288	1	10
651.474	1	7
652.661	1	5
653.847	1	15
655.034	1	5
656.220	1	8
657.406	1	9
658.593	1	9
659.779	1	4
660.965	1	16
662.152	1	15
663.338	1	17
664.524	1	13
665.710	1	7
666.896	1	-4
668.082	1	14
669.268	1	9
670.454	1	1
671.640	1	3
672.826	1	-3
674.011	1	-1
675.197	1	8
676.383	1	8
677.569	1	3
678.754	1	4
679.940	1	7
681.125	1	13
682.311	1	14
683.496	1	-2
684.682	1	-3
685.867	1	4
687.053	1	1
688.238	1	2
688.746	1	9