File: Data/GaN_200K_800ms/GaN_sample F_spot 12_UVVIS_200 K_200um_800 ms 2x2mm1_433.txt
340.368	1	1
341.565	1	-9
342.763	1	10
343.960	1	-9
345.157	1	2
346.354	1	-3
347.552	1	-3
348.749	1	-14
349.946	1	-5
351.143	1	-4
352.340	1	1
353.537	1	4
354.734	1	5
355.931	1	-3
357.127	1	-5
358.324	1	2
359.521	1	-1
360.718	1	-2
361.914	1	11
363.111	1	2
364.308	1	-1
365.504	1	19
366.701	1	2
367.897	1	14
369.093	1	-3
370.290	1	7
371.486	1	7
372.682	1	9
373.879	1	3
375.075	1	-3
376.271	1	6
377.467	1	0
378.663	1	-17
379.859	1	10
381.055	1	7
382.251	1	0
383.447	1	-8
384.643	1	6
385.839	1	-3
387.035	1	3
388.230	1	9
389.426	1	-1
390.622	1	-3
391.817	1	-1
393.013	1	-5
394.208	1	-6
395.404	1	-3
396.599	1	1
397.795	1	-2
398.990	1	-3
400.186	1	-3
401.381	1	1
402.576	1	-10
403.771	1	10
404.967	1	-6
406.162	1	6
407.357	1	-6
408.552	1	-6
409.747	1	-3
410.942	1	1
412.137	1	5
413.332	1	-1
414.526	1	0
415.721	1	0
416.916	1	-7
418.111	1	-2
419.305	1	2
420.500	1	-1
421.695	1	-4
422.889	1	-8
424.084	1	3
425.278	1	9
426.472	1	1
427.667	1	7
428.861	1	-4
430.055	1	2
431.250	1	-2
432.444	1	7
433.638	1	-15
434.832	1	7
436.026	1	3
437.220	1	8
438.414	1	-9
439.608	1	-21
440.802	1	-7
441.996	1	9
443.190	1	7
444.384	1	-1
445.578	1	-7
446.771	1	16
447.965	1	-3
449.159	1	-15
450.352	1	-9
451.546	1	0
452.739	1	-3
453.933	1	-4
455.126	1	-4
456.320	1	-2
457.513	1	-1
458.706	1	4
459.899	1	3
461.093	1	-2
462.286	1	2
463.479	1	2
464.672	1	1
465.865	1	-1
467.058	1	3
468.251	1	-5
469.444	1	-2
470.637	1	-1
471.830	1	-7
473.023	1	7
474.215	1	9
475.408	1	1
476.601	1	-9
477.793	1	6
478.986	1	-5
480.179	1	0
481.371	1	7
482.564	1	8
483.756	1	12
484.948	1	-6
486.141	1	-8
487.333	1	-7
488.525	1	-3
489.718	1	-4
490.910	1	-3
492.102	1	-3
493.294	1	-1
494.486	1	3
495.678	1	-3
496.870	1	1
498.062	1	-3
499.254	1	-4
500.446	1	-6
501.638	1	-5
502.829	1	-8
504.021	1	-4
505.213	1	4
506.404	1	-5
507.596	1	6
508.788	1	10
509.979	1	-4
511.171	1	-6
512.362	1	1
513.553	1	-15
514.745	1	1
515.936	1	2
517.127	1	1
518.319	1	0
519.510	1	-2
520.701	1	6
521.892	1	8
523.083	1	-7
524.274	1	-2
525.465	1	1
526.656	1	1
527.847	1	8
529.038	1	1
530.229	1	-2
531.419	1	0
532.610	1	-11
533.801	1	16
534.991	1	6
536.182	1	-2
537.373	1	-4
538.563	1	3
539.754	1	2
540.944	1	0
542.134	1	4
543.325	1	-5
544.515	1	1
545.705	1	-3
546.896	1	-10
548.086	1	-3
549.276	1	-8
550.466	1	4
551.656	1	6
552.846	1	1
554.036	1	-7
555.226	1	-5
556.416	1	-7
557.606	1	-1
558.796	1	6
559.986	1	0
561.175	1	10
562.365	1	2
563.555	1	-10
564.744	1	-1
565.934	1	6
567.123	1	7
568.313	1	10
569.502	1	0
570.692	1	-1
571.881	1	16
573.070	1	2
574.260	1	7
575.449	1	2
576.638	1	-4
577.827	1	-3
579.016	1	6
580.205	1	-3
581.394	1	-2
582.583	1	9
583.772	1	1
584.961	1	6
586.150	1	-1
587.339	1	4
588.528	1	2
589.717	1	-6
590.905	1	-4
592.094	1	-3
593.283	1	-4
594.471	1	9
595.660	1	4
596.848	1	-9
598.037	1	-9
599.225	1	-11
600.413	1	11
601.602	1	8
602.790	1	-1
603.978	1	1
605.166	1	-1
606.355	1	1
607.543	1	-2
608.731	1	-4
609.919	1	4
611.107	1	-9
612.295	1	-12
613.483	1	4
614.671	1	-5
615.858	1	7
617.046	1	0
618.234	1	-7
619.422	1	-2
620.609	1	3
621.797	1	-10
622.985	1	2
624.172	1	0
625.360	1	4
626.547	1	6
627.735	1	2
628.922	1	8
630.109	1	-8
631.297	1	-2
632.484	1	4
633.671	1	-4
634.858	1	-13
636.045	1	7
637.232	1	-1
638.419	1	-10
639.606	1	3
640.793	1	9
641.980	1	2
643.167	1	-5
644.354	1	7
645.541	1	3
646.728	1	-5
647.914	1	-14
649.101	1	-3
650.288	1	8
651.474	1	-3
652.661	1	-6
653.847	1	8
655.034	1	6
656.220	1	-7
657.406	1	5
658.593	1	4
659.779	1	-5
660.965	1	8
662.152	1	2
663.338	1	7
664.524	1	-6
665.710	1	0
666.896	1	-15
668.082	1	5
669.268	1	-3
670.454	1	1
671.640	1	4
672.826	1	-6
674.011	1	4
675.197	1	-7
676.383	1	4
677.569	1	0
678.754	1	-5
679.940	1	1
681.125	1	2
682.311	1	5
683.496	1	4
684.682	1	-5
685.867	1	-7
687.053	1	1
688.238	1	4
688.746	1	-1