File: Data/GaN_200K_800ms/GaN_sample F_spot 12_UVVIS_200 K_200um_800 ms 2x2mm1_169.txt
340.368	1	5
341.565	1	-13
342.763	1	3
343.960	1	-3
345.157	1	-8
346.354	1	8
347.552	1	-1
348.749	1	-9
349.946	1	-4
351.143	1	0
352.340	1	5
353.537	1	-1
354.734	1	9
355.931	1	10
357.127	1	2
358.324	1	2
359.521	1	8
360.718	1	11
361.914	1	12
363.111	1	13
364.308	1	16
365.504	1	37
366.701	1	34
367.897	1	42
369.093	1	33
370.290	1	43
371.486	1	44
372.682	1	34
373.879	1	30
375.075	1	14
376.271	1	36
377.467	1	19
378.663	1	1
379.859	1	11
381.055	1	17
382.251	1	10
383.447	1	11
384.643	1	16
385.839	1	10
387.035	1	8
388.230	1	12
389.426	1	8
390.622	1	2
391.817	1	10
393.013	1	4
394.208	1	5
395.404	1	0
396.599	1	3
397.795	1	7
398.990	1	3
400.186	1	1
401.381	1	-6
402.576	1	-4
403.771	1	1
404.967	1	3
406.162	1	9
407.357	1	-2
408.552	1	-5
409.747	1	8
410.942	1	4
412.137	1	9
413.332	1	0
414.526	1	-8
415.721	1	0
416.916	1	-4
418.111	1	-1
419.305	1	-1
420.500	1	1
421.695	1	-7
422.889	1	-4
424.084	1	4
425.278	1	12
426.472	1	1
427.667	1	-1
428.861	1	1
430.055	1	6
431.250	1	1
432.444	1	13
433.638	1	0
434.832	1	14
436.026	1	11
437.220	1	0
438.414	1	-7
439.608	1	-6
440.802	1	-4
441.996	1	5
443.190	1	2
444.384	1	-2
445.578	1	-11
446.771	1	20
447.965	1	-2
449.159	1	-9
450.352	1	-1
451.546	1	1
452.739	1	6
453.933	1	5
455.126	1	-7
456.320	1	-6
457.513	1	7
458.706	1	6
459.899	1	-1
461.093	1	2
462.286	1	-3
463.479	1	-10
464.672	1	-3
465.865	1	-1
467.058	1	1
468.251	1	0
469.444	1	-6
470.637	1	-1
471.830	1	4
473.023	1	-7
474.215	1	-1
475.408	1	6
476.601	1	-3
477.793	1	-7
478.986	1	10
480.179	1	0
481.371	1	10
482.564	1	-3
483.756	1	11
484.948	1	-7
486.141	1	-8
487.333	1	7
488.525	1	2
489.718	1	6
490.910	1	3
492.102	1	-5
493.294	1	2
494.486	1	4
495.678	1	-1
496.870	1	11
498.062	1	8
499.254	1	3
500.446	1	-9
501.638	1	11
502.829	1	-2
504.021	1	2
505.213	1	14
506.404	1	1
507.596	1	8
508.788	1	11
509.979	1	14
511.171	1	3
512.362	1	0
513.553	1	-1
514.745	1	-5
515.936	1	-5
517.127	1	4
518.319	1	5
519.510	1	11
520.701	1	1
521.892	1	13
523.083	1	-2
524.274	1	5
525.465	1	1
526.656	1	4
527.847	1	5
529.038	1	8
530.229	1	16
531.419	1	9
532.610	1	2
533.801	1	14
534.991	1	17
536.182	1	4
537.373	1	1
538.563	1	-2
539.754	1	13
540.944	1	-4
542.134	1	10
543.325	1	3
544.515	1	-2
545.705	1	8
546.896	1	5
548.086	1	0
549.276	1	8
550.466	1	3
551.656	1	8
552.846	1	15
554.036	1	2
555.226	1	2
556.416	1	9
557.606	1	0
558.796	1	1
559.986	1	-5
561.175	1	6
562.365	1	13
563.555	1	8
564.744	1	5
565.934	1	8
567.123	1	10
568.313	1	14
569.502	1	0
570.692	1	8
571.881	1	19
573.070	1	9
574.260	1	16
575.449	1	10
576.638	1	8
577.827	1	9
579.016	1	13
580.205	1	-1
581.394	1	4
582.583	1	13
583.772	1	14
584.961	1	13
586.150	1	7
587.339	1	5
588.528	1	8
589.717	1	11
590.905	1	3
592.094	1	3
593.283	1	10
594.471	1	9
595.660	1	9
596.848	1	10
598.037	1	11
599.225	1	-10
600.413	1	13
601.602	1	16
602.790	1	11
603.978	1	7
605.166	1	7
606.355	1	5
607.543	1	1
608.731	1	5
609.919	1	8
611.107	1	0
612.295	1	9
613.483	1	6
614.671	1	7
615.858	1	2
617.046	1	2
618.234	1	11
619.422	1	-11
620.609	1	4
621.797	1	0
622.985	1	7
624.172	1	5
625.360	1	-1
626.547	1	8
627.735	1	10
628.922	1	10
630.109	1	-6
631.297	1	2
632.484	1	-2
633.671	1	-3
634.858	1	-7
636.045	1	14
637.232	1	-13
638.419	1	-3
639.606	1	8
640.793	1	21
641.980	1	5
643.167	1	-1
644.354	1	11
645.541	1	0
646.728	1	1
647.914	1	-1
649.101	1	0
650.288	1	7
651.474	1	-2
652.661	1	10
653.847	1	11
655.034	1	-1
656.220	1	-4
657.406	1	2
658.593	1	8
659.779	1	12
660.965	1	13
662.152	1	10
663.338	1	13
664.524	1	1
665.710	1	0
666.896	1	3
668.082	1	4
669.268	1	-3
670.454	1	3
671.640	1	6
672.826	1	-3
674.011	1	-3
675.197	1	1
676.383	1	6
677.569	1	-10
678.754	1	4
679.940	1	3
681.125	1	4
682.311	1	5
683.496	1	-5
684.682	1	-1
685.867	1	1
687.053	1	2
688.238	1	6
688.746	1	-1