File: Data/GaN_200K_800ms/GaN_sample F_spot 12_UVVIS_200 K_200um_800 ms 2x2mm1_95.txt
340.368	1	9
341.565	1	-13
342.763	1	10
343.960	1	7
345.157	1	-7
346.354	1	-2
347.552	1	7
348.749	1	5
349.946	1	0
351.143	1	3
352.340	1	16
353.537	1	-1
354.734	1	7
355.931	1	8
357.127	1	6
358.324	1	8
359.521	1	23
360.718	1	24
361.914	1	29
363.111	1	31
364.308	1	41
365.504	1	75
366.701	1	76
367.897	1	102
369.093	1	95
370.290	1	116
371.486	1	108
372.682	1	88
373.879	1	64
375.075	1	60
376.271	1	68
377.467	1	44
378.663	1	44
379.859	1	37
381.055	1	45
382.251	1	27
383.447	1	18
384.643	1	33
385.839	1	8
387.035	1	17
388.230	1	15
389.426	1	6
390.622	1	4
391.817	1	5
393.013	1	13
394.208	1	7
395.404	1	3
396.599	1	-2
397.795	1	6
398.990	1	4
400.186	1	1
401.381	1	-3
402.576	1	13
403.771	1	2
404.967	1	10
406.162	1	6
407.357	1	-2
408.552	1	5
409.747	1	3
410.942	1	6
412.137	1	6
413.332	1	9
414.526	1	1
415.721	1	11
416.916	1	1
418.111	1	-2
419.305	1	2
420.500	1	9
421.695	1	-3
422.889	1	-12
424.084	1	-2
425.278	1	16
426.472	1	-6
427.667	1	5
428.861	1	3
430.055	1	6
431.250	1	-2
432.444	1	5
433.638	1	7
434.832	1	2
436.026	1	9
437.220	1	1
438.414	1	-8
439.608	1	-4
440.802	1	-2
441.996	1	5
443.190	1	7
444.384	1	-9
445.578	1	-10
446.771	1	17
447.965	1	-4
449.159	1	4
450.352	1	-1
451.546	1	4
452.739	1	1
453.933	1	-3
455.126	1	-4
456.320	1	0
457.513	1	-1
458.706	1	4
459.899	1	4
461.093	1	9
462.286	1	5
463.479	1	3
464.672	1	4
465.865	1	2
467.058	1	-1
468.251	1	4
469.444	1	-1
470.637	1	4
471.830	1	8
473.023	1	8
474.215	1	20
475.408	1	8
476.601	1	-4
477.793	1	-1
478.986	1	-4
480.179	1	2
481.371	1	-4
482.564	1	1
483.756	1	14
484.948	1	-9
486.141	1	-13
487.333	1	9
488.525	1	-1
489.718	1	2
490.910	1	5
492.102	1	2
493.294	1	-4
494.486	1	9
495.678	1	4
496.870	1	6
498.062	1	-5
499.254	1	11
500.446	1	6
501.638	1	1
502.829	1	11
504.021	1	1
505.213	1	13
506.404	1	17
507.596	1	14
508.788	1	23
509.979	1	-5
511.171	1	8
512.362	1	1
513.553	1	-8
514.745	1	13
515.936	1	5
517.127	1	9
518.319	1	6
519.510	1	9
520.701	1	2
521.892	1	9
523.083	1	8
524.274	1	18
525.465	1	11
526.656	1	6
527.847	1	22
529.038	1	14
530.229	1	6
531.419	1	15
532.610	1	7
533.801	1	23
534.991	1	15
536.182	1	11
537.373	1	11
538.563	1	14
539.754	1	25
540.944	1	7
542.134	1	19
543.325	1	3
544.515	1	15
545.705	1	14
546.896	1	17
548.086	1	11
549.276	1	9
550.466	1	17
551.656	1	20
552.846	1	18
554.036	1	9
555.226	1	5
556.416	1	5
557.606	1	24
558.796	1	12
559.986	1	2
561.175	1	13
562.365	1	12
563.555	1	5
564.744	1	25
565.934	1	6
567.123	1	12
568.313	1	19
569.502	1	14
570.692	1	25
571.881	1	28
573.070	1	20
574.260	1	21
575.449	1	12
576.638	1	5
577.827	1	18
579.016	1	17
580.205	1	17
581.394	1	11
582.583	1	23
583.772	1	19
584.961	1	18
586.150	1	0
587.339	1	11
588.528	1	17
589.717	1	10
590.905	1	14
592.094	1	0
593.283	1	10
594.471	1	23
595.660	1	9
596.848	1	21
598.037	1	9
599.225	1	-3
600.413	1	19
601.602	1	17
602.790	1	6
603.978	1	9
605.166	1	11
606.355	1	12
607.543	1	9
608.731	1	9
609.919	1	21
611.107	1	7
612.295	1	-3
613.483	1	19
614.671	1	20
615.858	1	7
617.046	1	16
618.234	1	12
619.422	1	3
620.609	1	11
621.797	1	3
622.985	1	6
624.172	1	9
625.360	1	18
626.547	1	11
627.735	1	6
628.922	1	15
630.109	1	4
631.297	1	0
632.484	1	1
633.671	1	-1
634.858	1	16
636.045	1	20
637.232	1	6
638.419	1	6
639.606	1	13
640.793	1	29
641.980	1	15
643.167	1	7
644.354	1	8
645.541	1	5
646.728	1	4
647.914	1	6
649.101	1	0
650.288	1	6
651.474	1	-1
652.661	1	2
653.847	1	3
655.034	1	8
656.220	1	6
657.406	1	8
658.593	1	11
659.779	1	0
660.965	1	10
662.152	1	1
663.338	1	17
664.524	1	7
665.710	1	-2
666.896	1	6
668.082	1	3
669.268	1	-4
670.454	1	2
671.640	1	6
672.826	1	4
674.011	1	6
675.197	1	1
676.383	1	10
677.569	1	0
678.754	1	11
679.940	1	-2
681.125	1	8
682.311	1	15
683.496	1	8
684.682	1	3
685.867	1	5
687.053	1	4
688.238	1	8
688.746	1	5