File: Data/GaN_200K_800ms/GaN_sample F_spot 12_UVVIS_200 K_200um_800 ms 2x2mm1_114.txt
340.368	1	11
341.565	1	-13
342.763	1	0
343.960	1	-7
345.157	1	3
346.354	1	4
347.552	1	-4
348.749	1	-2
349.946	1	-2
351.143	1	-2
352.340	1	-2
353.537	1	-2
354.734	1	12
355.931	1	3
357.127	1	8
358.324	1	12
359.521	1	10
360.718	1	19
361.914	1	24
363.111	1	22
364.308	1	41
365.504	1	46
366.701	1	54
367.897	1	78
369.093	1	73
370.290	1	68
371.486	1	66
372.682	1	69
373.879	1	51
375.075	1	45
376.271	1	49
377.467	1	35
378.663	1	30
379.859	1	30
381.055	1	29
382.251	1	1
383.447	1	18
384.643	1	18
385.839	1	12
387.035	1	16
388.230	1	15
389.426	1	1
390.622	1	-1
391.817	1	15
393.013	1	-6
394.208	1	1
395.404	1	-2
396.599	1	7
397.795	1	5
398.990	1	4
400.186	1	14
401.381	1	4
402.576	1	2
403.771	1	12
404.967	1	7
406.162	1	15
407.357	1	6
408.552	1	3
409.747	1	2
410.942	1	13
412.137	1	7
413.332	1	7
414.526	1	0
415.721	1	2
416.916	1	-1
418.111	1	3
419.305	1	-2
420.500	1	-8
421.695	1	-2
422.889	1	-5
424.084	1	2
425.278	1	7
426.472	1	1
427.667	1	3
428.861	1	2
430.055	1	2
431.250	1	3
432.444	1	4
433.638	1	0
434.832	1	13
436.026	1	8
437.220	1	-1
438.414	1	0
439.608	1	-8
440.802	1	0
441.996	1	7
443.190	1	2
444.384	1	-3
445.578	1	-6
446.771	1	14
447.965	1	2
449.159	1	-4
450.352	1	4
451.546	1	-1
452.739	1	3
453.933	1	5
455.126	1	-10
456.320	1	-1
457.513	1	9
458.706	1	5
459.899	1	-2
461.093	1	3
462.286	1	7
463.479	1	-6
464.672	1	-3
465.865	1	0
467.058	1	0
468.251	1	10
469.444	1	1
470.637	1	16
471.830	1	-1
473.023	1	5
474.215	1	8
475.408	1	-3
476.601	1	5
477.793	1	5
478.986	1	-5
480.179	1	6
481.371	1	4
482.564	1	3
483.756	1	12
484.948	1	-9
486.141	1	-8
487.333	1	-3
488.525	1	6
489.718	1	15
490.910	1	2
492.102	1	-7
493.294	1	-6
494.486	1	7
495.678	1	5
496.870	1	10
498.062	1	3
499.254	1	8
500.446	1	4
501.638	1	5
502.829	1	-4
504.021	1	11
505.213	1	8
506.404	1	-1
507.596	1	12
508.788	1	14
509.979	1	-2
511.171	1	10
512.362	1	9
513.553	1	-9
514.745	1	-2
515.936	1	5
517.127	1	7
518.319	1	11
519.510	1	5
520.701	1	5
521.892	1	12
523.083	1	3
524.274	1	10
525.465	1	9
526.656	1	3
527.847	1	15
529.038	1	5
530.229	1	5
531.419	1	9
532.610	1	5
533.801	1	15
534.991	1	12
536.182	1	5
537.373	1	8
538.563	1	18
539.754	1	12
540.944	1	5
542.134	1	13
543.325	1	12
544.515	1	6
545.705	1	5
546.896	1	7
548.086	1	8
549.276	1	0
550.466	1	21
551.656	1	12
552.846	1	15
554.036	1	10
555.226	1	3
556.416	1	1
557.606	1	14
558.796	1	10
559.986	1	-3
561.175	1	19
562.365	1	14
563.555	1	-1
564.744	1	17
565.934	1	18
567.123	1	8
568.313	1	7
569.502	1	12
570.692	1	15
571.881	1	20
573.070	1	3
574.260	1	14
575.449	1	3
576.638	1	10
577.827	1	9
579.016	1	17
580.205	1	8
581.394	1	2
582.583	1	20
583.772	1	12
584.961	1	19
586.150	1	5
587.339	1	8
588.528	1	17
589.717	1	13
590.905	1	6
592.094	1	11
593.283	1	17
594.471	1	29
595.660	1	5
596.848	1	6
598.037	1	-2
599.225	1	-5
600.413	1	15
601.602	1	20
602.790	1	13
603.978	1	6
605.166	1	13
606.355	1	6
607.543	1	19
608.731	1	8
609.919	1	14
611.107	1	4
612.295	1	6
613.483	1	9
614.671	1	9
615.858	1	10
617.046	1	12
618.234	1	3
619.422	1	1
620.609	1	14
621.797	1	3
622.985	1	7
624.172	1	8
625.360	1	7
626.547	1	0
627.735	1	12
628.922	1	8
630.109	1	-3
631.297	1	7
632.484	1	1
633.671	1	-1
634.858	1	6
636.045	1	3
637.232	1	8
638.419	1	5
639.606	1	11
640.793	1	15
641.980	1	19
643.167	1	-4
644.354	1	8
645.541	1	5
646.728	1	-2
647.914	1	9
649.101	1	5
650.288	1	10
651.474	1	-2
652.661	1	9
653.847	1	10
655.034	1	-1
656.220	1	6
657.406	1	6
658.593	1	5
659.779	1	1
660.965	1	7
662.152	1	12
663.338	1	7
664.524	1	8
665.710	1	6
666.896	1	4
668.082	1	4
669.268	1	7
670.454	1	-2
671.640	1	9
672.826	1	1
674.011	1	5
675.197	1	-3
676.383	1	9
677.569	1	5
678.754	1	10
679.940	1	5
681.125	1	13
682.311	1	10
683.496	1	10
684.682	1	0
685.867	1	4
687.053	1	9
688.238	1	8
688.746	1	1