File: Data/GaN_200K_800ms/GaN_sample F_spot 12_UVVIS_200 K_200um_800 ms 2x2mm1_203.txt
340.368	1	10
341.565	1	-14
342.763	1	1
343.960	1	-5
345.157	1	-9
346.354	1	-4
347.552	1	-1
348.749	1	-2
349.946	1	2
351.143	1	-4
352.340	1	9
353.537	1	7
354.734	1	-3
355.931	1	4
357.127	1	-5
358.324	1	4
359.521	1	10
360.718	1	10
361.914	1	11
363.111	1	5
364.308	1	14
365.504	1	22
366.701	1	22
367.897	1	21
369.093	1	25
370.290	1	33
371.486	1	26
372.682	1	23
373.879	1	17
375.075	1	26
376.271	1	14
377.467	1	11
378.663	1	9
379.859	1	7
381.055	1	10
382.251	1	7
383.447	1	9
384.643	1	18
385.839	1	10
387.035	1	-1
388.230	1	17
389.426	1	8
390.622	1	-2
391.817	1	13
393.013	1	3
394.208	1	-1
395.404	1	0
396.599	1	-2
397.795	1	-3
398.990	1	-1
400.186	1	5
401.381	1	-3
402.576	1	-6
403.771	1	7
404.967	1	13
406.162	1	12
407.357	1	-5
408.552	1	-4
409.747	1	3
410.942	1	7
412.137	1	-6
413.332	1	6
414.526	1	6
415.721	1	2
416.916	1	-2
418.111	1	-2
419.305	1	6
420.500	1	1
421.695	1	-4
422.889	1	-4
424.084	1	1
425.278	1	13
426.472	1	2
427.667	1	2
428.861	1	2
430.055	1	6
431.250	1	-14
432.444	1	9
433.638	1	4
434.832	1	-1
436.026	1	4
437.220	1	3
438.414	1	-7
439.608	1	-11
440.802	1	-2
441.996	1	3
443.190	1	5
444.384	1	3
445.578	1	-8
446.771	1	6
447.965	1	-2
449.159	1	-9
450.352	1	-5
451.546	1	-5
452.739	1	2
453.933	1	-6
455.126	1	-8
456.320	1	-4
457.513	1	3
458.706	1	4
459.899	1	-2
461.093	1	1
462.286	1	5
463.479	1	-2
464.672	1	2
465.865	1	0
467.058	1	-1
468.251	1	0
469.444	1	-3
470.637	1	2
471.830	1	10
473.023	1	3
474.215	1	8
475.408	1	-6
476.601	1	0
477.793	1	0
478.986	1	-3
480.179	1	3
481.371	1	1
482.564	1	-1
483.756	1	12
484.948	1	-7
486.141	1	-13
487.333	1	11
488.525	1	1
489.718	1	3
490.910	1	-2
492.102	1	-2
493.294	1	-6
494.486	1	6
495.678	1	1
496.870	1	-1
498.062	1	-1
499.254	1	0
500.446	1	-11
501.638	1	10
502.829	1	-9
504.021	1	-1
505.213	1	6
506.404	1	1
507.596	1	-1
508.788	1	10
509.979	1	1
511.171	1	6
512.362	1	-7
513.553	1	-9
514.745	1	-3
515.936	1	4
517.127	1	2
518.319	1	1
519.510	1	4
520.701	1	-3
521.892	1	-1
523.083	1	3
524.274	1	3
525.465	1	8
526.656	1	12
527.847	1	-1
529.038	1	3
530.229	1	1
531.419	1	8
532.610	1	-1
533.801	1	13
534.991	1	8
536.182	1	13
537.373	1	0
538.563	1	7
539.754	1	12
540.944	1	1
542.134	1	10
543.325	1	-1
544.515	1	-2
545.705	1	3
546.896	1	4
548.086	1	1
549.276	1	0
550.466	1	6
551.656	1	0
552.846	1	0
554.036	1	1
555.226	1	-10
556.416	1	-1
557.606	1	4
558.796	1	5
559.986	1	-6
561.175	1	3
562.365	1	6
563.555	1	-6
564.744	1	2
565.934	1	11
567.123	1	10
568.313	1	5
569.502	1	-7
570.692	1	16
571.881	1	1
573.070	1	4
574.260	1	10
575.449	1	6
576.638	1	-3
577.827	1	0
579.016	1	7
580.205	1	3
581.394	1	2
582.583	1	6
583.772	1	9
584.961	1	4
586.150	1	1
587.339	1	3
588.528	1	9
589.717	1	11
590.905	1	2
592.094	1	-5
593.283	1	-6
594.471	1	9
595.660	1	5
596.848	1	5
598.037	1	-2
599.225	1	-9
600.413	1	8
601.602	1	10
602.790	1	-2
603.978	1	0
605.166	1	2
606.355	1	4
607.543	1	-1
608.731	1	6
609.919	1	7
611.107	1	-1
612.295	1	5
613.483	1	1
614.671	1	11
615.858	1	1
617.046	1	10
618.234	1	4
619.422	1	-5
620.609	1	7
621.797	1	-1
622.985	1	4
624.172	1	0
625.360	1	3
626.547	1	7
627.735	1	10
628.922	1	7
630.109	1	-4
631.297	1	-10
632.484	1	-2
633.671	1	-4
634.858	1	-2
636.045	1	6
637.232	1	2
638.419	1	-2
639.606	1	2
640.793	1	8
641.980	1	2
643.167	1	1
644.354	1	-2
645.541	1	0
646.728	1	2
647.914	1	-6
649.101	1	-4
650.288	1	1
651.474	1	-9
652.661	1	-6
653.847	1	8
655.034	1	4
656.220	1	-4
657.406	1	8
658.593	1	3
659.779	1	7
660.965	1	8
662.152	1	3
663.338	1	3
664.524	1	3
665.710	1	-1
666.896	1	0
668.082	1	3
669.268	1	-4
670.454	1	9
671.640	1	-2
672.826	1	4
674.011	1	-2
675.197	1	-6
676.383	1	-1
677.569	1	1
678.754	1	-10
679.940	1	-14
681.125	1	0
682.311	1	9
683.496	1	8
684.682	1	-7
685.867	1	2
687.053	1	9
688.238	1	4
688.746	1	4