File: Data/GaN_200K_800ms/GaN_sample F_spot 12_UVVIS_200 K_200um_800 ms 2x2mm1_242.txt
340.368	1	2
341.565	1	-2
342.763	1	5
343.960	1	-2
345.157	1	-7
346.354	1	2
347.552	1	-4
348.749	1	-8
349.946	1	-7
351.143	1	-2
352.340	1	4
353.537	1	-2
354.734	1	2
355.931	1	3
357.127	1	3
358.324	1	2
359.521	1	12
360.718	1	10
361.914	1	7
363.111	1	7
364.308	1	2
365.504	1	27
366.701	1	12
367.897	1	22
369.093	1	22
370.290	1	26
371.486	1	24
372.682	1	24
373.879	1	10
375.075	1	9
376.271	1	12
377.467	1	14
378.663	1	11
379.859	1	2
381.055	1	15
382.251	1	-1
383.447	1	9
384.643	1	9
385.839	1	8
387.035	1	11
388.230	1	12
389.426	1	9
390.622	1	5
391.817	1	6
393.013	1	3
394.208	1	6
395.404	1	-6
396.599	1	-8
397.795	1	4
398.990	1	-6
400.186	1	6
401.381	1	0
402.576	1	-4
403.771	1	7
404.967	1	-5
406.162	1	3
407.357	1	2
408.552	1	-2
409.747	1	-3
410.942	1	9
412.137	1	-1
413.332	1	0
414.526	1	-7
415.721	1	8
416.916	1	-10
418.111	1	-5
419.305	1	12
420.500	1	-6
421.695	1	-3
422.889	1	-3
424.084	1	7
425.278	1	10
426.472	1	6
427.667	1	0
428.861	1	-2
430.055	1	1
431.250	1	-12
432.444	1	5
433.638	1	-1
434.832	1	-5
436.026	1	10
437.220	1	6
438.414	1	-10
439.608	1	-10
440.802	1	0
441.996	1	-5
443.190	1	-1
444.384	1	-16
445.578	1	-18
446.771	1	15
447.965	1	-1
449.159	1	-4
450.352	1	8
451.546	1	0
452.739	1	4
453.933	1	-1
455.126	1	-8
456.320	1	5
457.513	1	6
458.706	1	-2
459.899	1	0
461.093	1	6
462.286	1	2
463.479	1	-2
464.672	1	-4
465.865	1	-3
467.058	1	1
468.251	1	-3
469.444	1	-11
470.637	1	7
471.830	1	-3
473.023	1	3
474.215	1	9
475.408	1	-2
476.601	1	-3
477.793	1	-5
478.986	1	0
480.179	1	4
481.371	1	-1
482.564	1	10
483.756	1	-3
484.948	1	-13
486.141	1	-7
487.333	1	0
488.525	1	2
489.718	1	-6
490.910	1	-1
492.102	1	-7
493.294	1	0
494.486	1	6
495.678	1	-4
496.870	1	8
498.062	1	4
499.254	1	9
500.446	1	-2
501.638	1	-5
502.829	1	-8
504.021	1	3
505.213	1	11
506.404	1	3
507.596	1	-1
508.788	1	14
509.979	1	-3
511.171	1	3
512.362	1	1
513.553	1	-14
514.745	1	-1
515.936	1	-3
517.127	1	2
518.319	1	4
519.510	1	-2
520.701	1	-3
521.892	1	4
523.083	1	1
524.274	1	7
525.465	1	6
526.656	1	1
527.847	1	-4
529.038	1	0
530.229	1	1
531.419	1	1
532.610	1	-2
533.801	1	8
534.991	1	7
536.182	1	10
537.373	1	10
538.563	1	6
539.754	1	4
540.944	1	-2
542.134	1	8
543.325	1	0
544.515	1	-7
545.705	1	-2
546.896	1	-8
548.086	1	-3
549.276	1	-6
550.466	1	3
551.656	1	2
552.846	1	-2
554.036	1	4
555.226	1	-11
556.416	1	-5
557.606	1	-2
558.796	1	9
559.986	1	1
561.175	1	10
562.365	1	4
563.555	1	-4
564.744	1	4
565.934	1	11
567.123	1	6
568.313	1	7
569.502	1	2
570.692	1	-2
571.881	1	10
573.070	1	3
574.260	1	13
575.449	1	-3
576.638	1	-7
577.827	1	-4
579.016	1	13
580.205	1	8
581.394	1	-1
582.583	1	12
583.772	1	-1
584.961	1	5
586.150	1	1
587.339	1	5
588.528	1	1
589.717	1	-2
590.905	1	8
592.094	1	-8
593.283	1	-2
594.471	1	17
595.660	1	2
596.848	1	9
598.037	1	7
599.225	1	-6
600.413	1	9
601.602	1	6
602.790	1	0
603.978	1	6
605.166	1	8
606.355	1	4
607.543	1	3
608.731	1	0
609.919	1	6
611.107	1	6
612.295	1	-2
613.483	1	0
614.671	1	0
615.858	1	3
617.046	1	0
618.234	1	-3
619.422	1	4
620.609	1	-2
621.797	1	0
622.985	1	2
624.172	1	5
625.360	1	3
626.547	1	-4
627.735	1	-1
628.922	1	-1
630.109	1	-4
631.297	1	6
632.484	1	-9
633.671	1	1
634.858	1	-1
636.045	1	3
637.232	1	-3
638.419	1	1
639.606	1	4
640.793	1	5
641.980	1	3
643.167	1	-8
644.354	1	3
645.541	1	6
646.728	1	3
647.914	1	-5
649.101	1	-7
650.288	1	7
651.474	1	-6
652.661	1	2
653.847	1	10
655.034	1	12
656.220	1	-8
657.406	1	3
658.593	1	2
659.779	1	5
660.965	1	3
662.152	1	1
663.338	1	9
664.524	1	0
665.710	1	4
666.896	1	6
668.082	1	4
669.268	1	6
670.454	1	3
671.640	1	10
672.826	1	-6
674.011	1	-4
675.197	1	-8
676.383	1	3
677.569	1	-2
678.754	1	-1
679.940	1	-9
681.125	1	-3
682.311	1	11
683.496	1	1
684.682	1	-2
685.867	1	-2
687.053	1	-1
688.238	1	6
688.746	1	2