File: Data/GaN_200K_800ms/GaN_sample F_spot 12_UVVIS_200 K_200um_800 ms 2x2mm1_42.txt
340.368	1	6
341.565	1	-10
342.763	1	3
343.960	1	-3
345.157	1	-4
346.354	1	-1
347.552	1	7
348.749	1	2
349.946	1	14
351.143	1	6
352.340	1	18
353.537	1	21
354.734	1	29
355.931	1	32
357.127	1	52
358.324	1	42
359.521	1	74
360.718	1	100
361.914	1	156
363.111	1	226
364.308	1	333
365.504	1	508
366.701	1	694
367.897	1	939
369.093	1	1068
370.290	1	1077
371.486	1	974
372.682	1	817
373.879	1	658
375.075	1	524
376.271	1	442
377.467	1	359
378.663	1	283
379.859	1	225
381.055	1	209
382.251	1	160
383.447	1	136
384.643	1	140
385.839	1	118
387.035	1	106
388.230	1	82
389.426	1	69
390.622	1	79
391.817	1	56
393.013	1	61
394.208	1	44
395.404	1	38
396.599	1	36
397.795	1	39
398.990	1	35
400.186	1	25
401.381	1	25
402.576	1	14
403.771	1	34
404.967	1	29
406.162	1	22
407.357	1	7
408.552	1	3
409.747	1	17
410.942	1	25
412.137	1	17
413.332	1	15
414.526	1	6
415.721	1	7
416.916	1	7
418.111	1	5
419.305	1	12
420.500	1	8
421.695	1	3
422.889	1	2
424.084	1	14
425.278	1	19
426.472	1	8
427.667	1	19
428.861	1	0
430.055	1	17
431.250	1	7
432.444	1	13
433.638	1	9
434.832	1	7
436.026	1	3
437.220	1	12
438.414	1	6
439.608	1	-1
440.802	1	5
441.996	1	4
443.190	1	8
444.384	1	9
445.578	1	-4
446.771	1	16
447.965	1	3
449.159	1	-3
450.352	1	0
451.546	1	-2
452.739	1	15
453.933	1	8
455.126	1	4
456.320	1	3
457.513	1	23
458.706	1	15
459.899	1	1
461.093	1	3
462.286	1	7
463.479	1	7
464.672	1	3
465.865	1	9
467.058	1	11
468.251	1	4
469.444	1	2
470.637	1	16
471.830	1	6
473.023	1	12
474.215	1	15
475.408	1	4
476.601	1	9
477.793	1	6
478.986	1	15
480.179	1	12
481.371	1	16
482.564	1	10
483.756	1	25
484.948	1	5
486.141	1	15
487.333	1	12
488.525	1	24
489.718	1	14
490.910	1	24
492.102	1	19
493.294	1	6
494.486	1	34
495.678	1	25
496.870	1	31
498.062	1	25
499.254	1	31
500.446	1	28
501.638	1	29
502.829	1	38
504.021	1	37
505.213	1	39
506.404	1	49
507.596	1	47
508.788	1	50
509.979	1	44
511.171	1	40
512.362	1	36
513.553	1	43
514.745	1	37
515.936	1	44
517.127	1	49
518.319	1	62
519.510	1	67
520.701	1	53
521.892	1	63
523.083	1	62
524.274	1	66
525.465	1	67
526.656	1	57
527.847	1	60
529.038	1	72
530.229	1	76
531.419	1	85
532.610	1	72
533.801	1	88
534.991	1	78
536.182	1	73
537.373	1	74
538.563	1	77
539.754	1	73
540.944	1	65
542.134	1	77
543.325	1	67
544.515	1	75
545.705	1	73
546.896	1	75
548.086	1	77
549.276	1	100
550.466	1	86
551.656	1	98
552.846	1	96
554.036	1	88
555.226	1	79
556.416	1	76
557.606	1	90
558.796	1	83
559.986	1	81
561.175	1	78
562.365	1	85
563.555	1	79
564.744	1	94
565.934	1	94
567.123	1	80
568.313	1	90
569.502	1	85
570.692	1	82
571.881	1	100
573.070	1	86
574.260	1	89
575.449	1	82
576.638	1	82
577.827	1	74
579.016	1	87
580.205	1	85
581.394	1	84
582.583	1	87
583.772	1	86
584.961	1	93
586.150	1	72
587.339	1	78
588.528	1	79
589.717	1	77
590.905	1	70
592.094	1	71
593.283	1	70
594.471	1	66
595.660	1	64
596.848	1	67
598.037	1	64
599.225	1	62
600.413	1	73
601.602	1	74
602.790	1	67
603.978	1	64
605.166	1	70
606.355	1	68
607.543	1	56
608.731	1	68
609.919	1	62
611.107	1	59
612.295	1	45
613.483	1	55
614.671	1	55
615.858	1	55
617.046	1	65
618.234	1	49
619.422	1	41
620.609	1	52
621.797	1	35
622.985	1	48
624.172	1	39
625.360	1	45
626.547	1	43
627.735	1	40
628.922	1	48
630.109	1	39
631.297	1	47
632.484	1	36
633.671	1	37
634.858	1	38
636.045	1	44
637.232	1	34
638.419	1	29
639.606	1	52
640.793	1	51
641.980	1	37
643.167	1	38
644.354	1	34
645.541	1	33
646.728	1	27
647.914	1	26
649.101	1	33
650.288	1	37
651.474	1	27
652.661	1	16
653.847	1	37
655.034	1	38
656.220	1	20
657.406	1	29
658.593	1	26
659.779	1	24
660.965	1	29
662.152	1	24
663.338	1	34
664.524	1	24
665.710	1	26
666.896	1	23
668.082	1	25
669.268	1	21
670.454	1	21
671.640	1	23
672.826	1	23
674.011	1	16
675.197	1	25
676.383	1	30
677.569	1	18
678.754	1	31
679.940	1	18
681.125	1	28
682.311	1	26
683.496	1	21
684.682	1	24
685.867	1	18
687.053	1	30
688.238	1	21
688.746	1	19