File: Data/GaN_200K_800ms/GaN_sample F_spot 12_UVVIS_200 K_200um_800 ms 2x2mm1_127.txt
340.368	1	-1
341.565	1	2
342.763	1	4
343.960	1	5
345.157	1	-7
346.354	1	-6
347.552	1	0
348.749	1	-2
349.946	1	4
351.143	1	2
352.340	1	-1
353.537	1	6
354.734	1	10
355.931	1	2
357.127	1	0
358.324	1	14
359.521	1	15
360.718	1	9
361.914	1	17
363.111	1	13
364.308	1	27
365.504	1	42
366.701	1	62
367.897	1	60
369.093	1	65
370.290	1	67
371.486	1	69
372.682	1	59
373.879	1	51
375.075	1	35
376.271	1	45
377.467	1	33
378.663	1	32
379.859	1	20
381.055	1	34
382.251	1	21
383.447	1	16
384.643	1	12
385.839	1	17
387.035	1	11
388.230	1	20
389.426	1	10
390.622	1	6
391.817	1	12
393.013	1	8
394.208	1	9
395.404	1	-3
396.599	1	4
397.795	1	3
398.990	1	5
400.186	1	-3
401.381	1	1
402.576	1	-2
403.771	1	5
404.967	1	0
406.162	1	9
407.357	1	10
408.552	1	4
409.747	1	6
410.942	1	10
412.137	1	9
413.332	1	8
414.526	1	2
415.721	1	1
416.916	1	-6
418.111	1	0
419.305	1	3
420.500	1	0
421.695	1	4
422.889	1	-1
424.084	1	0
425.278	1	7
426.472	1	2
427.667	1	6
428.861	1	-5
430.055	1	4
431.250	1	-4
432.444	1	12
433.638	1	3
434.832	1	2
436.026	1	9
437.220	1	7
438.414	1	-10
439.608	1	-4
440.802	1	3
441.996	1	1
443.190	1	-4
444.384	1	-1
445.578	1	-6
446.771	1	10
447.965	1	-1
449.159	1	4
450.352	1	-12
451.546	1	3
452.739	1	10
453.933	1	2
455.126	1	-10
456.320	1	-10
457.513	1	1
458.706	1	-4
459.899	1	0
461.093	1	-2
462.286	1	-1
463.479	1	5
464.672	1	-4
465.865	1	2
467.058	1	6
468.251	1	-3
469.444	1	-6
470.637	1	8
471.830	1	10
473.023	1	-4
474.215	1	7
475.408	1	3
476.601	1	2
477.793	1	1
478.986	1	5
480.179	1	4
481.371	1	1
482.564	1	6
483.756	1	13
484.948	1	-11
486.141	1	4
487.333	1	1
488.525	1	0
489.718	1	8
490.910	1	10
492.102	1	-2
493.294	1	5
494.486	1	6
495.678	1	7
496.870	1	10
498.062	1	6
499.254	1	3
500.446	1	2
501.638	1	4
502.829	1	-2
504.021	1	-2
505.213	1	15
506.404	1	5
507.596	1	7
508.788	1	10
509.979	1	2
511.171	1	-3
512.362	1	4
513.553	1	0
514.745	1	2
515.936	1	9
517.127	1	5
518.319	1	6
519.510	1	5
520.701	1	7
521.892	1	6
523.083	1	1
524.274	1	6
525.465	1	10
526.656	1	8
527.847	1	15
529.038	1	3
530.229	1	10
531.419	1	8
532.610	1	4
533.801	1	17
534.991	1	5
536.182	1	12
537.373	1	7
538.563	1	12
539.754	1	9
540.944	1	11
542.134	1	11
543.325	1	-2
544.515	1	-6
545.705	1	3
546.896	1	10
548.086	1	12
549.276	1	-2
550.466	1	6
551.656	1	6
552.846	1	8
554.036	1	8
555.226	1	-5
556.416	1	4
557.606	1	7
558.796	1	5
559.986	1	9
561.175	1	10
562.365	1	2
563.555	1	-3
564.744	1	10
565.934	1	14
567.123	1	2
568.313	1	9
569.502	1	-5
570.692	1	8
571.881	1	24
573.070	1	-2
574.260	1	13
575.449	1	-2
576.638	1	-3
577.827	1	7
579.016	1	15
580.205	1	7
581.394	1	12
582.583	1	17
583.772	1	4
584.961	1	10
586.150	1	-7
587.339	1	8
588.528	1	10
589.717	1	1
590.905	1	2
592.094	1	2
593.283	1	12
594.471	1	13
595.660	1	4
596.848	1	-7
598.037	1	6
599.225	1	-6
600.413	1	9
601.602	1	14
602.790	1	5
603.978	1	10
605.166	1	14
606.355	1	9
607.543	1	6
608.731	1	4
609.919	1	9
611.107	1	-1
612.295	1	-4
613.483	1	8
614.671	1	-2
615.858	1	4
617.046	1	-2
618.234	1	2
619.422	1	0
620.609	1	5
621.797	1	6
622.985	1	8
624.172	1	4
625.360	1	5
626.547	1	8
627.735	1	7
628.922	1	6
630.109	1	-10
631.297	1	5
632.484	1	6
633.671	1	1
634.858	1	8
636.045	1	13
637.232	1	-1
638.419	1	-1
639.606	1	9
640.793	1	9
641.980	1	10
643.167	1	-4
644.354	1	2
645.541	1	2
646.728	1	10
647.914	1	-7
649.101	1	-2
650.288	1	7
651.474	1	-6
652.661	1	-3
653.847	1	16
655.034	1	-1
656.220	1	2
657.406	1	9
658.593	1	6
659.779	1	12
660.965	1	13
662.152	1	10
663.338	1	11
664.524	1	3
665.710	1	10
666.896	1	-3
668.082	1	0
669.268	1	2
670.454	1	5
671.640	1	1
672.826	1	0
674.011	1	-7
675.197	1	-1
676.383	1	8
677.569	1	-5
678.754	1	-4
679.940	1	9
681.125	1	12
682.311	1	10
683.496	1	-3
684.682	1	-5
685.867	1	6
687.053	1	1
688.238	1	4
688.746	1	8