File: Data/GaN_200K_800ms/GaN_sample F_spot 12_UVVIS_200 K_200um_800 ms 2x2mm1_475.txt
340.368	1	0
341.565	1	-7
342.763	1	7
343.960	1	-4
345.157	1	-6
346.354	1	-3
347.552	1	-5
348.749	1	-14
349.946	1	1
351.143	1	5
352.340	1	-3
353.537	1	0
354.734	1	-2
355.931	1	-8
357.127	1	-1
358.324	1	-8
359.521	1	7
360.718	1	9
361.914	1	6
363.111	1	5
364.308	1	-4
365.504	1	8
366.701	1	6
367.897	1	2
369.093	1	-1
370.290	1	9
371.486	1	16
372.682	1	14
373.879	1	-4
375.075	1	-4
376.271	1	5
377.467	1	0
378.663	1	2
379.859	1	4
381.055	1	5
382.251	1	-4
383.447	1	-3
384.643	1	11
385.839	1	-7
387.035	1	2
388.230	1	9
389.426	1	2
390.622	1	-1
391.817	1	5
393.013	1	-3
394.208	1	-1
395.404	1	-2
396.599	1	-2
397.795	1	-2
398.990	1	1
400.186	1	-5
401.381	1	-1
402.576	1	2
403.771	1	6
404.967	1	-3
406.162	1	4
407.357	1	-8
408.552	1	-3
409.747	1	-2
410.942	1	3
412.137	1	6
413.332	1	1
414.526	1	-4
415.721	1	0
416.916	1	-8
418.111	1	0
419.305	1	-5
420.500	1	2
421.695	1	1
422.889	1	-4
424.084	1	-2
425.278	1	10
426.472	1	-3
427.667	1	-1
428.861	1	-1
430.055	1	-3
431.250	1	-13
432.444	1	0
433.638	1	1
434.832	1	-8
436.026	1	0
437.220	1	4
438.414	1	-5
439.608	1	0
440.802	1	0
441.996	1	-6
443.190	1	-2
444.384	1	-2
445.578	1	-8
446.771	1	6
447.965	1	3
449.159	1	-7
450.352	1	-3
451.546	1	9
452.739	1	8
453.933	1	3
455.126	1	-10
456.320	1	0
457.513	1	12
458.706	1	-2
459.899	1	-2
461.093	1	-1
462.286	1	-3
463.479	1	-5
464.672	1	-5
465.865	1	-3
467.058	1	6
468.251	1	5
469.444	1	-10
470.637	1	-6
471.830	1	-9
473.023	1	5
474.215	1	11
475.408	1	0
476.601	1	-3
477.793	1	-7
478.986	1	-2
480.179	1	7
481.371	1	-7
482.564	1	9
483.756	1	6
484.948	1	-2
486.141	1	-3
487.333	1	2
488.525	1	0
489.718	1	1
490.910	1	7
492.102	1	-6
493.294	1	-10
494.486	1	3
495.678	1	-1
496.870	1	1
498.062	1	2
499.254	1	-1
500.446	1	-7
501.638	1	-4
502.829	1	5
504.021	1	0
505.213	1	11
506.404	1	4
507.596	1	0
508.788	1	18
509.979	1	-3
511.171	1	-5
512.362	1	-10
513.553	1	-12
514.745	1	-4
515.936	1	-1
517.127	1	-1
518.319	1	8
519.510	1	-4
520.701	1	4
521.892	1	1
523.083	1	-3
524.274	1	-6
525.465	1	9
526.656	1	-2
527.847	1	-2
529.038	1	-7
530.229	1	4
531.419	1	2
532.610	1	3
533.801	1	12
534.991	1	-2
536.182	1	-3
537.373	1	5
538.563	1	0
539.754	1	2
540.944	1	-3
542.134	1	-2
543.325	1	2
544.515	1	-3
545.705	1	-10
546.896	1	-2
548.086	1	-7
549.276	1	-1
550.466	1	-4
551.656	1	-2
552.846	1	5
554.036	1	-2
555.226	1	-14
556.416	1	-2
557.606	1	-1
558.796	1	-3
559.986	1	-2
561.175	1	2
562.365	1	8
563.555	1	-1
564.744	1	0
565.934	1	9
567.123	1	5
568.313	1	3
569.502	1	4
570.692	1	0
571.881	1	11
573.070	1	9
574.260	1	13
575.449	1	-9
576.638	1	-9
577.827	1	-6
579.016	1	13
580.205	1	0
581.394	1	-8
582.583	1	5
583.772	1	-3
584.961	1	2
586.150	1	2
587.339	1	2
588.528	1	5
589.717	1	3
590.905	1	1
592.094	1	-2
593.283	1	-6
594.471	1	4
595.660	1	2
596.848	1	-7
598.037	1	-8
599.225	1	-8
600.413	1	3
601.602	1	9
602.790	1	4
603.978	1	-1
605.166	1	4
606.355	1	-3
607.543	1	1
608.731	1	-1
609.919	1	10
611.107	1	4
612.295	1	-2
613.483	1	-5
614.671	1	1
615.858	1	-5
617.046	1	0
618.234	1	-7
619.422	1	-4
620.609	1	3
621.797	1	-8
622.985	1	-1
624.172	1	-4
625.360	1	-1
626.547	1	3
627.735	1	10
628.922	1	5
630.109	1	-11
631.297	1	-2
632.484	1	3
633.671	1	-1
634.858	1	-4
636.045	1	13
637.232	1	0
638.419	1	4
639.606	1	0
640.793	1	3
641.980	1	6
643.167	1	-1
644.354	1	-1
645.541	1	-2
646.728	1	7
647.914	1	-6
649.101	1	-6
650.288	1	10
651.474	1	-4
652.661	1	4
653.847	1	1
655.034	1	5
656.220	1	-7
657.406	1	5
658.593	1	9
659.779	1	4
660.965	1	10
662.152	1	-3
663.338	1	1
664.524	1	-3
665.710	1	-3
666.896	1	-7
668.082	1	2
669.268	1	-4
670.454	1	-4
671.640	1	-2
672.826	1	-4
674.011	1	-4
675.197	1	-4
676.383	1	-3
677.569	1	-2
678.754	1	-13
679.940	1	-1
681.125	1	5
682.311	1	-4
683.496	1	7
684.682	1	-5
685.867	1	-7
687.053	1	-4
688.238	1	-1
688.746	1	-1