File: Data/GaN_200K_800ms/GaN_sample F_spot 12_UVVIS_200 K_200um_800 ms 2x2mm1_177.txt
340.368	1	3
341.565	1	-12
342.763	1	-3
343.960	1	3
345.157	1	-8
346.354	1	6
347.552	1	1
348.749	1	-5
349.946	1	-5
351.143	1	1
352.340	1	6
353.537	1	1
354.734	1	11
355.931	1	4
357.127	1	2
358.324	1	10
359.521	1	9
360.718	1	13
361.914	1	10
363.111	1	8
364.308	1	6
365.504	1	22
366.701	1	30
367.897	1	38
369.093	1	36
370.290	1	28
371.486	1	50
372.682	1	33
373.879	1	32
375.075	1	29
376.271	1	34
377.467	1	21
378.663	1	12
379.859	1	13
381.055	1	10
382.251	1	5
383.447	1	10
384.643	1	13
385.839	1	7
387.035	1	6
388.230	1	13
389.426	1	2
390.622	1	3
391.817	1	6
393.013	1	-5
394.208	1	-2
395.404	1	2
396.599	1	5
397.795	1	4
398.990	1	0
400.186	1	-3
401.381	1	1
402.576	1	7
403.771	1	3
404.967	1	10
406.162	1	3
407.357	1	-3
408.552	1	-4
409.747	1	-2
410.942	1	6
412.137	1	0
413.332	1	8
414.526	1	-1
415.721	1	4
416.916	1	-5
418.111	1	8
419.305	1	8
420.500	1	-2
421.695	1	-4
422.889	1	-10
424.084	1	0
425.278	1	15
426.472	1	-11
427.667	1	-6
428.861	1	-4
430.055	1	7
431.250	1	3
432.444	1	12
433.638	1	-3
434.832	1	7
436.026	1	2
437.220	1	6
438.414	1	-7
439.608	1	-4
440.802	1	2
441.996	1	12
443.190	1	8
444.384	1	-9
445.578	1	-7
446.771	1	1
447.965	1	0
449.159	1	4
450.352	1	1
451.546	1	6
452.739	1	-2
453.933	1	3
455.126	1	-5
456.320	1	9
457.513	1	6
458.706	1	3
459.899	1	-1
461.093	1	-4
462.286	1	9
463.479	1	4
464.672	1	-3
465.865	1	4
467.058	1	-5
468.251	1	7
469.444	1	-8
470.637	1	-2
471.830	1	1
473.023	1	8
474.215	1	10
475.408	1	3
476.601	1	-1
477.793	1	-10
478.986	1	5
480.179	1	3
481.371	1	4
482.564	1	10
483.756	1	9
484.948	1	-5
486.141	1	-3
487.333	1	-2
488.525	1	-1
489.718	1	-5
490.910	1	-2
492.102	1	-1
493.294	1	-11
494.486	1	9
495.678	1	2
496.870	1	11
498.062	1	-1
499.254	1	0
500.446	1	-6
501.638	1	-3
502.829	1	4
504.021	1	3
505.213	1	8
506.404	1	4
507.596	1	-1
508.788	1	17
509.979	1	-1
511.171	1	-8
512.362	1	-7
513.553	1	1
514.745	1	-7
515.936	1	7
517.127	1	-1
518.319	1	2
519.510	1	1
520.701	1	9
521.892	1	6
523.083	1	4
524.274	1	5
525.465	1	4
526.656	1	6
527.847	1	-1
529.038	1	3
530.229	1	8
531.419	1	4
532.610	1	-4
533.801	1	16
534.991	1	-2
536.182	1	4
537.373	1	1
538.563	1	6
539.754	1	4
540.944	1	5
542.134	1	5
543.325	1	-2
544.515	1	-3
545.705	1	4
546.896	1	4
548.086	1	0
549.276	1	3
550.466	1	3
551.656	1	8
552.846	1	1
554.036	1	3
555.226	1	-5
556.416	1	4
557.606	1	8
558.796	1	3
559.986	1	-2
561.175	1	5
562.365	1	1
563.555	1	-6
564.744	1	12
565.934	1	18
567.123	1	3
568.313	1	14
569.502	1	-2
570.692	1	11
571.881	1	13
573.070	1	2
574.260	1	16
575.449	1	-7
576.638	1	3
577.827	1	-5
579.016	1	7
580.205	1	8
581.394	1	0
582.583	1	5
583.772	1	-1
584.961	1	6
586.150	1	-4
587.339	1	9
588.528	1	4
589.717	1	11
590.905	1	-1
592.094	1	2
593.283	1	8
594.471	1	7
595.660	1	-1
596.848	1	5
598.037	1	-8
599.225	1	-6
600.413	1	14
601.602	1	12
602.790	1	5
603.978	1	5
605.166	1	5
606.355	1	2
607.543	1	-2
608.731	1	4
609.919	1	14
611.107	1	-4
612.295	1	-1
613.483	1	7
614.671	1	8
615.858	1	5
617.046	1	-1
618.234	1	-5
619.422	1	-7
620.609	1	2
621.797	1	-4
622.985	1	-4
624.172	1	8
625.360	1	-2
626.547	1	2
627.735	1	4
628.922	1	-3
630.109	1	-13
631.297	1	-2
632.484	1	-2
633.671	1	-6
634.858	1	0
636.045	1	9
637.232	1	-5
638.419	1	-1
639.606	1	-1
640.793	1	20
641.980	1	7
643.167	1	-1
644.354	1	2
645.541	1	-7
646.728	1	0
647.914	1	-4
649.101	1	3
650.288	1	-1
651.474	1	-9
652.661	1	-8
653.847	1	11
655.034	1	3
656.220	1	-12
657.406	1	11
658.593	1	2
659.779	1	-1
660.965	1	5
662.152	1	6
663.338	1	15
664.524	1	5
665.710	1	-1
666.896	1	2
668.082	1	11
669.268	1	-2
670.454	1	8
671.640	1	5
672.826	1	0
674.011	1	-1
675.197	1	-4
676.383	1	6
677.569	1	1
678.754	1	3
679.940	1	-1
681.125	1	4
682.311	1	6
683.496	1	8
684.682	1	-6
685.867	1	-1
687.053	1	8
688.238	1	1
688.746	1	0