File: Data/GaN_200K_800ms/GaN_sample F_spot 12_UVVIS_200 K_200um_800 ms 2x2mm1_335.txt
340.368	1	9
341.565	1	-5
342.763	1	1
343.960	1	3
345.157	1	-10
346.354	1	-3
347.552	1	-11
348.749	1	-3
349.946	1	-9
351.143	1	-3
352.340	1	6
353.537	1	-2
354.734	1	-2
355.931	1	-3
357.127	1	-2
358.324	1	-2
359.521	1	11
360.718	1	2
361.914	1	6
363.111	1	8
364.308	1	-8
365.504	1	5
366.701	1	8
367.897	1	17
369.093	1	5
370.290	1	8
371.486	1	15
372.682	1	13
373.879	1	11
375.075	1	2
376.271	1	5
377.467	1	16
378.663	1	-6
379.859	1	6
381.055	1	15
382.251	1	-2
383.447	1	-7
384.643	1	8
385.839	1	-2
387.035	1	-1
388.230	1	5
389.426	1	1
390.622	1	5
391.817	1	4
393.013	1	-7
394.208	1	1
395.404	1	-2
396.599	1	-3
397.795	1	2
398.990	1	-3
400.186	1	7
401.381	1	-5
402.576	1	-5
403.771	1	7
404.967	1	1
406.162	1	7
407.357	1	1
408.552	1	-9
409.747	1	-9
410.942	1	4
412.137	1	2
413.332	1	2
414.526	1	-5
415.721	1	0
416.916	1	-9
418.111	1	2
419.305	1	4
420.500	1	1
421.695	1	-5
422.889	1	-3
424.084	1	-1
425.278	1	12
426.472	1	-1
427.667	1	4
428.861	1	-3
430.055	1	3
431.250	1	-8
432.444	1	10
433.638	1	-7
434.832	1	1
436.026	1	7
437.220	1	1
438.414	1	-2
439.608	1	-10
440.802	1	-9
441.996	1	4
443.190	1	1
444.384	1	-8
445.578	1	-13
446.771	1	12
447.965	1	4
449.159	1	-9
450.352	1	1
451.546	1	-3
452.739	1	1
453.933	1	-1
455.126	1	-8
456.320	1	-9
457.513	1	6
458.706	1	-1
459.899	1	-5
461.093	1	2
462.286	1	-6
463.479	1	-3
464.672	1	0
465.865	1	-2
467.058	1	-2
468.251	1	-1
469.444	1	4
470.637	1	-4
471.830	1	-2
473.023	1	-1
474.215	1	9
475.408	1	-8
476.601	1	0
477.793	1	9
478.986	1	-2
480.179	1	-3
481.371	1	-3
482.564	1	2
483.756	1	3
484.948	1	-9
486.141	1	-7
487.333	1	-3
488.525	1	-6
489.718	1	-1
490.910	1	-4
492.102	1	-6
493.294	1	1
494.486	1	1
495.678	1	-11
496.870	1	4
498.062	1	1
499.254	1	3
500.446	1	-8
501.638	1	-2
502.829	1	-3
504.021	1	4
505.213	1	7
506.404	1	3
507.596	1	-5
508.788	1	14
509.979	1	-3
511.171	1	-13
512.362	1	-7
513.553	1	-10
514.745	1	-8
515.936	1	1
517.127	1	-6
518.319	1	-1
519.510	1	-10
520.701	1	1
521.892	1	10
523.083	1	-6
524.274	1	0
525.465	1	7
526.656	1	-5
527.847	1	0
529.038	1	2
530.229	1	0
531.419	1	9
532.610	1	-2
533.801	1	6
534.991	1	5
536.182	1	3
537.373	1	6
538.563	1	3
539.754	1	5
540.944	1	-5
542.134	1	-2
543.325	1	-7
544.515	1	2
545.705	1	-4
546.896	1	3
548.086	1	3
549.276	1	-5
550.466	1	-8
551.656	1	0
552.846	1	-3
554.036	1	-7
555.226	1	7
556.416	1	-5
557.606	1	10
558.796	1	1
559.986	1	-11
561.175	1	0
562.365	1	0
563.555	1	2
564.744	1	1
565.934	1	11
567.123	1	11
568.313	1	7
569.502	1	6
570.692	1	-1
571.881	1	10
573.070	1	1
574.260	1	12
575.449	1	-5
576.638	1	-8
577.827	1	-3
579.016	1	7
580.205	1	-1
581.394	1	-2
582.583	1	15
583.772	1	4
584.961	1	-2
586.150	1	2
587.339	1	4
588.528	1	-1
589.717	1	1
590.905	1	0
592.094	1	1
593.283	1	-6
594.471	1	8
595.660	1	6
596.848	1	5
598.037	1	-9
599.225	1	-3
600.413	1	14
601.602	1	6
602.790	1	1
603.978	1	-1
605.166	1	-1
606.355	1	1
607.543	1	-6
608.731	1	-11
609.919	1	8
611.107	1	-2
612.295	1	-6
613.483	1	4
614.671	1	6
615.858	1	-3
617.046	1	4
618.234	1	5
619.422	1	-11
620.609	1	4
621.797	1	-7
622.985	1	-2
624.172	1	-2
625.360	1	1
626.547	1	4
627.735	1	3
628.922	1	8
630.109	1	-9
631.297	1	6
632.484	1	-4
633.671	1	2
634.858	1	4
636.045	1	4
637.232	1	0
638.419	1	-1
639.606	1	-5
640.793	1	12
641.980	1	3
643.167	1	-6
644.354	1	-7
645.541	1	7
646.728	1	5
647.914	1	0
649.101	1	2
650.288	1	7
651.474	1	-7
652.661	1	-5
653.847	1	12
655.034	1	11
656.220	1	-5
657.406	1	5
658.593	1	9
659.779	1	-5
660.965	1	12
662.152	1	7
663.338	1	5
664.524	1	3
665.710	1	1
666.896	1	-11
668.082	1	2
669.268	1	-7
670.454	1	0
671.640	1	5
672.826	1	-5
674.011	1	1
675.197	1	-10
676.383	1	-10
677.569	1	-10
678.754	1	-9
679.940	1	-6
681.125	1	2
682.311	1	4
683.496	1	0
684.682	1	-3
685.867	1	-8
687.053	1	4
688.238	1	5
688.746	1	2