File: Data/GaN_200K_800ms/GaN_sample F_spot 12_UVVIS_200 K_200um_800 ms 2x2mm1_123.txt
340.368	1	8
341.565	1	-3
342.763	1	14
343.960	1	11
345.157	1	-2
346.354	1	7
347.552	1	8
348.749	1	-2
349.946	1	-1
351.143	1	0
352.340	1	9
353.537	1	6
354.734	1	11
355.931	1	-2
357.127	1	8
358.324	1	20
359.521	1	11
360.718	1	16
361.914	1	18
363.111	1	18
364.308	1	32
365.504	1	37
366.701	1	54
367.897	1	63
369.093	1	66
370.290	1	55
371.486	1	71
372.682	1	70
373.879	1	44
375.075	1	43
376.271	1	37
377.467	1	42
378.663	1	32
379.859	1	24
381.055	1	25
382.251	1	13
383.447	1	11
384.643	1	22
385.839	1	13
387.035	1	14
388.230	1	9
389.426	1	4
390.622	1	5
391.817	1	10
393.013	1	1
394.208	1	1
395.404	1	-2
396.599	1	1
397.795	1	3
398.990	1	13
400.186	1	3
401.381	1	-6
402.576	1	0
403.771	1	5
404.967	1	13
406.162	1	8
407.357	1	3
408.552	1	3
409.747	1	-1
410.942	1	13
412.137	1	3
413.332	1	8
414.526	1	-5
415.721	1	-1
416.916	1	6
418.111	1	2
419.305	1	2
420.500	1	-8
421.695	1	-9
422.889	1	-7
424.084	1	3
425.278	1	12
426.472	1	3
427.667	1	10
428.861	1	-5
430.055	1	3
431.250	1	1
432.444	1	6
433.638	1	2
434.832	1	-1
436.026	1	7
437.220	1	12
438.414	1	-7
439.608	1	-4
440.802	1	-3
441.996	1	10
443.190	1	3
444.384	1	-4
445.578	1	-7
446.771	1	5
447.965	1	3
449.159	1	0
450.352	1	-1
451.546	1	0
452.739	1	-1
453.933	1	-1
455.126	1	-6
456.320	1	-7
457.513	1	-2
458.706	1	4
459.899	1	3
461.093	1	2
462.286	1	-1
463.479	1	3
464.672	1	1
465.865	1	-5
467.058	1	10
468.251	1	2
469.444	1	-2
470.637	1	4
471.830	1	1
473.023	1	1
474.215	1	16
475.408	1	1
476.601	1	4
477.793	1	3
478.986	1	0
480.179	1	11
481.371	1	1
482.564	1	3
483.756	1	10
484.948	1	-10
486.141	1	-6
487.333	1	8
488.525	1	3
489.718	1	12
490.910	1	11
492.102	1	-1
493.294	1	7
494.486	1	5
495.678	1	-2
496.870	1	10
498.062	1	9
499.254	1	0
500.446	1	-4
501.638	1	0
502.829	1	2
504.021	1	-3
505.213	1	13
506.404	1	8
507.596	1	-1
508.788	1	24
509.979	1	5
511.171	1	-8
512.362	1	0
513.553	1	-9
514.745	1	-3
515.936	1	4
517.127	1	1
518.319	1	-3
519.510	1	8
520.701	1	10
521.892	1	6
523.083	1	3
524.274	1	6
525.465	1	14
526.656	1	7
527.847	1	9
529.038	1	3
530.229	1	6
531.419	1	8
532.610	1	-5
533.801	1	13
534.991	1	8
536.182	1	5
537.373	1	3
538.563	1	8
539.754	1	16
540.944	1	4
542.134	1	10
543.325	1	11
544.515	1	7
545.705	1	3
546.896	1	5
548.086	1	-2
549.276	1	13
550.466	1	4
551.656	1	10
552.846	1	11
554.036	1	3
555.226	1	-1
556.416	1	8
557.606	1	12
558.796	1	9
559.986	1	6
561.175	1	13
562.365	1	16
563.555	1	-3
564.744	1	13
565.934	1	17
567.123	1	14
568.313	1	9
569.502	1	1
570.692	1	14
571.881	1	14
573.070	1	13
574.260	1	13
575.449	1	-5
576.638	1	6
577.827	1	7
579.016	1	20
580.205	1	-4
581.394	1	8
582.583	1	20
583.772	1	12
584.961	1	9
586.150	1	7
587.339	1	17
588.528	1	7
589.717	1	-3
590.905	1	0
592.094	1	-1
593.283	1	4
594.471	1	12
595.660	1	2
596.848	1	-5
598.037	1	-4
599.225	1	-4
600.413	1	15
601.602	1	11
602.790	1	8
603.978	1	10
605.166	1	13
606.355	1	10
607.543	1	3
608.731	1	5
609.919	1	9
611.107	1	-1
612.295	1	7
613.483	1	9
614.671	1	10
615.858	1	13
617.046	1	6
618.234	1	-4
619.422	1	-6
620.609	1	7
621.797	1	4
622.985	1	4
624.172	1	-2
625.360	1	9
626.547	1	1
627.735	1	8
628.922	1	15
630.109	1	-12
631.297	1	-1
632.484	1	1
633.671	1	0
634.858	1	-3
636.045	1	13
637.232	1	0
638.419	1	-2
639.606	1	7
640.793	1	14
641.980	1	3
643.167	1	4
644.354	1	-2
645.541	1	2
646.728	1	2
647.914	1	-4
649.101	1	-3
650.288	1	8
651.474	1	3
652.661	1	-2
653.847	1	8
655.034	1	7
656.220	1	-8
657.406	1	6
658.593	1	7
659.779	1	6
660.965	1	7
662.152	1	4
663.338	1	10
664.524	1	8
665.710	1	0
666.896	1	3
668.082	1	8
669.268	1	-3
670.454	1	8
671.640	1	8
672.826	1	3
674.011	1	4
675.197	1	4
676.383	1	6
677.569	1	-4
678.754	1	-3
679.940	1	0
681.125	1	0
682.311	1	7
683.496	1	6
684.682	1	-2
685.867	1	-11
687.053	1	-1
688.238	1	3
688.746	1	11