File: Data/GaN_200K_800ms/GaN_sample F_spot 12_UVVIS_200 K_200um_800 ms 2x2mm1_418.txt
340.368	1	-5
341.565	1	-5
342.763	1	-4
343.960	1	5
345.157	1	-10
346.354	1	4
347.552	1	-9
348.749	1	-12
349.946	1	-10
351.143	1	0
352.340	1	0
353.537	1	1
354.734	1	-1
355.931	1	-4
357.127	1	-5
358.324	1	0
359.521	1	7
360.718	1	1
361.914	1	-2
363.111	1	-3
364.308	1	3
365.504	1	13
366.701	1	1
367.897	1	4
369.093	1	3
370.290	1	10
371.486	1	15
372.682	1	13
373.879	1	7
375.075	1	17
376.271	1	5
377.467	1	-1
378.663	1	-5
379.859	1	2
381.055	1	12
382.251	1	-9
383.447	1	-8
384.643	1	7
385.839	1	-3
387.035	1	7
388.230	1	10
389.426	1	-3
390.622	1	-2
391.817	1	9
393.013	1	-1
394.208	1	-4
395.404	1	-9
396.599	1	-4
397.795	1	-2
398.990	1	6
400.186	1	1
401.381	1	-10
402.576	1	-6
403.771	1	5
404.967	1	4
406.162	1	2
407.357	1	4
408.552	1	0
409.747	1	-1
410.942	1	3
412.137	1	9
413.332	1	0
414.526	1	-4
415.721	1	0
416.916	1	-6
418.111	1	6
419.305	1	5
420.500	1	-3
421.695	1	-6
422.889	1	-11
424.084	1	-10
425.278	1	11
426.472	1	2
427.667	1	0
428.861	1	-1
430.055	1	10
431.250	1	-9
432.444	1	13
433.638	1	3
434.832	1	2
436.026	1	5
437.220	1	0
438.414	1	-13
439.608	1	-10
440.802	1	-9
441.996	1	-1
443.190	1	-3
444.384	1	-10
445.578	1	-14
446.771	1	10
447.965	1	-1
449.159	1	-7
450.352	1	-5
451.546	1	8
452.739	1	2
453.933	1	-3
455.126	1	-9
456.320	1	-7
457.513	1	8
458.706	1	-5
459.899	1	-5
461.093	1	2
462.286	1	-4
463.479	1	-5
464.672	1	-7
465.865	1	3
467.058	1	5
468.251	1	-4
469.444	1	-7
470.637	1	-2
471.830	1	-4
473.023	1	6
474.215	1	3
475.408	1	6
476.601	1	0
477.793	1	-9
478.986	1	-1
480.179	1	2
481.371	1	3
482.564	1	-4
483.756	1	1
484.948	1	-15
486.141	1	-9
487.333	1	-2
488.525	1	-4
489.718	1	-4
490.910	1	-9
492.102	1	-3
493.294	1	0
494.486	1	5
495.678	1	3
496.870	1	-5
498.062	1	1
499.254	1	2
500.446	1	-4
501.638	1	-5
502.829	1	-6
504.021	1	1
505.213	1	0
506.404	1	-1
507.596	1	2
508.788	1	7
509.979	1	2
511.171	1	-4
512.362	1	-5
513.553	1	-9
514.745	1	-4
515.936	1	4
517.127	1	-4
518.319	1	0
519.510	1	1
520.701	1	-4
521.892	1	14
523.083	1	1
524.274	1	-6
525.465	1	7
526.656	1	2
527.847	1	2
529.038	1	0
530.229	1	-6
531.419	1	-3
532.610	1	-4
533.801	1	14
534.991	1	-1
536.182	1	-2
537.373	1	4
538.563	1	-1
539.754	1	2
540.944	1	-4
542.134	1	3
543.325	1	-3
544.515	1	0
545.705	1	-2
546.896	1	-8
548.086	1	1
549.276	1	-10
550.466	1	7
551.656	1	0
552.846	1	-8
554.036	1	2
555.226	1	-13
556.416	1	1
557.606	1	0
558.796	1	-6
559.986	1	-6
561.175	1	6
562.365	1	6
563.555	1	-8
564.744	1	-8
565.934	1	4
567.123	1	4
568.313	1	1
569.502	1	-1
570.692	1	1
571.881	1	15
573.070	1	8
574.260	1	15
575.449	1	-5
576.638	1	-7
577.827	1	-2
579.016	1	1
580.205	1	-2
581.394	1	-5
582.583	1	15
583.772	1	5
584.961	1	8
586.150	1	1
587.339	1	-7
588.528	1	-5
589.717	1	6
590.905	1	2
592.094	1	-1
593.283	1	1
594.471	1	5
595.660	1	-1
596.848	1	4
598.037	1	2
599.225	1	-5
600.413	1	2
601.602	1	18
602.790	1	4
603.978	1	1
605.166	1	-1
606.355	1	6
607.543	1	-3
608.731	1	3
609.919	1	9
611.107	1	1
612.295	1	-6
613.483	1	-4
614.671	1	2
615.858	1	5
617.046	1	-4
618.234	1	0
619.422	1	-9
620.609	1	-7
621.797	1	-2
622.985	1	-1
624.172	1	1
625.360	1	-6
626.547	1	-4
627.735	1	-6
628.922	1	10
630.109	1	-8
631.297	1	-6
632.484	1	-6
633.671	1	-15
634.858	1	1
636.045	1	-3
637.232	1	-1
638.419	1	2
639.606	1	-3
640.793	1	9
641.980	1	8
643.167	1	-7
644.354	1	-1
645.541	1	0
646.728	1	-5
647.914	1	-9
649.101	1	-10
650.288	1	-1
651.474	1	1
652.661	1	-5
653.847	1	-1
655.034	1	9
656.220	1	-10
657.406	1	-4
658.593	1	7
659.779	1	0
660.965	1	8
662.152	1	0
663.338	1	11
664.524	1	6
665.710	1	1
666.896	1	-1
668.082	1	-4
669.268	1	-7
670.454	1	0
671.640	1	0
672.826	1	-6
674.011	1	3
675.197	1	-4
676.383	1	0
677.569	1	-1
678.754	1	-4
679.940	1	4
681.125	1	-1
682.311	1	4
683.496	1	-5
684.682	1	-11
685.867	1	-9
687.053	1	1
688.238	1	5
688.746	1	2