File: Data/GaN_200K_800ms/GaN_sample F_spot 12_UVVIS_200 K_200um_800 ms 2x2mm1_408.txt
340.368	1	5
341.565	1	-8
342.763	1	4
343.960	1	-1
345.157	1	-11
346.354	1	-2
347.552	1	-7
348.749	1	-8
349.946	1	-10
351.143	1	-6
352.340	1	0
353.537	1	-6
354.734	1	7
355.931	1	-3
357.127	1	6
358.324	1	-4
359.521	1	5
360.718	1	5
361.914	1	4
363.111	1	-8
364.308	1	0
365.504	1	9
366.701	1	3
367.897	1	2
369.093	1	7
370.290	1	8
371.486	1	18
372.682	1	10
373.879	1	0
375.075	1	10
376.271	1	21
377.467	1	-4
378.663	1	-3
379.859	1	4
381.055	1	7
382.251	1	-1
383.447	1	1
384.643	1	23
385.839	1	4
387.035	1	-2
388.230	1	-3
389.426	1	-4
390.622	1	-8
391.817	1	3
393.013	1	-1
394.208	1	2
395.404	1	-2
396.599	1	-5
397.795	1	-2
398.990	1	-3
400.186	1	-10
401.381	1	-7
402.576	1	-1
403.771	1	-3
404.967	1	3
406.162	1	3
407.357	1	-4
408.552	1	-2
409.747	1	-2
410.942	1	2
412.137	1	1
413.332	1	0
414.526	1	-2
415.721	1	-1
416.916	1	-11
418.111	1	4
419.305	1	3
420.500	1	-6
421.695	1	-14
422.889	1	-8
424.084	1	3
425.278	1	12
426.472	1	6
427.667	1	3
428.861	1	1
430.055	1	2
431.250	1	-3
432.444	1	6
433.638	1	0
434.832	1	5
436.026	1	5
437.220	1	8
438.414	1	-9
439.608	1	-7
440.802	1	-2
441.996	1	-2
443.190	1	1
444.384	1	-15
445.578	1	-3
446.771	1	11
447.965	1	1
449.159	1	-11
450.352	1	0
451.546	1	5
452.739	1	4
453.933	1	-2
455.126	1	-4
456.320	1	-1
457.513	1	4
458.706	1	1
459.899	1	2
461.093	1	0
462.286	1	-2
463.479	1	3
464.672	1	-3
465.865	1	-7
467.058	1	7
468.251	1	-6
469.444	1	-7
470.637	1	1
471.830	1	-1
473.023	1	-3
474.215	1	-2
475.408	1	-4
476.601	1	-3
477.793	1	0
478.986	1	-4
480.179	1	-7
481.371	1	-1
482.564	1	-4
483.756	1	-2
484.948	1	-5
486.141	1	2
487.333	1	5
488.525	1	-6
489.718	1	4
490.910	1	-1
492.102	1	-4
493.294	1	-7
494.486	1	8
495.678	1	-7
496.870	1	0
498.062	1	-1
499.254	1	-7
500.446	1	-4
501.638	1	-3
502.829	1	2
504.021	1	0
505.213	1	1
506.404	1	5
507.596	1	2
508.788	1	16
509.979	1	-3
511.171	1	-5
512.362	1	-7
513.553	1	-7
514.745	1	4
515.936	1	-4
517.127	1	-3
518.319	1	0
519.510	1	-7
520.701	1	3
521.892	1	-1
523.083	1	-6
524.274	1	-3
525.465	1	5
526.656	1	9
527.847	1	0
529.038	1	2
530.229	1	5
531.419	1	-6
532.610	1	-2
533.801	1	12
534.991	1	0
536.182	1	-4
537.373	1	7
538.563	1	6
539.754	1	0
540.944	1	-5
542.134	1	3
543.325	1	-5
544.515	1	-5
545.705	1	-3
546.896	1	-2
548.086	1	-2
549.276	1	4
550.466	1	-4
551.656	1	1
552.846	1	-2
554.036	1	-6
555.226	1	-3
556.416	1	-5
557.606	1	2
558.796	1	-1
559.986	1	-4
561.175	1	11
562.365	1	4
563.555	1	-9
564.744	1	-4
565.934	1	2
567.123	1	5
568.313	1	2
569.502	1	-3
570.692	1	7
571.881	1	13
573.070	1	2
574.260	1	14
575.449	1	-7
576.638	1	-6
577.827	1	-3
579.016	1	8
580.205	1	-4
581.394	1	-7
582.583	1	10
583.772	1	8
584.961	1	-5
586.150	1	-10
587.339	1	2
588.528	1	1
589.717	1	-3
590.905	1	-5
592.094	1	-1
593.283	1	-10
594.471	1	2
595.660	1	4
596.848	1	-1
598.037	1	-1
599.225	1	-12
600.413	1	13
601.602	1	13
602.790	1	4
603.978	1	-7
605.166	1	-2
606.355	1	-1
607.543	1	0
608.731	1	0
609.919	1	1
611.107	1	-1
612.295	1	-1
613.483	1	-4
614.671	1	-5
615.858	1	-3
617.046	1	5
618.234	1	-2
619.422	1	-14
620.609	1	-3
621.797	1	2
622.985	1	-9
624.172	1	3
625.360	1	-2
626.547	1	-2
627.735	1	2
628.922	1	2
630.109	1	-9
631.297	1	-2
632.484	1	2
633.671	1	-7
634.858	1	-8
636.045	1	4
637.232	1	-8
638.419	1	-7
639.606	1	11
640.793	1	12
641.980	1	4
643.167	1	-8
644.354	1	-4
645.541	1	9
646.728	1	2
647.914	1	-1
649.101	1	-5
650.288	1	-4
651.474	1	-7
652.661	1	-7
653.847	1	6
655.034	1	0
656.220	1	-8
657.406	1	6
658.593	1	3
659.779	1	7
660.965	1	6
662.152	1	5
663.338	1	3
664.524	1	-8
665.710	1	-5
666.896	1	1
668.082	1	-1
669.268	1	-3
670.454	1	5
671.640	1	3
672.826	1	-4
674.011	1	0
675.197	1	-8
676.383	1	-2
677.569	1	-4
678.754	1	-8
679.940	1	-7
681.125	1	0
682.311	1	5
683.496	1	7
684.682	1	-6
685.867	1	1
687.053	1	-6
688.238	1	7
688.746	1	0