File: Data/GaN_200K_800ms/GaN_sample F_spot 12_UVVIS_200 K_200um_800 ms 2x2mm1_445.txt
340.368	1	0
341.565	1	-11
342.763	1	-3
343.960	1	0
345.157	1	-1
346.354	1	13
347.552	1	-5
348.749	1	-8
349.946	1	-9
351.143	1	-7
352.340	1	3
353.537	1	4
354.734	1	-3
355.931	1	4
357.127	1	6
358.324	1	0
359.521	1	14
360.718	1	7
361.914	1	0
363.111	1	2
364.308	1	-6
365.504	1	9
366.701	1	-1
367.897	1	3
369.093	1	10
370.290	1	5
371.486	1	13
372.682	1	7
373.879	1	-5
375.075	1	2
376.271	1	12
377.467	1	13
378.663	1	-10
379.859	1	-3
381.055	1	12
382.251	1	-5
383.447	1	-2
384.643	1	4
385.839	1	-3
387.035	1	-7
388.230	1	9
389.426	1	7
390.622	1	-11
391.817	1	2
393.013	1	-8
394.208	1	-10
395.404	1	-4
396.599	1	-12
397.795	1	-6
398.990	1	0
400.186	1	4
401.381	1	-10
402.576	1	0
403.771	1	-9
404.967	1	-2
406.162	1	1
407.357	1	1
408.552	1	-3
409.747	1	2
410.942	1	6
412.137	1	-1
413.332	1	5
414.526	1	-8
415.721	1	0
416.916	1	-6
418.111	1	1
419.305	1	-5
420.500	1	-8
421.695	1	-5
422.889	1	-8
424.084	1	-5
425.278	1	11
426.472	1	-4
427.667	1	2
428.861	1	-6
430.055	1	-1
431.250	1	-7
432.444	1	5
433.638	1	-2
434.832	1	-4
436.026	1	4
437.220	1	0
438.414	1	-10
439.608	1	-6
440.802	1	0
441.996	1	-2
443.190	1	3
444.384	1	0
445.578	1	-7
446.771	1	8
447.965	1	7
449.159	1	-3
450.352	1	1
451.546	1	3
452.739	1	-2
453.933	1	-7
455.126	1	-12
456.320	1	-4
457.513	1	10
458.706	1	1
459.899	1	4
461.093	1	5
462.286	1	1
463.479	1	-5
464.672	1	-6
465.865	1	5
467.058	1	-8
468.251	1	5
469.444	1	-9
470.637	1	-6
471.830	1	1
473.023	1	-8
474.215	1	13
475.408	1	0
476.601	1	-2
477.793	1	5
478.986	1	-3
480.179	1	-6
481.371	1	-3
482.564	1	0
483.756	1	3
484.948	1	-9
486.141	1	1
487.333	1	-2
488.525	1	-1
489.718	1	3
490.910	1	-2
492.102	1	-7
493.294	1	-6
494.486	1	1
495.678	1	-1
496.870	1	4
498.062	1	-6
499.254	1	-6
500.446	1	-13
501.638	1	-2
502.829	1	5
504.021	1	3
505.213	1	3
506.404	1	0
507.596	1	-8
508.788	1	13
509.979	1	-5
511.171	1	-7
512.362	1	-6
513.553	1	-10
514.745	1	-7
515.936	1	-1
517.127	1	5
518.319	1	7
519.510	1	-7
520.701	1	6
521.892	1	7
523.083	1	0
524.274	1	1
525.465	1	9
526.656	1	-6
527.847	1	-3
529.038	1	10
530.229	1	-4
531.419	1	12
532.610	1	1
533.801	1	21
534.991	1	-4
536.182	1	-10
537.373	1	-9
538.563	1	11
539.754	1	1
540.944	1	-6
542.134	1	8
543.325	1	3
544.515	1	-8
545.705	1	-3
546.896	1	-1
548.086	1	4
549.276	1	-7
550.466	1	6
551.656	1	2
552.846	1	1
554.036	1	-4
555.226	1	-15
556.416	1	-3
557.606	1	1
558.796	1	-8
559.986	1	-4
561.175	1	6
562.365	1	-2
563.555	1	-1
564.744	1	3
565.934	1	3
567.123	1	6
568.313	1	5
569.502	1	4
570.692	1	-3
571.881	1	11
573.070	1	0
574.260	1	14
575.449	1	-2
576.638	1	-3
577.827	1	-6
579.016	1	14
580.205	1	-7
581.394	1	-8
582.583	1	6
583.772	1	7
584.961	1	3
586.150	1	7
587.339	1	2
588.528	1	-2
589.717	1	2
590.905	1	-10
592.094	1	6
593.283	1	1
594.471	1	-1
595.660	1	2
596.848	1	-5
598.037	1	-5
599.225	1	-7
600.413	1	6
601.602	1	3
602.790	1	-3
603.978	1	-6
605.166	1	0
606.355	1	-2
607.543	1	2
608.731	1	1
609.919	1	10
611.107	1	-3
612.295	1	0
613.483	1	8
614.671	1	7
615.858	1	-3
617.046	1	-4
618.234	1	-3
619.422	1	0
620.609	1	4
621.797	1	-3
622.985	1	0
624.172	1	-2
625.360	1	4
626.547	1	-3
627.735	1	3
628.922	1	-2
630.109	1	-11
631.297	1	8
632.484	1	-7
633.671	1	-10
634.858	1	-1
636.045	1	8
637.232	1	-3
638.419	1	-2
639.606	1	3
640.793	1	5
641.980	1	11
643.167	1	-11
644.354	1	-9
645.541	1	7
646.728	1	-7
647.914	1	-4
649.101	1	-13
650.288	1	-3
651.474	1	3
652.661	1	-4
653.847	1	2
655.034	1	-2
656.220	1	-9
657.406	1	4
658.593	1	4
659.779	1	-8
660.965	1	5
662.152	1	2
663.338	1	-1
664.524	1	2
665.710	1	-3
666.896	1	1
668.082	1	1
669.268	1	-5
670.454	1	4
671.640	1	-3
672.826	1	-8
674.011	1	1
675.197	1	-3
676.383	1	-1
677.569	1	-2
678.754	1	-1
679.940	1	-7
681.125	1	2
682.311	1	-3
683.496	1	11
684.682	1	-13
685.867	1	5
687.053	1	-3
688.238	1	4
688.746	1	1