File: Data/GaN_200K_800ms/GaN_sample F_spot 12_UVVIS_200 K_200um_800 ms 2x2mm1_368.txt
340.368	1	3
341.565	1	-9
342.763	1	11
343.960	1	1
345.157	1	-6
346.354	1	-4
347.552	1	-9
348.749	1	-2
349.946	1	-6
351.143	1	-3
352.340	1	3
353.537	1	2
354.734	1	5
355.931	1	-5
357.127	1	-1
358.324	1	-3
359.521	1	12
360.718	1	2
361.914	1	5
363.111	1	1
364.308	1	6
365.504	1	14
366.701	1	8
367.897	1	7
369.093	1	1
370.290	1	12
371.486	1	26
372.682	1	5
373.879	1	2
375.075	1	0
376.271	1	12
377.467	1	6
378.663	1	1
379.859	1	5
381.055	1	22
382.251	1	-10
383.447	1	-5
384.643	1	5
385.839	1	1
387.035	1	-7
388.230	1	8
389.426	1	1
390.622	1	1
391.817	1	3
393.013	1	3
394.208	1	-3
395.404	1	2
396.599	1	-4
397.795	1	0
398.990	1	1
400.186	1	-2
401.381	1	-4
402.576	1	3
403.771	1	6
404.967	1	-2
406.162	1	8
407.357	1	-2
408.552	1	-8
409.747	1	-1
410.942	1	1
412.137	1	8
413.332	1	2
414.526	1	-1
415.721	1	-6
416.916	1	-4
418.111	1	-3
419.305	1	9
420.500	1	0
421.695	1	2
422.889	1	-5
424.084	1	2
425.278	1	12
426.472	1	2
427.667	1	11
428.861	1	-3
430.055	1	-3
431.250	1	-7
432.444	1	6
433.638	1	0
434.832	1	4
436.026	1	3
437.220	1	-1
438.414	1	-11
439.608	1	-4
440.802	1	-6
441.996	1	3
443.190	1	0
444.384	1	-11
445.578	1	-6
446.771	1	12
447.965	1	-4
449.159	1	-11
450.352	1	2
451.546	1	3
452.739	1	-4
453.933	1	0
455.126	1	-11
456.320	1	-8
457.513	1	9
458.706	1	-1
459.899	1	-4
461.093	1	0
462.286	1	-4
463.479	1	-10
464.672	1	-1
465.865	1	-4
467.058	1	-4
468.251	1	5
469.444	1	-4
470.637	1	-5
471.830	1	0
473.023	1	3
474.215	1	11
475.408	1	-2
476.601	1	-7
477.793	1	6
478.986	1	-8
480.179	1	1
481.371	1	2
482.564	1	8
483.756	1	-1
484.948	1	-8
486.141	1	-3
487.333	1	2
488.525	1	-5
489.718	1	-3
490.910	1	-4
492.102	1	-7
493.294	1	-2
494.486	1	0
495.678	1	-6
496.870	1	-4
498.062	1	-4
499.254	1	-5
500.446	1	-15
501.638	1	6
502.829	1	-8
504.021	1	-1
505.213	1	15
506.404	1	3
507.596	1	9
508.788	1	15
509.979	1	2
511.171	1	-9
512.362	1	-6
513.553	1	-12
514.745	1	-6
515.936	1	4
517.127	1	1
518.319	1	-4
519.510	1	-3
520.701	1	3
521.892	1	1
523.083	1	-3
524.274	1	0
525.465	1	-2
526.656	1	-1
527.847	1	-3
529.038	1	10
530.229	1	-1
531.419	1	3
532.610	1	-3
533.801	1	5
534.991	1	-6
536.182	1	-2
537.373	1	1
538.563	1	12
539.754	1	3
540.944	1	-1
542.134	1	1
543.325	1	2
544.515	1	-7
545.705	1	-2
546.896	1	2
548.086	1	3
549.276	1	1
550.466	1	5
551.656	1	7
552.846	1	0
554.036	1	7
555.226	1	-14
556.416	1	-3
557.606	1	6
558.796	1	-2
559.986	1	-6
561.175	1	2
562.365	1	4
563.555	1	2
564.744	1	1
565.934	1	7
567.123	1	1
568.313	1	8
569.502	1	-4
570.692	1	5
571.881	1	8
573.070	1	10
574.260	1	5
575.449	1	-3
576.638	1	-9
577.827	1	-1
579.016	1	11
580.205	1	-4
581.394	1	-4
582.583	1	12
583.772	1	3
584.961	1	0
586.150	1	-2
587.339	1	-4
588.528	1	7
589.717	1	6
590.905	1	1
592.094	1	-6
593.283	1	1
594.471	1	14
595.660	1	-2
596.848	1	3
598.037	1	-6
599.225	1	-15
600.413	1	11
601.602	1	7
602.790	1	2
603.978	1	0
605.166	1	7
606.355	1	1
607.543	1	-2
608.731	1	6
609.919	1	5
611.107	1	-1
612.295	1	-5
613.483	1	-4
614.671	1	2
615.858	1	-1
617.046	1	-5
618.234	1	-7
619.422	1	-1
620.609	1	-2
621.797	1	1
622.985	1	7
624.172	1	0
625.360	1	2
626.547	1	-5
627.735	1	2
628.922	1	-2
630.109	1	-17
631.297	1	0
632.484	1	-1
633.671	1	-6
634.858	1	1
636.045	1	8
637.232	1	2
638.419	1	-12
639.606	1	7
640.793	1	18
641.980	1	1
643.167	1	-3
644.354	1	3
645.541	1	1
646.728	1	-6
647.914	1	-11
649.101	1	1
650.288	1	9
651.474	1	1
652.661	1	3
653.847	1	3
655.034	1	-2
656.220	1	-8
657.406	1	5
658.593	1	4
659.779	1	-6
660.965	1	8
662.152	1	4
663.338	1	10
664.524	1	-4
665.710	1	2
666.896	1	-9
668.082	1	-3
669.268	1	-1
670.454	1	-3
671.640	1	-8
672.826	1	-5
674.011	1	5
675.197	1	-4
676.383	1	5
677.569	1	-5
678.754	1	-3
679.940	1	-3
681.125	1	7
682.311	1	-1
683.496	1	8
684.682	1	-6
685.867	1	-4
687.053	1	-2
688.238	1	9
688.746	1	-2