File: Data/GaN_200K_800ms/GaN_sample F_spot 12_UVVIS_200 K_200um_800 ms 2x2mm1_63.txt
340.368	1	3
341.565	1	-10
342.763	1	9
343.960	1	10
345.157	1	6
346.354	1	3
347.552	1	2
348.749	1	5
349.946	1	4
351.143	1	17
352.340	1	17
353.537	1	9
354.734	1	14
355.931	1	17
357.127	1	14
358.324	1	35
359.521	1	34
360.718	1	49
361.914	1	65
363.111	1	70
364.308	1	94
365.504	1	142
366.701	1	191
367.897	1	227
369.093	1	252
370.290	1	250
371.486	1	252
372.682	1	197
373.879	1	176
375.075	1	143
376.271	1	133
377.467	1	108
378.663	1	79
379.859	1	67
381.055	1	60
382.251	1	55
383.447	1	49
384.643	1	57
385.839	1	44
387.035	1	34
388.230	1	40
389.426	1	24
390.622	1	23
391.817	1	13
393.013	1	22
394.208	1	12
395.404	1	9
396.599	1	2
397.795	1	15
398.990	1	16
400.186	1	16
401.381	1	15
402.576	1	8
403.771	1	11
404.967	1	12
406.162	1	15
407.357	1	5
408.552	1	5
409.747	1	7
410.942	1	16
412.137	1	12
413.332	1	11
414.526	1	11
415.721	1	4
416.916	1	6
418.111	1	7
419.305	1	13
420.500	1	4
421.695	1	-1
422.889	1	-6
424.084	1	8
425.278	1	9
426.472	1	-2
427.667	1	15
428.861	1	0
430.055	1	4
431.250	1	1
432.444	1	19
433.638	1	-3
434.832	1	-1
436.026	1	16
437.220	1	9
438.414	1	-5
439.608	1	-9
440.802	1	-10
441.996	1	0
443.190	1	2
444.384	1	-5
445.578	1	-7
446.771	1	10
447.965	1	5
449.159	1	-1
450.352	1	-4
451.546	1	1
452.739	1	11
453.933	1	-5
455.126	1	4
456.320	1	3
457.513	1	10
458.706	1	3
459.899	1	2
461.093	1	10
462.286	1	8
463.479	1	2
464.672	1	-1
465.865	1	1
467.058	1	3
468.251	1	6
469.444	1	-5
470.637	1	4
471.830	1	3
473.023	1	8
474.215	1	6
475.408	1	4
476.601	1	11
477.793	1	5
478.986	1	-1
480.179	1	7
481.371	1	5
482.564	1	4
483.756	1	6
484.948	1	-3
486.141	1	5
487.333	1	5
488.525	1	7
489.718	1	12
490.910	1	5
492.102	1	5
493.294	1	8
494.486	1	12
495.678	1	14
496.870	1	16
498.062	1	5
499.254	1	8
500.446	1	2
501.638	1	8
502.829	1	9
504.021	1	20
505.213	1	13
506.404	1	27
507.596	1	16
508.788	1	24
509.979	1	15
511.171	1	6
512.362	1	14
513.553	1	2
514.745	1	12
515.936	1	6
517.127	1	12
518.319	1	14
519.510	1	26
520.701	1	11
521.892	1	17
523.083	1	16
524.274	1	13
525.465	1	21
526.656	1	15
527.847	1	22
529.038	1	24
530.229	1	27
531.419	1	31
532.610	1	12
533.801	1	34
534.991	1	25
536.182	1	12
537.373	1	18
538.563	1	21
539.754	1	36
540.944	1	16
542.134	1	18
543.325	1	24
544.515	1	16
545.705	1	28
546.896	1	17
548.086	1	25
549.276	1	24
550.466	1	25
551.656	1	38
552.846	1	27
554.036	1	28
555.226	1	4
556.416	1	22
557.606	1	24
558.796	1	24
559.986	1	24
561.175	1	24
562.365	1	31
563.555	1	27
564.744	1	27
565.934	1	38
567.123	1	29
568.313	1	25
569.502	1	22
570.692	1	38
571.881	1	39
573.070	1	21
574.260	1	31
575.449	1	27
576.638	1	12
577.827	1	22
579.016	1	23
580.205	1	15
581.394	1	30
582.583	1	35
583.772	1	26
584.961	1	22
586.150	1	17
587.339	1	29
588.528	1	29
589.717	1	16
590.905	1	24
592.094	1	14
593.283	1	27
594.471	1	30
595.660	1	10
596.848	1	15
598.037	1	13
599.225	1	19
600.413	1	16
601.602	1	24
602.790	1	19
603.978	1	17
605.166	1	31
606.355	1	26
607.543	1	11
608.731	1	15
609.919	1	21
611.107	1	9
612.295	1	9
613.483	1	20
614.671	1	18
615.858	1	19
617.046	1	20
618.234	1	13
619.422	1	8
620.609	1	25
621.797	1	15
622.985	1	11
624.172	1	9
625.360	1	10
626.547	1	9
627.735	1	9
628.922	1	16
630.109	1	1
631.297	1	12
632.484	1	8
633.671	1	15
634.858	1	20
636.045	1	12
637.232	1	7
638.419	1	9
639.606	1	15
640.793	1	21
641.980	1	15
643.167	1	7
644.354	1	10
645.541	1	10
646.728	1	23
647.914	1	0
649.101	1	8
650.288	1	12
651.474	1	7
652.661	1	7
653.847	1	20
655.034	1	16
656.220	1	5
657.406	1	8
658.593	1	11
659.779	1	6
660.965	1	12
662.152	1	8
663.338	1	17
664.524	1	13
665.710	1	-2
666.896	1	8
668.082	1	10
669.268	1	6
670.454	1	1
671.640	1	9
672.826	1	8
674.011	1	7
675.197	1	3
676.383	1	11
677.569	1	6
678.754	1	7
679.940	1	5
681.125	1	17
682.311	1	14
683.496	1	7
684.682	1	-2
685.867	1	7
687.053	1	2
688.238	1	12
688.746	1	10