File: Data/GaN_200K_800ms/GaN_sample F_spot 12_UVVIS_200 K_200um_800 ms 2x2mm1_540.txt
340.368	1	-2
341.565	1	-10
342.763	1	6
343.960	1	7
345.157	1	-8
346.354	1	-4
347.552	1	-5
348.749	1	-10
349.946	1	-11
351.143	1	-3
352.340	1	-2
353.537	1	2
354.734	1	7
355.931	1	-5
357.127	1	8
358.324	1	-4
359.521	1	9
360.718	1	-2
361.914	1	4
363.111	1	0
364.308	1	7
365.504	1	7
366.701	1	2
367.897	1	11
369.093	1	5
370.290	1	-2
371.486	1	9
372.682	1	3
373.879	1	-3
375.075	1	-4
376.271	1	6
377.467	1	6
378.663	1	-6
379.859	1	3
381.055	1	5
382.251	1	-3
383.447	1	-4
384.643	1	5
385.839	1	-3
387.035	1	1
388.230	1	-2
389.426	1	-5
390.622	1	-5
391.817	1	-3
393.013	1	3
394.208	1	-2
395.404	1	-6
396.599	1	-8
397.795	1	4
398.990	1	-3
400.186	1	-1
401.381	1	-2
402.576	1	-6
403.771	1	-3
404.967	1	6
406.162	1	-2
407.357	1	-8
408.552	1	-6
409.747	1	0
410.942	1	0
412.137	1	8
413.332	1	4
414.526	1	-3
415.721	1	6
416.916	1	-1
418.111	1	5
419.305	1	5
420.500	1	-5
421.695	1	-10
422.889	1	-12
424.084	1	-2
425.278	1	5
426.472	1	3
427.667	1	7
428.861	1	-1
430.055	1	5
431.250	1	-5
432.444	1	9
433.638	1	-7
434.832	1	-3
436.026	1	1
437.220	1	2
438.414	1	-9
439.608	1	-13
440.802	1	-13
441.996	1	3
443.190	1	-2
444.384	1	-5
445.578	1	-16
446.771	1	-2
447.965	1	0
449.159	1	-12
450.352	1	0
451.546	1	4
452.739	1	4
453.933	1	-5
455.126	1	-8
456.320	1	-4
457.513	1	6
458.706	1	-1
459.899	1	2
461.093	1	3
462.286	1	-8
463.479	1	-6
464.672	1	0
465.865	1	-1
467.058	1	1
468.251	1	1
469.444	1	-6
470.637	1	13
471.830	1	-8
473.023	1	-1
474.215	1	13
475.408	1	1
476.601	1	-2
477.793	1	3
478.986	1	-2
480.179	1	1
481.371	1	2
482.564	1	-1
483.756	1	12
484.948	1	-11
486.141	1	-6
487.333	1	-4
488.525	1	2
489.718	1	-5
490.910	1	-1
492.102	1	0
493.294	1	-4
494.486	1	1
495.678	1	2
496.870	1	6
498.062	1	-1
499.254	1	1
500.446	1	-13
501.638	1	-8
502.829	1	2
504.021	1	-8
505.213	1	14
506.404	1	-9
507.596	1	6
508.788	1	17
509.979	1	1
511.171	1	-10
512.362	1	-9
513.553	1	-13
514.745	1	-11
515.936	1	-3
517.127	1	-8
518.319	1	0
519.510	1	-1
520.701	1	2
521.892	1	0
523.083	1	-5
524.274	1	-1
525.465	1	3
526.656	1	1
527.847	1	11
529.038	1	-8
530.229	1	-3
531.419	1	2
532.610	1	-2
533.801	1	12
534.991	1	2
536.182	1	2
537.373	1	5
538.563	1	2
539.754	1	0
540.944	1	0
542.134	1	-1
543.325	1	-4
544.515	1	-8
545.705	1	-7
546.896	1	-4
548.086	1	-9
549.276	1	3
550.466	1	0
551.656	1	-4
552.846	1	-4
554.036	1	6
555.226	1	-7
556.416	1	-16
557.606	1	3
558.796	1	5
559.986	1	-10
561.175	1	5
562.365	1	1
563.555	1	-5
564.744	1	1
565.934	1	7
567.123	1	4
568.313	1	1
569.502	1	-1
570.692	1	10
571.881	1	18
573.070	1	0
574.260	1	2
575.449	1	-2
576.638	1	0
577.827	1	-1
579.016	1	4
580.205	1	-3
581.394	1	-9
582.583	1	15
583.772	1	1
584.961	1	5
586.150	1	-6
587.339	1	4
588.528	1	8
589.717	1	2
590.905	1	-6
592.094	1	3
593.283	1	3
594.471	1	12
595.660	1	4
596.848	1	1
598.037	1	4
599.225	1	-16
600.413	1	5
601.602	1	13
602.790	1	1
603.978	1	-1
605.166	1	6
606.355	1	2
607.543	1	-19
608.731	1	-3
609.919	1	13
611.107	1	-2
612.295	1	-6
613.483	1	1
614.671	1	7
615.858	1	2
617.046	1	-5
618.234	1	-5
619.422	1	-10
620.609	1	1
621.797	1	3
622.985	1	-9
624.172	1	-12
625.360	1	2
626.547	1	1
627.735	1	3
628.922	1	-3
630.109	1	-11
631.297	1	-5
632.484	1	-1
633.671	1	-7
634.858	1	-3
636.045	1	15
637.232	1	2
638.419	1	-5
639.606	1	4
640.793	1	-3
641.980	1	16
643.167	1	-6
644.354	1	-9
645.541	1	2
646.728	1	-1
647.914	1	-3
649.101	1	-1
650.288	1	0
651.474	1	-7
652.661	1	-3
653.847	1	0
655.034	1	4
656.220	1	-13
657.406	1	6
658.593	1	1
659.779	1	-3
660.965	1	-1
662.152	1	3
663.338	1	0
664.524	1	2
665.710	1	-3
666.896	1	-2
668.082	1	6
669.268	1	-8
670.454	1	1
671.640	1	-5
672.826	1	-4
674.011	1	1
675.197	1	-12
676.383	1	-2
677.569	1	1
678.754	1	-6
679.940	1	3
681.125	1	0
682.311	1	4
683.496	1	-2
684.682	1	-3
685.867	1	-2
687.053	1	5
688.238	1	4
688.746	1	1