File: Data/GaN_200K_800ms/GaN_sample F_spot 12_UVVIS_200 K_200um_800 ms 2x2mm1_314.txt
340.368	1	-2
341.565	1	-10
342.763	1	2
343.960	1	-8
345.157	1	-2
346.354	1	-3
347.552	1	-3
348.749	1	-3
349.946	1	-5
351.143	1	2
352.340	1	2
353.537	1	-2
354.734	1	0
355.931	1	1
357.127	1	4
358.324	1	-6
359.521	1	7
360.718	1	13
361.914	1	10
363.111	1	12
364.308	1	-2
365.504	1	18
366.701	1	13
367.897	1	13
369.093	1	9
370.290	1	12
371.486	1	24
372.682	1	16
373.879	1	11
375.075	1	8
376.271	1	22
377.467	1	6
378.663	1	3
379.859	1	1
381.055	1	6
382.251	1	2
383.447	1	3
384.643	1	8
385.839	1	5
387.035	1	7
388.230	1	13
389.426	1	-5
390.622	1	-3
391.817	1	6
393.013	1	5
394.208	1	3
395.404	1	-5
396.599	1	-1
397.795	1	2
398.990	1	2
400.186	1	-5
401.381	1	-9
402.576	1	3
403.771	1	4
404.967	1	7
406.162	1	7
407.357	1	-4
408.552	1	-3
409.747	1	-3
410.942	1	11
412.137	1	6
413.332	1	-1
414.526	1	0
415.721	1	-1
416.916	1	2
418.111	1	5
419.305	1	4
420.500	1	-4
421.695	1	-4
422.889	1	-11
424.084	1	-6
425.278	1	4
426.472	1	-5
427.667	1	1
428.861	1	-2
430.055	1	-1
431.250	1	-3
432.444	1	11
433.638	1	-7
434.832	1	10
436.026	1	4
437.220	1	4
438.414	1	-11
439.608	1	-10
440.802	1	-5
441.996	1	2
443.190	1	-4
444.384	1	-12
445.578	1	-12
446.771	1	11
447.965	1	-3
449.159	1	-9
450.352	1	5
451.546	1	1
452.739	1	3
453.933	1	-8
455.126	1	-3
456.320	1	-2
457.513	1	5
458.706	1	1
459.899	1	-1
461.093	1	5
462.286	1	3
463.479	1	1
464.672	1	-9
465.865	1	3
467.058	1	1
468.251	1	5
469.444	1	-7
470.637	1	8
471.830	1	1
473.023	1	3
474.215	1	2
475.408	1	-7
476.601	1	3
477.793	1	-5
478.986	1	-7
480.179	1	-9
481.371	1	3
482.564	1	9
483.756	1	12
484.948	1	-6
486.141	1	-1
487.333	1	-2
488.525	1	0
489.718	1	6
490.910	1	0
492.102	1	-5
493.294	1	-7
494.486	1	2
495.678	1	-6
496.870	1	10
498.062	1	-2
499.254	1	3
500.446	1	-9
501.638	1	-4
502.829	1	1
504.021	1	2
505.213	1	-1
506.404	1	6
507.596	1	3
508.788	1	17
509.979	1	-3
511.171	1	-3
512.362	1	-3
513.553	1	-8
514.745	1	-4
515.936	1	2
517.127	1	-6
518.319	1	1
519.510	1	2
520.701	1	-5
521.892	1	-4
523.083	1	-3
524.274	1	2
525.465	1	7
526.656	1	-6
527.847	1	3
529.038	1	-3
530.229	1	-1
531.419	1	-1
532.610	1	-10
533.801	1	16
534.991	1	-4
536.182	1	-4
537.373	1	2
538.563	1	11
539.754	1	11
540.944	1	6
542.134	1	7
543.325	1	9
544.515	1	-12
545.705	1	-6
546.896	1	1
548.086	1	6
549.276	1	-7
550.466	1	4
551.656	1	6
552.846	1	-1
554.036	1	-5
555.226	1	-14
556.416	1	1
557.606	1	10
558.796	1	-1
559.986	1	-2
561.175	1	-2
562.365	1	-1
563.555	1	4
564.744	1	3
565.934	1	14
567.123	1	0
568.313	1	6
569.502	1	2
570.692	1	1
571.881	1	7
573.070	1	-2
574.260	1	6
575.449	1	2
576.638	1	-2
577.827	1	-1
579.016	1	15
580.205	1	-6
581.394	1	1
582.583	1	13
583.772	1	11
584.961	1	-1
586.150	1	-8
587.339	1	9
588.528	1	-2
589.717	1	7
590.905	1	-4
592.094	1	0
593.283	1	2
594.471	1	4
595.660	1	1
596.848	1	3
598.037	1	-6
599.225	1	-8
600.413	1	12
601.602	1	14
602.790	1	1
603.978	1	-5
605.166	1	-3
606.355	1	-1
607.543	1	6
608.731	1	-4
609.919	1	4
611.107	1	-1
612.295	1	-4
613.483	1	-1
614.671	1	12
615.858	1	-1
617.046	1	4
618.234	1	-2
619.422	1	-4
620.609	1	-4
621.797	1	-2
622.985	1	9
624.172	1	-8
625.360	1	2
626.547	1	-3
627.735	1	6
628.922	1	5
630.109	1	-10
631.297	1	2
632.484	1	2
633.671	1	-10
634.858	1	-2
636.045	1	11
637.232	1	-3
638.419	1	-3
639.606	1	6
640.793	1	5
641.980	1	0
643.167	1	-7
644.354	1	14
645.541	1	7
646.728	1	-5
647.914	1	-9
649.101	1	-5
650.288	1	9
651.474	1	-3
652.661	1	-2
653.847	1	-3
655.034	1	0
656.220	1	-6
657.406	1	6
658.593	1	7
659.779	1	-5
660.965	1	8
662.152	1	13
663.338	1	5
664.524	1	-2
665.710	1	-2
666.896	1	-5
668.082	1	1
669.268	1	4
670.454	1	4
671.640	1	3
672.826	1	1
674.011	1	-1
675.197	1	-9
676.383	1	-1
677.569	1	1
678.754	1	-10
679.940	1	-1
681.125	1	5
682.311	1	6
683.496	1	-1
684.682	1	-1
685.867	1	1
687.053	1	-1
688.238	1	8
688.746	1	2