File: Data/GaN_200K_800ms/GaN_sample F_spot 12_UVVIS_200 K_200um_800 ms 2x2mm1_415.txt
340.368	1	-2
341.565	1	-4
342.763	1	1
343.960	1	6
345.157	1	-8
346.354	1	6
347.552	1	-8
348.749	1	-4
349.946	1	-7
351.143	1	-4
352.340	1	-4
353.537	1	-4
354.734	1	-1
355.931	1	-8
357.127	1	-5
358.324	1	-3
359.521	1	-4
360.718	1	9
361.914	1	4
363.111	1	-4
364.308	1	-5
365.504	1	8
366.701	1	11
367.897	1	17
369.093	1	6
370.290	1	10
371.486	1	21
372.682	1	18
373.879	1	-2
375.075	1	2
376.271	1	12
377.467	1	-1
378.663	1	-1
379.859	1	-4
381.055	1	6
382.251	1	-5
383.447	1	1
384.643	1	3
385.839	1	-4
387.035	1	-4
388.230	1	12
389.426	1	4
390.622	1	1
391.817	1	-1
393.013	1	0
394.208	1	1
395.404	1	-5
396.599	1	-3
397.795	1	3
398.990	1	5
400.186	1	-2
401.381	1	-15
402.576	1	-3
403.771	1	5
404.967	1	-1
406.162	1	4
407.357	1	1
408.552	1	-4
409.747	1	-8
410.942	1	4
412.137	1	4
413.332	1	-4
414.526	1	4
415.721	1	-1
416.916	1	-5
418.111	1	3
419.305	1	-1
420.500	1	-3
421.695	1	-3
422.889	1	5
424.084	1	1
425.278	1	12
426.472	1	5
427.667	1	2
428.861	1	2
430.055	1	-4
431.250	1	-2
432.444	1	3
433.638	1	-1
434.832	1	4
436.026	1	-2
437.220	1	0
438.414	1	-15
439.608	1	-5
440.802	1	-11
441.996	1	-1
443.190	1	1
444.384	1	-5
445.578	1	-11
446.771	1	7
447.965	1	2
449.159	1	-2
450.352	1	-5
451.546	1	-3
452.739	1	2
453.933	1	5
455.126	1	-11
456.320	1	5
457.513	1	2
458.706	1	3
459.899	1	-3
461.093	1	1
462.286	1	-4
463.479	1	-3
464.672	1	8
465.865	1	-9
467.058	1	-2
468.251	1	2
469.444	1	-10
470.637	1	-2
471.830	1	-18
473.023	1	7
474.215	1	15
475.408	1	5
476.601	1	-2
477.793	1	-5
478.986	1	-3
480.179	1	3
481.371	1	-8
482.564	1	3
483.756	1	2
484.948	1	-3
486.141	1	2
487.333	1	1
488.525	1	4
489.718	1	1
490.910	1	-1
492.102	1	-1
493.294	1	-3
494.486	1	-5
495.678	1	0
496.870	1	2
498.062	1	-6
499.254	1	3
500.446	1	-6
501.638	1	-5
502.829	1	-2
504.021	1	-6
505.213	1	16
506.404	1	4
507.596	1	-1
508.788	1	21
509.979	1	-3
511.171	1	0
512.362	1	-13
513.553	1	-19
514.745	1	5
515.936	1	6
517.127	1	-3
518.319	1	-2
519.510	1	5
520.701	1	3
521.892	1	2
523.083	1	-6
524.274	1	3
525.465	1	13
526.656	1	-5
527.847	1	2
529.038	1	-5
530.229	1	3
531.419	1	-5
532.610	1	-8
533.801	1	10
534.991	1	-4
536.182	1	0
537.373	1	6
538.563	1	9
539.754	1	9
540.944	1	-4
542.134	1	-8
543.325	1	2
544.515	1	-3
545.705	1	-9
546.896	1	-4
548.086	1	-5
549.276	1	-9
550.466	1	-6
551.656	1	3
552.846	1	-13
554.036	1	0
555.226	1	-14
556.416	1	-2
557.606	1	3
558.796	1	-1
559.986	1	-8
561.175	1	1
562.365	1	-2
563.555	1	-3
564.744	1	-1
565.934	1	4
567.123	1	6
568.313	1	5
569.502	1	3
570.692	1	8
571.881	1	0
573.070	1	7
574.260	1	11
575.449	1	-4
576.638	1	-10
577.827	1	0
579.016	1	5
580.205	1	7
581.394	1	-6
582.583	1	10
583.772	1	3
584.961	1	0
586.150	1	-7
587.339	1	-1
588.528	1	8
589.717	1	6
590.905	1	-6
592.094	1	-1
593.283	1	-1
594.471	1	10
595.660	1	-8
596.848	1	-5
598.037	1	-5
599.225	1	-6
600.413	1	6
601.602	1	11
602.790	1	-14
603.978	1	-4
605.166	1	-1
606.355	1	6
607.543	1	-6
608.731	1	-1
609.919	1	11
611.107	1	2
612.295	1	-5
613.483	1	-2
614.671	1	3
615.858	1	13
617.046	1	-6
618.234	1	-3
619.422	1	-8
620.609	1	-1
621.797	1	-14
622.985	1	-7
624.172	1	-3
625.360	1	3
626.547	1	-7
627.735	1	5
628.922	1	6
630.109	1	-10
631.297	1	6
632.484	1	-3
633.671	1	-2
634.858	1	-2
636.045	1	6
637.232	1	-2
638.419	1	-2
639.606	1	8
640.793	1	3
641.980	1	6
643.167	1	-13
644.354	1	1
645.541	1	0
646.728	1	-6
647.914	1	-13
649.101	1	-1
650.288	1	-2
651.474	1	-13
652.661	1	-9
653.847	1	7
655.034	1	0
656.220	1	-9
657.406	1	12
658.593	1	0
659.779	1	2
660.965	1	11
662.152	1	2
663.338	1	7
664.524	1	2
665.710	1	4
666.896	1	-6
668.082	1	2
669.268	1	2
670.454	1	4
671.640	1	3
672.826	1	2
674.011	1	-3
675.197	1	-8
676.383	1	1
677.569	1	-1
678.754	1	2
679.940	1	-2
681.125	1	-5
682.311	1	2
683.496	1	-5
684.682	1	-10
685.867	1	0
687.053	1	-5
688.238	1	2
688.746	1	-2