File: Data/GaN_200K_800ms/GaN_sample F_spot 12_UVVIS_200 K_200um_800 ms 2x2mm1_332.txt
340.368	1	5
341.565	1	-12
342.763	1	7
343.960	1	4
345.157	1	-4
346.354	1	-1
347.552	1	-2
348.749	1	-8
349.946	1	-5
351.143	1	-1
352.340	1	2
353.537	1	-9
354.734	1	0
355.931	1	1
357.127	1	8
358.324	1	-4
359.521	1	7
360.718	1	7
361.914	1	0
363.111	1	0
364.308	1	-2
365.504	1	10
366.701	1	18
367.897	1	10
369.093	1	8
370.290	1	6
371.486	1	18
372.682	1	6
373.879	1	6
375.075	1	8
376.271	1	15
377.467	1	4
378.663	1	-2
379.859	1	4
381.055	1	18
382.251	1	-7
383.447	1	-8
384.643	1	4
385.839	1	2
387.035	1	-1
388.230	1	11
389.426	1	-3
390.622	1	-1
391.817	1	3
393.013	1	-5
394.208	1	3
395.404	1	1
396.599	1	-6
397.795	1	1
398.990	1	-2
400.186	1	-5
401.381	1	3
402.576	1	-3
403.771	1	2
404.967	1	5
406.162	1	2
407.357	1	-7
408.552	1	-2
409.747	1	-1
410.942	1	-1
412.137	1	1
413.332	1	3
414.526	1	-5
415.721	1	0
416.916	1	-8
418.111	1	-1
419.305	1	5
420.500	1	-4
421.695	1	-10
422.889	1	-15
424.084	1	-3
425.278	1	4
426.472	1	-6
427.667	1	4
428.861	1	-2
430.055	1	-1
431.250	1	5
432.444	1	9
433.638	1	-4
434.832	1	3
436.026	1	-3
437.220	1	-6
438.414	1	-15
439.608	1	0
440.802	1	-7
441.996	1	3
443.190	1	0
444.384	1	-2
445.578	1	-15
446.771	1	15
447.965	1	2
449.159	1	-1
450.352	1	-3
451.546	1	-3
452.739	1	2
453.933	1	0
455.126	1	-9
456.320	1	8
457.513	1	5
458.706	1	7
459.899	1	1
461.093	1	10
462.286	1	5
463.479	1	0
464.672	1	-1
465.865	1	-5
467.058	1	-8
468.251	1	-5
469.444	1	-8
470.637	1	1
471.830	1	-8
473.023	1	-4
474.215	1	3
475.408	1	-5
476.601	1	4
477.793	1	-5
478.986	1	-5
480.179	1	0
481.371	1	2
482.564	1	-1
483.756	1	6
484.948	1	-8
486.141	1	-8
487.333	1	2
488.525	1	8
489.718	1	-4
490.910	1	11
492.102	1	-11
493.294	1	-8
494.486	1	5
495.678	1	-7
496.870	1	5
498.062	1	-8
499.254	1	9
500.446	1	-14
501.638	1	-3
502.829	1	10
504.021	1	-6
505.213	1	6
506.404	1	3
507.596	1	-1
508.788	1	15
509.979	1	6
511.171	1	-6
512.362	1	-5
513.553	1	-16
514.745	1	-6
515.936	1	4
517.127	1	-7
518.319	1	2
519.510	1	0
520.701	1	0
521.892	1	-1
523.083	1	-3
524.274	1	3
525.465	1	14
526.656	1	-4
527.847	1	2
529.038	1	-2
530.229	1	2
531.419	1	-3
532.610	1	1
533.801	1	14
534.991	1	4
536.182	1	1
537.373	1	3
538.563	1	-5
539.754	1	2
540.944	1	2
542.134	1	4
543.325	1	-5
544.515	1	-7
545.705	1	1
546.896	1	6
548.086	1	-4
549.276	1	-5
550.466	1	-1
551.656	1	0
552.846	1	3
554.036	1	-4
555.226	1	-4
556.416	1	-13
557.606	1	8
558.796	1	2
559.986	1	-6
561.175	1	0
562.365	1	6
563.555	1	-4
564.744	1	0
565.934	1	5
567.123	1	13
568.313	1	5
569.502	1	-1
570.692	1	3
571.881	1	16
573.070	1	2
574.260	1	7
575.449	1	5
576.638	1	3
577.827	1	-5
579.016	1	9
580.205	1	0
581.394	1	1
582.583	1	14
583.772	1	2
584.961	1	0
586.150	1	-2
587.339	1	6
588.528	1	5
589.717	1	1
590.905	1	-4
592.094	1	-1
593.283	1	-1
594.471	1	14
595.660	1	2
596.848	1	-2
598.037	1	-6
599.225	1	-6
600.413	1	7
601.602	1	9
602.790	1	0
603.978	1	6
605.166	1	-5
606.355	1	-1
607.543	1	6
608.731	1	-1
609.919	1	6
611.107	1	-3
612.295	1	3
613.483	1	-3
614.671	1	7
615.858	1	11
617.046	1	-1
618.234	1	0
619.422	1	-8
620.609	1	-2
621.797	1	-10
622.985	1	3
624.172	1	-4
625.360	1	3
626.547	1	6
627.735	1	-1
628.922	1	1
630.109	1	-10
631.297	1	-3
632.484	1	-1
633.671	1	-5
634.858	1	3
636.045	1	10
637.232	1	-8
638.419	1	1
639.606	1	3
640.793	1	3
641.980	1	8
643.167	1	-6
644.354	1	3
645.541	1	0
646.728	1	2
647.914	1	0
649.101	1	-2
650.288	1	9
651.474	1	1
652.661	1	0
653.847	1	2
655.034	1	9
656.220	1	2
657.406	1	9
658.593	1	2
659.779	1	6
660.965	1	5
662.152	1	2
663.338	1	6
664.524	1	-6
665.710	1	-13
666.896	1	2
668.082	1	-4
669.268	1	-2
670.454	1	-1
671.640	1	2
672.826	1	-1
674.011	1	3
675.197	1	-15
676.383	1	5
677.569	1	-6
678.754	1	-6
679.940	1	-6
681.125	1	9
682.311	1	3
683.496	1	1
684.682	1	-1
685.867	1	-2
687.053	1	-3
688.238	1	8
688.746	1	0