File: Data/GaN_200K_800ms/GaN_sample F_spot 12_UVVIS_200 K_200um_800 ms 2x2mm1_22.txt
340.368	1	2
341.565	1	-8
342.763	1	1
343.960	1	9
345.157	1	-2
346.354	1	0
347.552	1	-3
348.749	1	3
349.946	1	4
351.143	1	-1
352.340	1	4
353.537	1	0
354.734	1	9
355.931	1	-3
357.127	1	-1
358.324	1	-6
359.521	1	1
360.718	1	-4
361.914	1	4
363.111	1	3
364.308	1	-5
365.504	1	10
366.701	1	4
367.897	1	7
369.093	1	-9
370.290	1	2
371.486	1	3
372.682	1	0
373.879	1	0
375.075	1	-8
376.271	1	8
377.467	1	8
378.663	1	0
379.859	1	4
381.055	1	1
382.251	1	-2
383.447	1	-6
384.643	1	8
385.839	1	-2
387.035	1	0
388.230	1	6
389.426	1	1
390.622	1	-1
391.817	1	10
393.013	1	4
394.208	1	8
395.404	1	2
396.599	1	1
397.795	1	8
398.990	1	5
400.186	1	4
401.381	1	-3
402.576	1	-3
403.771	1	3
404.967	1	3
406.162	1	9
407.357	1	-11
408.552	1	4
409.747	1	7
410.942	1	7
412.137	1	9
413.332	1	5
414.526	1	-2
415.721	1	5
416.916	1	-1
418.111	1	-6
419.305	1	5
420.500	1	-3
421.695	1	-5
422.889	1	-10
424.084	1	3
425.278	1	11
426.472	1	0
427.667	1	9
428.861	1	-6
430.055	1	5
431.250	1	-2
432.444	1	9
433.638	1	-10
434.832	1	-1
436.026	1	7
437.220	1	2
438.414	1	-2
439.608	1	-2
440.802	1	-4
441.996	1	6
443.190	1	-6
444.384	1	-5
445.578	1	-7
446.771	1	7
447.965	1	-2
449.159	1	-7
450.352	1	3
451.546	1	-5
452.739	1	0
453.933	1	5
455.126	1	2
456.320	1	6
457.513	1	14
458.706	1	11
459.899	1	4
461.093	1	1
462.286	1	6
463.479	1	3
464.672	1	3
465.865	1	-9
467.058	1	-1
468.251	1	-3
469.444	1	-4
470.637	1	3
471.830	1	-1
473.023	1	10
474.215	1	9
475.408	1	1
476.601	1	-6
477.793	1	0
478.986	1	-5
480.179	1	-3
481.371	1	-1
482.564	1	4
483.756	1	5
484.948	1	1
486.141	1	-5
487.333	1	2
488.525	1	9
489.718	1	0
490.910	1	3
492.102	1	3
493.294	1	-1
494.486	1	0
495.678	1	2
496.870	1	6
498.062	1	6
499.254	1	3
500.446	1	-11
501.638	1	2
502.829	1	-2
504.021	1	3
505.213	1	8
506.404	1	-2
507.596	1	-2
508.788	1	11
509.979	1	-1
511.171	1	-11
512.362	1	5
513.553	1	-15
514.745	1	-5
515.936	1	1
517.127	1	2
518.319	1	-5
519.510	1	13
520.701	1	8
521.892	1	8
523.083	1	0
524.274	1	8
525.465	1	5
526.656	1	3
527.847	1	10
529.038	1	6
530.229	1	-2
531.419	1	8
532.610	1	-5
533.801	1	17
534.991	1	-6
536.182	1	-8
537.373	1	1
538.563	1	5
539.754	1	-7
540.944	1	1
542.134	1	8
543.325	1	-4
544.515	1	-1
545.705	1	-9
546.896	1	1
548.086	1	1
549.276	1	13
550.466	1	5
551.656	1	3
552.846	1	3
554.036	1	4
555.226	1	-5
556.416	1	2
557.606	1	11
558.796	1	5
559.986	1	-10
561.175	1	-10
562.365	1	5
563.555	1	-4
564.744	1	1
565.934	1	7
567.123	1	2
568.313	1	3
569.502	1	-1
570.692	1	6
571.881	1	10
573.070	1	5
574.260	1	10
575.449	1	2
576.638	1	0
577.827	1	1
579.016	1	3
580.205	1	-4
581.394	1	-10
582.583	1	12
583.772	1	4
584.961	1	3
586.150	1	6
587.339	1	-1
588.528	1	3
589.717	1	-1
590.905	1	6
592.094	1	-2
593.283	1	4
594.471	1	8
595.660	1	1
596.848	1	5
598.037	1	4
599.225	1	-9
600.413	1	15
601.602	1	8
602.790	1	9
603.978	1	-6
605.166	1	10
606.355	1	0
607.543	1	-6
608.731	1	12
609.919	1	5
611.107	1	8
612.295	1	3
613.483	1	2
614.671	1	-3
615.858	1	7
617.046	1	-7
618.234	1	0
619.422	1	-7
620.609	1	6
621.797	1	-9
622.985	1	-6
624.172	1	7
625.360	1	3
626.547	1	2
627.735	1	3
628.922	1	7
630.109	1	-3
631.297	1	1
632.484	1	-3
633.671	1	-3
634.858	1	-2
636.045	1	8
637.232	1	-6
638.419	1	3
639.606	1	3
640.793	1	9
641.980	1	5
643.167	1	5
644.354	1	1
645.541	1	-5
646.728	1	9
647.914	1	-3
649.101	1	3
650.288	1	5
651.474	1	3
652.661	1	-6
653.847	1	0
655.034	1	8
656.220	1	-4
657.406	1	1
658.593	1	6
659.779	1	6
660.965	1	5
662.152	1	9
663.338	1	8
664.524	1	4
665.710	1	4
666.896	1	1
668.082	1	10
669.268	1	8
670.454	1	5
671.640	1	8
672.826	1	4
674.011	1	2
675.197	1	-2
676.383	1	-1
677.569	1	-5
678.754	1	-7
679.940	1	11
681.125	1	4
682.311	1	0
683.496	1	14
684.682	1	-1
685.867	1	3
687.053	1	-1
688.238	1	3
688.746	1	4