File: Data/GaN_200K_800ms/GaN_sample F_spot 12_UVVIS_200 K_200um_800 ms 2x2mm1_37.txt
340.368	1	5
341.565	1	-1
342.763	1	5
343.960	1	3
345.157	1	-4
346.354	1	1
347.552	1	-1
348.749	1	-4
349.946	1	-4
351.143	1	12
352.340	1	8
353.537	1	14
354.734	1	13
355.931	1	18
357.127	1	17
358.324	1	33
359.521	1	48
360.718	1	63
361.914	1	85
363.111	1	139
364.308	1	230
365.504	1	374
366.701	1	592
367.897	1	861
369.093	1	1075
370.290	1	1128
371.486	1	1017
372.682	1	780
373.879	1	636
375.075	1	501
376.271	1	421
377.467	1	331
378.663	1	259
379.859	1	203
381.055	1	180
382.251	1	134
383.447	1	125
384.643	1	136
385.839	1	117
387.035	1	117
388.230	1	101
389.426	1	78
390.622	1	72
391.817	1	66
393.013	1	47
394.208	1	48
395.404	1	42
396.599	1	47
397.795	1	48
398.990	1	46
400.186	1	38
401.381	1	35
402.576	1	32
403.771	1	32
404.967	1	38
406.162	1	27
407.357	1	30
408.552	1	20
409.747	1	32
410.942	1	26
412.137	1	27
413.332	1	14
414.526	1	12
415.721	1	16
416.916	1	12
418.111	1	18
419.305	1	12
420.500	1	29
421.695	1	8
422.889	1	10
424.084	1	21
425.278	1	30
426.472	1	17
427.667	1	23
428.861	1	19
430.055	1	19
431.250	1	10
432.444	1	26
433.638	1	16
434.832	1	10
436.026	1	8
437.220	1	18
438.414	1	0
439.608	1	3
440.802	1	4
441.996	1	13
443.190	1	8
444.384	1	11
445.578	1	-1
446.771	1	16
447.965	1	10
449.159	1	2
450.352	1	4
451.546	1	11
452.739	1	21
453.933	1	6
455.126	1	11
456.320	1	4
457.513	1	13
458.706	1	12
459.899	1	12
461.093	1	4
462.286	1	7
463.479	1	3
464.672	1	5
465.865	1	17
467.058	1	7
468.251	1	15
469.444	1	8
470.637	1	11
471.830	1	11
473.023	1	17
474.215	1	26
475.408	1	16
476.601	1	10
477.793	1	9
478.986	1	10
480.179	1	14
481.371	1	24
482.564	1	22
483.756	1	22
484.948	1	11
486.141	1	21
487.333	1	29
488.525	1	34
489.718	1	33
490.910	1	31
492.102	1	25
493.294	1	31
494.486	1	41
495.678	1	45
496.870	1	37
498.062	1	39
499.254	1	41
500.446	1	45
501.638	1	51
502.829	1	66
504.021	1	73
505.213	1	81
506.404	1	77
507.596	1	97
508.788	1	107
509.979	1	81
511.171	1	88
512.362	1	96
513.553	1	90
514.745	1	110
515.936	1	107
517.127	1	116
518.319	1	122
519.510	1	132
520.701	1	130
521.892	1	140
523.083	1	145
524.274	1	149
525.465	1	164
526.656	1	154
527.847	1	170
529.038	1	178
530.229	1	189
531.419	1	191
532.610	1	206
533.801	1	232
534.991	1	223
536.182	1	210
537.373	1	207
538.563	1	209
539.754	1	215
540.944	1	197
542.134	1	222
543.325	1	218
544.515	1	226
545.705	1	238
546.896	1	230
548.086	1	264
549.276	1	261
550.466	1	269
551.656	1	295
552.846	1	278
554.036	1	297
555.226	1	287
556.416	1	273
557.606	1	284
558.796	1	267
559.986	1	265
561.175	1	284
562.365	1	282
563.555	1	266
564.744	1	274
565.934	1	298
567.123	1	281
568.313	1	300
569.502	1	290
570.692	1	288
571.881	1	295
573.070	1	281
574.260	1	278
575.449	1	288
576.638	1	284
577.827	1	262
579.016	1	281
580.205	1	287
581.394	1	267
582.583	1	267
583.772	1	287
584.961	1	278
586.150	1	273
587.339	1	281
588.528	1	267
589.717	1	280
590.905	1	255
592.094	1	218
593.283	1	243
594.471	1	235
595.660	1	226
596.848	1	218
598.037	1	210
599.225	1	212
600.413	1	226
601.602	1	234
602.790	1	212
603.978	1	227
605.166	1	212
606.355	1	219
607.543	1	220
608.731	1	227
609.919	1	232
611.107	1	202
612.295	1	198
613.483	1	202
614.671	1	178
615.858	1	179
617.046	1	189
618.234	1	173
619.422	1	167
620.609	1	173
621.797	1	149
622.985	1	151
624.172	1	153
625.360	1	155
626.547	1	155
627.735	1	156
628.922	1	142
630.109	1	130
631.297	1	133
632.484	1	139
633.671	1	119
634.858	1	128
636.045	1	144
637.232	1	117
638.419	1	113
639.606	1	124
640.793	1	122
641.980	1	117
643.167	1	106
644.354	1	115
645.541	1	120
646.728	1	88
647.914	1	97
649.101	1	93
650.288	1	88
651.474	1	90
652.661	1	87
653.847	1	103
655.034	1	94
656.220	1	73
657.406	1	88
658.593	1	87
659.779	1	84
660.965	1	87
662.152	1	77
663.338	1	76
664.524	1	72
665.710	1	64
666.896	1	70
668.082	1	67
669.268	1	58
670.454	1	59
671.640	1	57
672.826	1	66
674.011	1	57
675.197	1	49
676.383	1	56
677.569	1	54
678.754	1	44
679.940	1	50
681.125	1	61
682.311	1	56
683.496	1	56
684.682	1	50
685.867	1	48
687.053	1	54
688.238	1	54
688.746	1	44