File: Data/GaN_200K_800ms/GaN_sample F_spot 12_UVVIS_200 K_200um_800 ms 2x2mm1_15.txt
340.368	1	0
341.565	1	-13
342.763	1	4
343.960	1	5
345.157	1	-7
346.354	1	1
347.552	1	-5
348.749	1	-7
349.946	1	-5
351.143	1	0
352.340	1	5
353.537	1	-3
354.734	1	3
355.931	1	1
357.127	1	-2
358.324	1	-2
359.521	1	1
360.718	1	-3
361.914	1	9
363.111	1	-1
364.308	1	-13
365.504	1	2
366.701	1	0
367.897	1	-2
369.093	1	-3
370.290	1	1
371.486	1	6
372.682	1	1
373.879	1	-4
375.075	1	-1
376.271	1	6
377.467	1	-1
378.663	1	0
379.859	1	-4
381.055	1	-2
382.251	1	-8
383.447	1	-4
384.643	1	8
385.839	1	-4
387.035	1	3
388.230	1	10
389.426	1	-6
390.622	1	2
391.817	1	2
393.013	1	4
394.208	1	1
395.404	1	-3
396.599	1	-14
397.795	1	2
398.990	1	-11
400.186	1	-6
401.381	1	0
402.576	1	5
403.771	1	5
404.967	1	6
406.162	1	11
407.357	1	-3
408.552	1	-3
409.747	1	-2
410.942	1	8
412.137	1	5
413.332	1	2
414.526	1	-3
415.721	1	10
416.916	1	-8
418.111	1	-2
419.305	1	-5
420.500	1	-5
421.695	1	-3
422.889	1	-9
424.084	1	0
425.278	1	7
426.472	1	4
427.667	1	0
428.861	1	-6
430.055	1	10
431.250	1	3
432.444	1	7
433.638	1	-5
434.832	1	3
436.026	1	9
437.220	1	0
438.414	1	-4
439.608	1	-15
440.802	1	-1
441.996	1	2
443.190	1	9
444.384	1	-14
445.578	1	-11
446.771	1	4
447.965	1	5
449.159	1	-4
450.352	1	-1
451.546	1	0
452.739	1	0
453.933	1	3
455.126	1	1
456.320	1	1
457.513	1	7
458.706	1	3
459.899	1	5
461.093	1	0
462.286	1	-1
463.479	1	-3
464.672	1	4
465.865	1	-4
467.058	1	-2
468.251	1	1
469.444	1	1
470.637	1	7
471.830	1	1
473.023	1	9
474.215	1	5
475.408	1	9
476.601	1	2
477.793	1	5
478.986	1	-4
480.179	1	-7
481.371	1	10
482.564	1	5
483.756	1	5
484.948	1	-6
486.141	1	3
487.333	1	3
488.525	1	-4
489.718	1	-2
490.910	1	10
492.102	1	-10
493.294	1	-11
494.486	1	3
495.678	1	1
496.870	1	10
498.062	1	-4
499.254	1	-3
500.446	1	-9
501.638	1	-4
502.829	1	2
504.021	1	-11
505.213	1	9
506.404	1	4
507.596	1	3
508.788	1	12
509.979	1	-1
511.171	1	-4
512.362	1	-5
513.553	1	-6
514.745	1	0
515.936	1	1
517.127	1	1
518.319	1	-5
519.510	1	7
520.701	1	1
521.892	1	-8
523.083	1	-4
524.274	1	3
525.465	1	5
526.656	1	1
527.847	1	-5
529.038	1	4
530.229	1	7
531.419	1	10
532.610	1	0
533.801	1	13
534.991	1	1
536.182	1	0
537.373	1	-1
538.563	1	8
539.754	1	11
540.944	1	-3
542.134	1	6
543.325	1	2
544.515	1	-4
545.705	1	-4
546.896	1	6
548.086	1	-3
549.276	1	-2
550.466	1	2
551.656	1	5
552.846	1	6
554.036	1	0
555.226	1	-8
556.416	1	-4
557.606	1	7
558.796	1	7
559.986	1	-3
561.175	1	0
562.365	1	6
563.555	1	-9
564.744	1	0
565.934	1	4
567.123	1	1
568.313	1	4
569.502	1	-3
570.692	1	4
571.881	1	11
573.070	1	-4
574.260	1	5
575.449	1	-7
576.638	1	2
577.827	1	3
579.016	1	8
580.205	1	5
581.394	1	0
582.583	1	7
583.772	1	5
584.961	1	8
586.150	1	1
587.339	1	3
588.528	1	2
589.717	1	5
590.905	1	-2
592.094	1	-3
593.283	1	4
594.471	1	9
595.660	1	3
596.848	1	3
598.037	1	3
599.225	1	-3
600.413	1	8
601.602	1	9
602.790	1	0
603.978	1	1
605.166	1	0
606.355	1	6
607.543	1	-3
608.731	1	-7
609.919	1	5
611.107	1	4
612.295	1	-8
613.483	1	5
614.671	1	0
615.858	1	6
617.046	1	-1
618.234	1	-5
619.422	1	-3
620.609	1	7
621.797	1	-1
622.985	1	-2
624.172	1	1
625.360	1	8
626.547	1	6
627.735	1	6
628.922	1	10
630.109	1	-6
631.297	1	-9
632.484	1	0
633.671	1	0
634.858	1	-1
636.045	1	9
637.232	1	-2
638.419	1	0
639.606	1	10
640.793	1	12
641.980	1	11
643.167	1	1
644.354	1	5
645.541	1	5
646.728	1	2
647.914	1	-2
649.101	1	-9
650.288	1	11
651.474	1	-2
652.661	1	-5
653.847	1	4
655.034	1	1
656.220	1	-2
657.406	1	2
658.593	1	11
659.779	1	-2
660.965	1	12
662.152	1	4
663.338	1	8
664.524	1	-1
665.710	1	0
666.896	1	-5
668.082	1	6
669.268	1	-1
670.454	1	2
671.640	1	-3
672.826	1	-9
674.011	1	4
675.197	1	-8
676.383	1	9
677.569	1	1
678.754	1	-5
679.940	1	1
681.125	1	0
682.311	1	5
683.496	1	0
684.682	1	-3
685.867	1	3
687.053	1	-1
688.238	1	4
688.746	1	1