File: Data/GaN_200K_800ms/GaN_sample F_spot 12_UVVIS_200 K_200um_800 ms 2x2mm1_511.txt
340.368	1	1
341.565	1	-12
342.763	1	5
343.960	1	3
345.157	1	-5
346.354	1	-5
347.552	1	-4
348.749	1	-10
349.946	1	-6
351.143	1	-7
352.340	1	3
353.537	1	0
354.734	1	7
355.931	1	-8
357.127	1	-3
358.324	1	-8
359.521	1	9
360.718	1	-2
361.914	1	6
363.111	1	-1
364.308	1	-3
365.504	1	17
366.701	1	10
367.897	1	6
369.093	1	9
370.290	1	-1
371.486	1	10
372.682	1	2
373.879	1	4
375.075	1	-2
376.271	1	8
377.467	1	7
378.663	1	-13
379.859	1	3
381.055	1	9
382.251	1	-7
383.447	1	2
384.643	1	0
385.839	1	0
387.035	1	2
388.230	1	10
389.426	1	-2
390.622	1	-7
391.817	1	0
393.013	1	-5
394.208	1	3
395.404	1	-2
396.599	1	2
397.795	1	-4
398.990	1	-1
400.186	1	0
401.381	1	-6
402.576	1	-4
403.771	1	5
404.967	1	-7
406.162	1	6
407.357	1	-6
408.552	1	-15
409.747	1	-7
410.942	1	9
412.137	1	0
413.332	1	2
414.526	1	-11
415.721	1	-2
416.916	1	-6
418.111	1	-3
419.305	1	3
420.500	1	1
421.695	1	0
422.889	1	-13
424.084	1	6
425.278	1	-1
426.472	1	5
427.667	1	1
428.861	1	2
430.055	1	1
431.250	1	-3
432.444	1	5
433.638	1	-6
434.832	1	-2
436.026	1	8
437.220	1	9
438.414	1	-18
439.608	1	-10
440.802	1	-4
441.996	1	1
443.190	1	0
444.384	1	-12
445.578	1	-15
446.771	1	13
447.965	1	0
449.159	1	-5
450.352	1	-4
451.546	1	-4
452.739	1	3
453.933	1	1
455.126	1	-1
456.320	1	-7
457.513	1	5
458.706	1	8
459.899	1	-2
461.093	1	1
462.286	1	-5
463.479	1	-1
464.672	1	5
465.865	1	-5
467.058	1	-9
468.251	1	3
469.444	1	-9
470.637	1	0
471.830	1	1
473.023	1	5
474.215	1	10
475.408	1	6
476.601	1	6
477.793	1	-4
478.986	1	-10
480.179	1	9
481.371	1	-13
482.564	1	0
483.756	1	8
484.948	1	-7
486.141	1	-10
487.333	1	4
488.525	1	2
489.718	1	-3
490.910	1	-4
492.102	1	-7
493.294	1	-7
494.486	1	-3
495.678	1	-1
496.870	1	14
498.062	1	-2
499.254	1	-6
500.446	1	-7
501.638	1	-3
502.829	1	-4
504.021	1	-1
505.213	1	7
506.404	1	1
507.596	1	3
508.788	1	13
509.979	1	8
511.171	1	0
512.362	1	-6
513.553	1	-12
514.745	1	-11
515.936	1	0
517.127	1	-4
518.319	1	-6
519.510	1	-8
520.701	1	1
521.892	1	-9
523.083	1	-8
524.274	1	1
525.465	1	7
526.656	1	-8
527.847	1	4
529.038	1	-1
530.229	1	1
531.419	1	1
532.610	1	-5
533.801	1	15
534.991	1	-3
536.182	1	2
537.373	1	-1
538.563	1	-5
539.754	1	3
540.944	1	-9
542.134	1	5
543.325	1	0
544.515	1	1
545.705	1	3
546.896	1	1
548.086	1	-6
549.276	1	-2
550.466	1	-6
551.656	1	1
552.846	1	-6
554.036	1	-11
555.226	1	-9
556.416	1	-1
557.606	1	-2
558.796	1	-1
559.986	1	-7
561.175	1	-1
562.365	1	1
563.555	1	2
564.744	1	5
565.934	1	7
567.123	1	10
568.313	1	7
569.502	1	1
570.692	1	0
571.881	1	3
573.070	1	6
574.260	1	5
575.449	1	-8
576.638	1	-1
577.827	1	-2
579.016	1	8
580.205	1	-9
581.394	1	-3
582.583	1	12
583.772	1	8
584.961	1	8
586.150	1	-11
587.339	1	6
588.528	1	1
589.717	1	-5
590.905	1	-6
592.094	1	2
593.283	1	-6
594.471	1	7
595.660	1	2
596.848	1	0
598.037	1	-1
599.225	1	-4
600.413	1	14
601.602	1	7
602.790	1	-6
603.978	1	1
605.166	1	2
606.355	1	12
607.543	1	4
608.731	1	1
609.919	1	9
611.107	1	-1
612.295	1	-15
613.483	1	2
614.671	1	-2
615.858	1	2
617.046	1	4
618.234	1	-9
619.422	1	-6
620.609	1	6
621.797	1	-7
622.985	1	-3
624.172	1	3
625.360	1	0
626.547	1	-2
627.735	1	-1
628.922	1	8
630.109	1	-10
631.297	1	3
632.484	1	-2
633.671	1	-3
634.858	1	-6
636.045	1	6
637.232	1	-8
638.419	1	4
639.606	1	-6
640.793	1	9
641.980	1	-3
643.167	1	-5
644.354	1	0
645.541	1	5
646.728	1	1
647.914	1	-4
649.101	1	1
650.288	1	6
651.474	1	-7
652.661	1	-5
653.847	1	10
655.034	1	7
656.220	1	-7
657.406	1	1
658.593	1	3
659.779	1	-7
660.965	1	5
662.152	1	5
663.338	1	8
664.524	1	1
665.710	1	-5
666.896	1	-3
668.082	1	1
669.268	1	-4
670.454	1	-1
671.640	1	-1
672.826	1	-3
674.011	1	-7
675.197	1	-11
676.383	1	-7
677.569	1	-13
678.754	1	-4
679.940	1	0
681.125	1	-2
682.311	1	8
683.496	1	3
684.682	1	-6
685.867	1	-2
687.053	1	0
688.238	1	0
688.746	1	0