File: Data/GaN_200K_800ms/GaN_sample F_spot 12_UVVIS_200 K_200um_800 ms 2x2mm1_80.txt
340.368	1	4
341.565	1	-6
342.763	1	5
343.960	1	7
345.157	1	3
346.354	1	11
347.552	1	-6
348.749	1	1
349.946	1	6
351.143	1	-3
352.340	1	9
353.537	1	7
354.734	1	9
355.931	1	11
357.127	1	12
358.324	1	14
359.521	1	32
360.718	1	39
361.914	1	39
363.111	1	49
364.308	1	66
365.504	1	80
366.701	1	115
367.897	1	132
369.093	1	139
370.290	1	140
371.486	1	141
372.682	1	116
373.879	1	92
375.075	1	82
376.271	1	76
377.467	1	57
378.663	1	54
379.859	1	51
381.055	1	42
382.251	1	31
383.447	1	29
384.643	1	42
385.839	1	21
387.035	1	15
388.230	1	30
389.426	1	16
390.622	1	13
391.817	1	17
393.013	1	12
394.208	1	8
395.404	1	3
396.599	1	4
397.795	1	11
398.990	1	6
400.186	1	15
401.381	1	4
402.576	1	-1
403.771	1	12
404.967	1	2
406.162	1	9
407.357	1	9
408.552	1	-8
409.747	1	2
410.942	1	15
412.137	1	10
413.332	1	5
414.526	1	3
415.721	1	13
416.916	1	-1
418.111	1	10
419.305	1	7
420.500	1	3
421.695	1	-6
422.889	1	-5
424.084	1	3
425.278	1	10
426.472	1	-1
427.667	1	6
428.861	1	0
430.055	1	-3
431.250	1	-10
432.444	1	14
433.638	1	-7
434.832	1	13
436.026	1	12
437.220	1	6
438.414	1	-10
439.608	1	-4
440.802	1	4
441.996	1	7
443.190	1	-3
444.384	1	5
445.578	1	0
446.771	1	17
447.965	1	8
449.159	1	1
450.352	1	-2
451.546	1	-4
452.739	1	2
453.933	1	3
455.126	1	1
456.320	1	2
457.513	1	0
458.706	1	12
459.899	1	1
461.093	1	-3
462.286	1	7
463.479	1	-2
464.672	1	3
465.865	1	-5
467.058	1	-4
468.251	1	-3
469.444	1	-7
470.637	1	9
471.830	1	2
473.023	1	6
474.215	1	18
475.408	1	-3
476.601	1	-5
477.793	1	4
478.986	1	2
480.179	1	1
481.371	1	9
482.564	1	12
483.756	1	13
484.948	1	-1
486.141	1	3
487.333	1	0
488.525	1	5
489.718	1	7
490.910	1	-1
492.102	1	-2
493.294	1	2
494.486	1	7
495.678	1	2
496.870	1	7
498.062	1	11
499.254	1	7
500.446	1	-2
501.638	1	-2
502.829	1	12
504.021	1	-2
505.213	1	19
506.404	1	14
507.596	1	14
508.788	1	20
509.979	1	5
511.171	1	1
512.362	1	9
513.553	1	-1
514.745	1	10
515.936	1	0
517.127	1	9
518.319	1	11
519.510	1	10
520.701	1	12
521.892	1	12
523.083	1	4
524.274	1	9
525.465	1	22
526.656	1	8
527.847	1	10
529.038	1	21
530.229	1	10
531.419	1	16
532.610	1	8
533.801	1	16
534.991	1	23
536.182	1	21
537.373	1	12
538.563	1	22
539.754	1	21
540.944	1	13
542.134	1	22
543.325	1	20
544.515	1	4
545.705	1	16
546.896	1	9
548.086	1	16
549.276	1	9
550.466	1	19
551.656	1	23
552.846	1	14
554.036	1	14
555.226	1	9
556.416	1	13
557.606	1	18
558.796	1	10
559.986	1	8
561.175	1	12
562.365	1	16
563.555	1	8
564.744	1	25
565.934	1	17
567.123	1	15
568.313	1	20
569.502	1	9
570.692	1	19
571.881	1	22
573.070	1	11
574.260	1	25
575.449	1	16
576.638	1	7
577.827	1	13
579.016	1	25
580.205	1	14
581.394	1	14
582.583	1	32
583.772	1	19
584.961	1	25
586.150	1	13
587.339	1	15
588.528	1	19
589.717	1	17
590.905	1	11
592.094	1	12
593.283	1	16
594.471	1	19
595.660	1	12
596.848	1	12
598.037	1	8
599.225	1	2
600.413	1	22
601.602	1	22
602.790	1	13
603.978	1	18
605.166	1	10
606.355	1	14
607.543	1	12
608.731	1	17
609.919	1	17
611.107	1	9
612.295	1	4
613.483	1	12
614.671	1	12
615.858	1	13
617.046	1	6
618.234	1	15
619.422	1	-3
620.609	1	11
621.797	1	9
622.985	1	11
624.172	1	6
625.360	1	14
626.547	1	9
627.735	1	9
628.922	1	7
630.109	1	3
631.297	1	4
632.484	1	4
633.671	1	7
634.858	1	8
636.045	1	23
637.232	1	2
638.419	1	11
639.606	1	13
640.793	1	15
641.980	1	14
643.167	1	8
644.354	1	9
645.541	1	18
646.728	1	8
647.914	1	8
649.101	1	1
650.288	1	5
651.474	1	7
652.661	1	5
653.847	1	12
655.034	1	11
656.220	1	1
657.406	1	11
658.593	1	17
659.779	1	4
660.965	1	10
662.152	1	13
663.338	1	18
664.524	1	5
665.710	1	10
666.896	1	-3
668.082	1	4
669.268	1	9
670.454	1	10
671.640	1	9
672.826	1	1
674.011	1	7
675.197	1	-5
676.383	1	14
677.569	1	4
678.754	1	-4
679.940	1	0
681.125	1	10
682.311	1	10
683.496	1	8
684.682	1	-8
685.867	1	20
687.053	1	3
688.238	1	12
688.746	1	15