File: Data/GaN_200K_800ms/GaN_sample F_spot 12_UVVIS_200 K_200um_800 ms 2x2mm1_316.txt
340.368	1	-6
341.565	1	-8
342.763	1	4
343.960	1	5
345.157	1	-7
346.354	1	-4
347.552	1	-2
348.749	1	-17
349.946	1	-7
351.143	1	-3
352.340	1	4
353.537	1	4
354.734	1	0
355.931	1	7
357.127	1	5
358.324	1	0
359.521	1	5
360.718	1	0
361.914	1	5
363.111	1	6
364.308	1	9
365.504	1	9
366.701	1	17
367.897	1	21
369.093	1	4
370.290	1	16
371.486	1	22
372.682	1	15
373.879	1	7
375.075	1	9
376.271	1	8
377.467	1	8
378.663	1	-1
379.859	1	-2
381.055	1	4
382.251	1	-1
383.447	1	-2
384.643	1	2
385.839	1	1
387.035	1	3
388.230	1	15
389.426	1	4
390.622	1	5
391.817	1	2
393.013	1	-5
394.208	1	2
395.404	1	5
396.599	1	0
397.795	1	9
398.990	1	-5
400.186	1	-1
401.381	1	1
402.576	1	1
403.771	1	-1
404.967	1	-2
406.162	1	4
407.357	1	-1
408.552	1	-9
409.747	1	4
410.942	1	8
412.137	1	3
413.332	1	0
414.526	1	-2
415.721	1	2
416.916	1	3
418.111	1	3
419.305	1	11
420.500	1	-3
421.695	1	1
422.889	1	-10
424.084	1	-9
425.278	1	11
426.472	1	4
427.667	1	10
428.861	1	3
430.055	1	6
431.250	1	-3
432.444	1	2
433.638	1	0
434.832	1	-4
436.026	1	8
437.220	1	-2
438.414	1	-6
439.608	1	-7
440.802	1	-11
441.996	1	1
443.190	1	-2
444.384	1	-11
445.578	1	-11
446.771	1	3
447.965	1	-2
449.159	1	-7
450.352	1	-4
451.546	1	-9
452.739	1	8
453.933	1	-11
455.126	1	3
456.320	1	-2
457.513	1	-1
458.706	1	-9
459.899	1	-1
461.093	1	7
462.286	1	1
463.479	1	-3
464.672	1	3
465.865	1	4
467.058	1	-9
468.251	1	-8
469.444	1	-10
470.637	1	-2
471.830	1	-7
473.023	1	5
474.215	1	4
475.408	1	-5
476.601	1	-1
477.793	1	-5
478.986	1	4
480.179	1	8
481.371	1	8
482.564	1	1
483.756	1	4
484.948	1	-6
486.141	1	0
487.333	1	-3
488.525	1	1
489.718	1	-8
490.910	1	-2
492.102	1	4
493.294	1	-3
494.486	1	6
495.678	1	-4
496.870	1	2
498.062	1	4
499.254	1	-4
500.446	1	-3
501.638	1	-1
502.829	1	5
504.021	1	-3
505.213	1	10
506.404	1	2
507.596	1	4
508.788	1	8
509.979	1	2
511.171	1	-5
512.362	1	-9
513.553	1	-12
514.745	1	6
515.936	1	-4
517.127	1	0
518.319	1	4
519.510	1	7
520.701	1	1
521.892	1	-4
523.083	1	5
524.274	1	7
525.465	1	4
526.656	1	7
527.847	1	0
529.038	1	1
530.229	1	5
531.419	1	1
532.610	1	-7
533.801	1	18
534.991	1	12
536.182	1	4
537.373	1	0
538.563	1	1
539.754	1	8
540.944	1	4
542.134	1	11
543.325	1	5
544.515	1	-1
545.705	1	-3
546.896	1	1
548.086	1	-5
549.276	1	-1
550.466	1	3
551.656	1	12
552.846	1	2
554.036	1	0
555.226	1	-7
556.416	1	-1
557.606	1	5
558.796	1	1
559.986	1	4
561.175	1	0
562.365	1	9
563.555	1	-1
564.744	1	8
565.934	1	4
567.123	1	6
568.313	1	0
569.502	1	0
570.692	1	2
571.881	1	11
573.070	1	3
574.260	1	8
575.449	1	-7
576.638	1	-3
577.827	1	-5
579.016	1	8
580.205	1	2
581.394	1	0
582.583	1	7
583.772	1	4
584.961	1	-3
586.150	1	-1
587.339	1	-2
588.528	1	-2
589.717	1	-1
590.905	1	1
592.094	1	4
593.283	1	5
594.471	1	7
595.660	1	1
596.848	1	-4
598.037	1	-1
599.225	1	-6
600.413	1	5
601.602	1	13
602.790	1	4
603.978	1	1
605.166	1	5
606.355	1	2
607.543	1	-8
608.731	1	1
609.919	1	7
611.107	1	-6
612.295	1	-3
613.483	1	2
614.671	1	-2
615.858	1	8
617.046	1	8
618.234	1	3
619.422	1	-7
620.609	1	6
621.797	1	5
622.985	1	-1
624.172	1	-3
625.360	1	-8
626.547	1	0
627.735	1	-1
628.922	1	-1
630.109	1	-5
631.297	1	3
632.484	1	-9
633.671	1	-6
634.858	1	-2
636.045	1	6
637.232	1	1
638.419	1	-4
639.606	1	4
640.793	1	14
641.980	1	6
643.167	1	-9
644.354	1	14
645.541	1	2
646.728	1	-2
647.914	1	-6
649.101	1	-7
650.288	1	7
651.474	1	-5
652.661	1	-2
653.847	1	4
655.034	1	7
656.220	1	-14
657.406	1	2
658.593	1	1
659.779	1	3
660.965	1	5
662.152	1	2
663.338	1	10
664.524	1	3
665.710	1	1
666.896	1	-9
668.082	1	4
669.268	1	-11
670.454	1	2
671.640	1	-1
672.826	1	3
674.011	1	-1
675.197	1	-11
676.383	1	1
677.569	1	0
678.754	1	-9
679.940	1	-6
681.125	1	7
682.311	1	10
683.496	1	-3
684.682	1	-13
685.867	1	-4
687.053	1	-4
688.238	1	1
688.746	1	3