File: Data/GaN_200K_800ms/GaN_sample F_spot 12_UVVIS_200 K_200um_800 ms 2x2mm1_60.txt
340.368	1	3
341.565	1	-10
342.763	1	11
343.960	1	7
345.157	1	-1
346.354	1	2
347.552	1	-3
348.749	1	0
349.946	1	0
351.143	1	12
352.340	1	12
353.537	1	17
354.734	1	16
355.931	1	17
357.127	1	17
358.324	1	39
359.521	1	42
360.718	1	46
361.914	1	71
363.111	1	81
364.308	1	114
365.504	1	149
366.701	1	202
367.897	1	237
369.093	1	287
370.290	1	280
371.486	1	266
372.682	1	231
373.879	1	180
375.075	1	171
376.271	1	129
377.467	1	110
378.663	1	93
379.859	1	80
381.055	1	79
382.251	1	62
383.447	1	45
384.643	1	54
385.839	1	42
387.035	1	53
388.230	1	31
389.426	1	29
390.622	1	16
391.817	1	33
393.013	1	25
394.208	1	14
395.404	1	17
396.599	1	4
397.795	1	11
398.990	1	13
400.186	1	10
401.381	1	10
402.576	1	5
403.771	1	11
404.967	1	9
406.162	1	10
407.357	1	1
408.552	1	9
409.747	1	9
410.942	1	19
412.137	1	0
413.332	1	18
414.526	1	11
415.721	1	5
416.916	1	1
418.111	1	6
419.305	1	6
420.500	1	-4
421.695	1	3
422.889	1	-5
424.084	1	0
425.278	1	19
426.472	1	7
427.667	1	13
428.861	1	-1
430.055	1	6
431.250	1	0
432.444	1	11
433.638	1	8
434.832	1	5
436.026	1	9
437.220	1	5
438.414	1	-7
439.608	1	-6
440.802	1	1
441.996	1	4
443.190	1	5
444.384	1	-4
445.578	1	-11
446.771	1	20
447.965	1	5
449.159	1	4
450.352	1	3
451.546	1	5
452.739	1	-2
453.933	1	0
455.126	1	-5
456.320	1	-1
457.513	1	8
458.706	1	-1
459.899	1	5
461.093	1	5
462.286	1	4
463.479	1	-1
464.672	1	0
465.865	1	6
467.058	1	-1
468.251	1	10
469.444	1	-1
470.637	1	3
471.830	1	4
473.023	1	2
474.215	1	6
475.408	1	2
476.601	1	-7
477.793	1	-2
478.986	1	1
480.179	1	7
481.371	1	3
482.564	1	11
483.756	1	8
484.948	1	-4
486.141	1	1
487.333	1	3
488.525	1	3
489.718	1	6
490.910	1	9
492.102	1	0
493.294	1	1
494.486	1	14
495.678	1	13
496.870	1	11
498.062	1	12
499.254	1	12
500.446	1	1
501.638	1	12
502.829	1	10
504.021	1	11
505.213	1	17
506.404	1	14
507.596	1	17
508.788	1	23
509.979	1	17
511.171	1	6
512.362	1	12
513.553	1	6
514.745	1	10
515.936	1	13
517.127	1	10
518.319	1	14
519.510	1	10
520.701	1	23
521.892	1	21
523.083	1	14
524.274	1	22
525.465	1	26
526.656	1	20
527.847	1	14
529.038	1	28
530.229	1	24
531.419	1	22
532.610	1	27
533.801	1	37
534.991	1	28
536.182	1	29
537.373	1	29
538.563	1	23
539.754	1	29
540.944	1	14
542.134	1	24
543.325	1	27
544.515	1	29
545.705	1	26
546.896	1	19
548.086	1	28
549.276	1	25
550.466	1	28
551.656	1	35
552.846	1	30
554.036	1	27
555.226	1	25
556.416	1	20
557.606	1	30
558.796	1	27
559.986	1	23
561.175	1	30
562.365	1	39
563.555	1	26
564.744	1	37
565.934	1	35
567.123	1	33
568.313	1	31
569.502	1	13
570.692	1	27
571.881	1	45
573.070	1	29
574.260	1	32
575.449	1	20
576.638	1	25
577.827	1	25
579.016	1	29
580.205	1	27
581.394	1	22
582.583	1	27
583.772	1	38
584.961	1	31
586.150	1	22
587.339	1	36
588.528	1	22
589.717	1	23
590.905	1	18
592.094	1	19
593.283	1	15
594.471	1	27
595.660	1	13
596.848	1	17
598.037	1	14
599.225	1	19
600.413	1	30
601.602	1	28
602.790	1	11
603.978	1	11
605.166	1	18
606.355	1	27
607.543	1	15
608.731	1	14
609.919	1	21
611.107	1	21
612.295	1	15
613.483	1	18
614.671	1	12
615.858	1	12
617.046	1	19
618.234	1	10
619.422	1	4
620.609	1	15
621.797	1	13
622.985	1	13
624.172	1	11
625.360	1	10
626.547	1	16
627.735	1	17
628.922	1	18
630.109	1	3
631.297	1	11
632.484	1	12
633.671	1	13
634.858	1	6
636.045	1	23
637.232	1	6
638.419	1	3
639.606	1	9
640.793	1	23
641.980	1	17
643.167	1	3
644.354	1	2
645.541	1	11
646.728	1	8
647.914	1	6
649.101	1	-2
650.288	1	15
651.474	1	6
652.661	1	7
653.847	1	20
655.034	1	12
656.220	1	5
657.406	1	15
658.593	1	5
659.779	1	9
660.965	1	16
662.152	1	13
663.338	1	7
664.524	1	6
665.710	1	13
666.896	1	-2
668.082	1	13
669.268	1	6
670.454	1	7
671.640	1	4
672.826	1	0
674.011	1	6
675.197	1	8
676.383	1	3
677.569	1	12
678.754	1	1
679.940	1	10
681.125	1	23
682.311	1	8
683.496	1	17
684.682	1	-3
685.867	1	6
687.053	1	11
688.238	1	8
688.746	1	5