File: Data/GaN_200K_800ms/GaN_sample F_spot 12_UVVIS_200 K_200um_800 ms 2x2mm1_152.txt
340.368	1	4
341.565	1	-9
342.763	1	7
343.960	1	7
345.157	1	1
346.354	1	2
347.552	1	-5
348.749	1	-3
349.946	1	-1
351.143	1	0
352.340	1	15
353.537	1	-2
354.734	1	13
355.931	1	11
357.127	1	7
358.324	1	2
359.521	1	13
360.718	1	12
361.914	1	12
363.111	1	24
364.308	1	12
365.504	1	34
366.701	1	39
367.897	1	53
369.093	1	48
370.290	1	54
371.486	1	55
372.682	1	47
373.879	1	26
375.075	1	31
376.271	1	29
377.467	1	12
378.663	1	18
379.859	1	9
381.055	1	25
382.251	1	5
383.447	1	11
384.643	1	17
385.839	1	5
387.035	1	13
388.230	1	21
389.426	1	6
390.622	1	-5
391.817	1	-1
393.013	1	0
394.208	1	4
395.404	1	3
396.599	1	7
397.795	1	3
398.990	1	-1
400.186	1	4
401.381	1	3
402.576	1	4
403.771	1	15
404.967	1	0
406.162	1	11
407.357	1	1
408.552	1	5
409.747	1	1
410.942	1	12
412.137	1	3
413.332	1	-2
414.526	1	6
415.721	1	3
416.916	1	-5
418.111	1	2
419.305	1	3
420.500	1	-1
421.695	1	-6
422.889	1	-8
424.084	1	-1
425.278	1	3
426.472	1	-2
427.667	1	-1
428.861	1	0
430.055	1	5
431.250	1	-3
432.444	1	13
433.638	1	-3
434.832	1	8
436.026	1	15
437.220	1	13
438.414	1	-7
439.608	1	-1
440.802	1	-12
441.996	1	6
443.190	1	1
444.384	1	-15
445.578	1	-11
446.771	1	7
447.965	1	2
449.159	1	-2
450.352	1	0
451.546	1	-3
452.739	1	2
453.933	1	-1
455.126	1	-9
456.320	1	6
457.513	1	9
458.706	1	-1
459.899	1	-2
461.093	1	2
462.286	1	0
463.479	1	-4
464.672	1	6
465.865	1	1
467.058	1	2
468.251	1	-3
469.444	1	-8
470.637	1	9
471.830	1	1
473.023	1	4
474.215	1	8
475.408	1	10
476.601	1	6
477.793	1	5
478.986	1	-3
480.179	1	3
481.371	1	8
482.564	1	6
483.756	1	9
484.948	1	-4
486.141	1	1
487.333	1	2
488.525	1	-5
489.718	1	-5
490.910	1	2
492.102	1	3
493.294	1	2
494.486	1	3
495.678	1	8
496.870	1	12
498.062	1	4
499.254	1	2
500.446	1	-3
501.638	1	-1
502.829	1	0
504.021	1	1
505.213	1	7
506.404	1	10
507.596	1	0
508.788	1	10
509.979	1	2
511.171	1	0
512.362	1	4
513.553	1	-2
514.745	1	-2
515.936	1	7
517.127	1	2
518.319	1	-2
519.510	1	11
520.701	1	6
521.892	1	7
523.083	1	2
524.274	1	7
525.465	1	9
526.656	1	8
527.847	1	6
529.038	1	7
530.229	1	6
531.419	1	6
532.610	1	2
533.801	1	10
534.991	1	10
536.182	1	1
537.373	1	10
538.563	1	13
539.754	1	8
540.944	1	1
542.134	1	13
543.325	1	10
544.515	1	2
545.705	1	8
546.896	1	-1
548.086	1	9
549.276	1	13
550.466	1	15
551.656	1	7
552.846	1	12
554.036	1	5
555.226	1	3
556.416	1	2
557.606	1	4
558.796	1	6
559.986	1	-6
561.175	1	7
562.365	1	8
563.555	1	1
564.744	1	14
565.934	1	18
567.123	1	0
568.313	1	7
569.502	1	2
570.692	1	9
571.881	1	20
573.070	1	8
574.260	1	18
575.449	1	11
576.638	1	0
577.827	1	-3
579.016	1	15
580.205	1	7
581.394	1	-5
582.583	1	13
583.772	1	12
584.961	1	11
586.150	1	5
587.339	1	-2
588.528	1	9
589.717	1	8
590.905	1	4
592.094	1	9
593.283	1	1
594.471	1	10
595.660	1	9
596.848	1	6
598.037	1	4
599.225	1	-3
600.413	1	11
601.602	1	15
602.790	1	5
603.978	1	0
605.166	1	9
606.355	1	1
607.543	1	-2
608.731	1	4
609.919	1	11
611.107	1	3
612.295	1	-1
613.483	1	13
614.671	1	9
615.858	1	9
617.046	1	3
618.234	1	9
619.422	1	-4
620.609	1	13
621.797	1	7
622.985	1	8
624.172	1	-8
625.360	1	3
626.547	1	-5
627.735	1	8
628.922	1	-3
630.109	1	-9
631.297	1	-1
632.484	1	-3
633.671	1	-5
634.858	1	-5
636.045	1	16
637.232	1	-1
638.419	1	-1
639.606	1	12
640.793	1	5
641.980	1	14
643.167	1	8
644.354	1	0
645.541	1	2
646.728	1	0
647.914	1	-2
649.101	1	-1
650.288	1	15
651.474	1	-1
652.661	1	1
653.847	1	6
655.034	1	3
656.220	1	0
657.406	1	7
658.593	1	-1
659.779	1	7
660.965	1	10
662.152	1	4
663.338	1	15
664.524	1	3
665.710	1	-1
666.896	1	5
668.082	1	-3
669.268	1	6
670.454	1	0
671.640	1	10
672.826	1	3
674.011	1	4
675.197	1	-1
676.383	1	2
677.569	1	6
678.754	1	-1
679.940	1	2
681.125	1	1
682.311	1	9
683.496	1	0
684.682	1	-2
685.867	1	5
687.053	1	3
688.238	1	5
688.746	1	-5