File: Data/GaN_200K_800ms/GaN_sample F_spot 12_UVVIS_200 K_200um_800 ms 2x2mm1_234.txt
340.368	1	1
341.565	1	2
342.763	1	3
343.960	1	-1
345.157	1	-5
346.354	1	12
347.552	1	-4
348.749	1	-8
349.946	1	-3
351.143	1	-1
352.340	1	2
353.537	1	2
354.734	1	-1
355.931	1	2
357.127	1	-3
358.324	1	5
359.521	1	5
360.718	1	10
361.914	1	11
363.111	1	-3
364.308	1	4
365.504	1	10
366.701	1	18
367.897	1	28
369.093	1	29
370.290	1	29
371.486	1	31
372.682	1	19
373.879	1	13
375.075	1	9
376.271	1	15
377.467	1	12
378.663	1	9
379.859	1	15
381.055	1	9
382.251	1	4
383.447	1	3
384.643	1	12
385.839	1	2
387.035	1	0
388.230	1	12
389.426	1	8
390.622	1	-1
391.817	1	-2
393.013	1	-3
394.208	1	1
395.404	1	-6
396.599	1	-4
397.795	1	4
398.990	1	-3
400.186	1	5
401.381	1	-3
402.576	1	0
403.771	1	3
404.967	1	-2
406.162	1	0
407.357	1	-6
408.552	1	-9
409.747	1	5
410.942	1	1
412.137	1	5
413.332	1	2
414.526	1	-3
415.721	1	2
416.916	1	-10
418.111	1	-13
419.305	1	-3
420.500	1	-6
421.695	1	-2
422.889	1	-14
424.084	1	2
425.278	1	1
426.472	1	-4
427.667	1	4
428.861	1	0
430.055	1	1
431.250	1	-9
432.444	1	12
433.638	1	2
434.832	1	1
436.026	1	-1
437.220	1	8
438.414	1	-6
439.608	1	-9
440.802	1	-11
441.996	1	0
443.190	1	5
444.384	1	-8
445.578	1	-8
446.771	1	6
447.965	1	-7
449.159	1	-2
450.352	1	-1
451.546	1	-8
452.739	1	12
453.933	1	-3
455.126	1	-4
456.320	1	-1
457.513	1	2
458.706	1	2
459.899	1	-6
461.093	1	10
462.286	1	2
463.479	1	-1
464.672	1	3
465.865	1	-3
467.058	1	-6
468.251	1	5
469.444	1	-7
470.637	1	-8
471.830	1	-1
473.023	1	0
474.215	1	12
475.408	1	6
476.601	1	2
477.793	1	-9
478.986	1	2
480.179	1	1
481.371	1	6
482.564	1	8
483.756	1	11
484.948	1	-5
486.141	1	-2
487.333	1	1
488.525	1	5
489.718	1	5
490.910	1	-5
492.102	1	-2
493.294	1	-2
494.486	1	-1
495.678	1	-1
496.870	1	7
498.062	1	4
499.254	1	2
500.446	1	-9
501.638	1	-3
502.829	1	-3
504.021	1	2
505.213	1	14
506.404	1	8
507.596	1	2
508.788	1	9
509.979	1	-3
511.171	1	2
512.362	1	0
513.553	1	-8
514.745	1	1
515.936	1	9
517.127	1	1
518.319	1	11
519.510	1	8
520.701	1	1
521.892	1	4
523.083	1	0
524.274	1	1
525.465	1	10
526.656	1	3
527.847	1	4
529.038	1	6
530.229	1	11
531.419	1	3
532.610	1	-6
533.801	1	14
534.991	1	0
536.182	1	-5
537.373	1	7
538.563	1	5
539.754	1	1
540.944	1	-5
542.134	1	14
543.325	1	1
544.515	1	3
545.705	1	-4
546.896	1	-2
548.086	1	0
549.276	1	1
550.466	1	5
551.656	1	4
552.846	1	1
554.036	1	8
555.226	1	-10
556.416	1	-1
557.606	1	1
558.796	1	-5
559.986	1	-2
561.175	1	-7
562.365	1	4
563.555	1	0
564.744	1	8
565.934	1	5
567.123	1	-2
568.313	1	10
569.502	1	10
570.692	1	5
571.881	1	17
573.070	1	8
574.260	1	12
575.449	1	-5
576.638	1	1
577.827	1	0
579.016	1	12
580.205	1	-4
581.394	1	3
582.583	1	16
583.772	1	15
584.961	1	9
586.150	1	2
587.339	1	5
588.528	1	8
589.717	1	5
590.905	1	4
592.094	1	2
593.283	1	-4
594.471	1	6
595.660	1	0
596.848	1	11
598.037	1	2
599.225	1	-8
600.413	1	6
601.602	1	8
602.790	1	0
603.978	1	2
605.166	1	10
606.355	1	6
607.543	1	2
608.731	1	7
609.919	1	14
611.107	1	6
612.295	1	-3
613.483	1	11
614.671	1	4
615.858	1	0
617.046	1	5
618.234	1	-10
619.422	1	-3
620.609	1	1
621.797	1	-4
622.985	1	13
624.172	1	-8
625.360	1	1
626.547	1	2
627.735	1	2
628.922	1	8
630.109	1	-3
631.297	1	-6
632.484	1	-8
633.671	1	5
634.858	1	-6
636.045	1	9
637.232	1	-4
638.419	1	4
639.606	1	12
640.793	1	9
641.980	1	1
643.167	1	1
644.354	1	8
645.541	1	4
646.728	1	3
647.914	1	1
649.101	1	-4
650.288	1	-5
651.474	1	4
652.661	1	-2
653.847	1	7
655.034	1	7
656.220	1	-1
657.406	1	1
658.593	1	8
659.779	1	2
660.965	1	1
662.152	1	5
663.338	1	2
664.524	1	-7
665.710	1	6
666.896	1	0
668.082	1	5
669.268	1	5
670.454	1	7
671.640	1	5
672.826	1	1
674.011	1	-4
675.197	1	-13
676.383	1	5
677.569	1	-6
678.754	1	-2
679.940	1	4
681.125	1	11
682.311	1	11
683.496	1	-8
684.682	1	-1
685.867	1	0
687.053	1	-1
688.238	1	7
688.746	1	0