File: Data/GaN_200K_800ms/GaN_sample F_spot 12_UVVIS_200 K_200um_800 ms 2x2mm1_201.txt
340.368	1	0
341.565	1	-6
342.763	1	6
343.960	1	6
345.157	1	-3
346.354	1	0
347.552	1	-12
348.749	1	-7
349.946	1	-1
351.143	1	-11
352.340	1	13
353.537	1	-3
354.734	1	4
355.931	1	9
357.127	1	6
358.324	1	8
359.521	1	8
360.718	1	12
361.914	1	16
363.111	1	10
364.308	1	8
365.504	1	28
366.701	1	25
367.897	1	33
369.093	1	28
370.290	1	37
371.486	1	35
372.682	1	31
373.879	1	29
375.075	1	17
376.271	1	28
377.467	1	27
378.663	1	11
379.859	1	13
381.055	1	6
382.251	1	0
383.447	1	1
384.643	1	15
385.839	1	-1
387.035	1	7
388.230	1	7
389.426	1	-2
390.622	1	0
391.817	1	7
393.013	1	10
394.208	1	4
395.404	1	0
396.599	1	0
397.795	1	5
398.990	1	6
400.186	1	-5
401.381	1	1
402.576	1	-1
403.771	1	6
404.967	1	0
406.162	1	6
407.357	1	2
408.552	1	0
409.747	1	2
410.942	1	12
412.137	1	3
413.332	1	7
414.526	1	-2
415.721	1	1
416.916	1	-6
418.111	1	0
419.305	1	3
420.500	1	-6
421.695	1	-9
422.889	1	-5
424.084	1	-1
425.278	1	13
426.472	1	1
427.667	1	5
428.861	1	-8
430.055	1	5
431.250	1	-1
432.444	1	5
433.638	1	-4
434.832	1	2
436.026	1	-3
437.220	1	3
438.414	1	-6
439.608	1	-8
440.802	1	-10
441.996	1	-3
443.190	1	2
444.384	1	-8
445.578	1	-13
446.771	1	15
447.965	1	-1
449.159	1	-10
450.352	1	-8
451.546	1	-3
452.739	1	9
453.933	1	4
455.126	1	-5
456.320	1	-2
457.513	1	4
458.706	1	1
459.899	1	-3
461.093	1	3
462.286	1	7
463.479	1	2
464.672	1	-7
465.865	1	-5
467.058	1	-4
468.251	1	2
469.444	1	-8
470.637	1	-3
471.830	1	-1
473.023	1	-4
474.215	1	17
475.408	1	-3
476.601	1	2
477.793	1	-12
478.986	1	-3
480.179	1	5
481.371	1	16
482.564	1	3
483.756	1	1
484.948	1	-9
486.141	1	0
487.333	1	0
488.525	1	-5
489.718	1	7
490.910	1	2
492.102	1	-1
493.294	1	-4
494.486	1	5
495.678	1	4
496.870	1	4
498.062	1	-1
499.254	1	0
500.446	1	-9
501.638	1	-3
502.829	1	-2
504.021	1	4
505.213	1	2
506.404	1	4
507.596	1	3
508.788	1	9
509.979	1	-6
511.171	1	7
512.362	1	2
513.553	1	-15
514.745	1	-2
515.936	1	0
517.127	1	-3
518.319	1	8
519.510	1	2
520.701	1	3
521.892	1	7
523.083	1	-3
524.274	1	-3
525.465	1	0
526.656	1	4
527.847	1	5
529.038	1	2
530.229	1	1
531.419	1	5
532.610	1	-3
533.801	1	8
534.991	1	4
536.182	1	-4
537.373	1	6
538.563	1	-3
539.754	1	12
540.944	1	-2
542.134	1	9
543.325	1	-4
544.515	1	-6
545.705	1	3
546.896	1	-3
548.086	1	3
549.276	1	3
550.466	1	13
551.656	1	8
552.846	1	-2
554.036	1	0
555.226	1	-3
556.416	1	0
557.606	1	24
558.796	1	15
559.986	1	-1
561.175	1	9
562.365	1	5
563.555	1	-3
564.744	1	4
565.934	1	9
567.123	1	8
568.313	1	9
569.502	1	4
570.692	1	6
571.881	1	9
573.070	1	-5
574.260	1	10
575.449	1	1
576.638	1	0
577.827	1	-3
579.016	1	2
580.205	1	6
581.394	1	2
582.583	1	17
583.772	1	8
584.961	1	0
586.150	1	-3
587.339	1	0
588.528	1	3
589.717	1	11
590.905	1	2
592.094	1	0
593.283	1	-1
594.471	1	13
595.660	1	-3
596.848	1	3
598.037	1	-2
599.225	1	2
600.413	1	10
601.602	1	14
602.790	1	-2
603.978	1	0
605.166	1	9
606.355	1	1
607.543	1	-4
608.731	1	4
609.919	1	11
611.107	1	1
612.295	1	2
613.483	1	-2
614.671	1	4
615.858	1	0
617.046	1	3
618.234	1	0
619.422	1	-3
620.609	1	8
621.797	1	3
622.985	1	2
624.172	1	-4
625.360	1	-1
626.547	1	4
627.735	1	7
628.922	1	4
630.109	1	-7
631.297	1	2
632.484	1	-3
633.671	1	-2
634.858	1	-5
636.045	1	15
637.232	1	-5
638.419	1	-1
639.606	1	4
640.793	1	3
641.980	1	7
643.167	1	-3
644.354	1	-3
645.541	1	5
646.728	1	0
647.914	1	0
649.101	1	-2
650.288	1	-2
651.474	1	-6
652.661	1	-7
653.847	1	3
655.034	1	6
656.220	1	-10
657.406	1	5
658.593	1	3
659.779	1	1
660.965	1	7
662.152	1	-5
663.338	1	8
664.524	1	6
665.710	1	-5
666.896	1	-1
668.082	1	10
669.268	1	-2
670.454	1	11
671.640	1	2
672.826	1	5
674.011	1	-2
675.197	1	-4
676.383	1	6
677.569	1	-12
678.754	1	2
679.940	1	-6
681.125	1	3
682.311	1	11
683.496	1	8
684.682	1	-6
685.867	1	-6
687.053	1	-5
688.238	1	14
688.746	1	-2