File: Data/GaN_200K_800ms/GaN_sample F_spot 12_UVVIS_200 K_200um_800 ms 2x2mm1_52.txt
340.368	1	11
341.565	1	8
342.763	1	22
343.960	1	14
345.157	1	1
346.354	1	0
347.552	1	-2
348.749	1	4
349.946	1	5
351.143	1	3
352.340	1	19
353.537	1	19
354.734	1	18
355.931	1	13
357.127	1	29
358.324	1	29
359.521	1	55
360.718	1	66
361.914	1	83
363.111	1	109
364.308	1	161
365.504	1	228
366.701	1	295
367.897	1	367
369.093	1	410
370.290	1	434
371.486	1	411
372.682	1	346
373.879	1	270
375.075	1	228
376.271	1	187
377.467	1	160
378.663	1	125
379.859	1	109
381.055	1	104
382.251	1	79
383.447	1	73
384.643	1	65
385.839	1	57
387.035	1	61
388.230	1	51
389.426	1	38
390.622	1	28
391.817	1	30
393.013	1	28
394.208	1	24
395.404	1	22
396.599	1	19
397.795	1	12
398.990	1	17
400.186	1	6
401.381	1	14
402.576	1	7
403.771	1	19
404.967	1	13
406.162	1	19
407.357	1	7
408.552	1	10
409.747	1	7
410.942	1	9
412.137	1	19
413.332	1	6
414.526	1	14
415.721	1	0
416.916	1	-4
418.111	1	7
419.305	1	5
420.500	1	-3
421.695	1	8
422.889	1	-7
424.084	1	6
425.278	1	14
426.472	1	3
427.667	1	4
428.861	1	-1
430.055	1	10
431.250	1	-3
432.444	1	7
433.638	1	1
434.832	1	7
436.026	1	4
437.220	1	3
438.414	1	-8
439.608	1	-5
440.802	1	-2
441.996	1	10
443.190	1	4
444.384	1	-4
445.578	1	-2
446.771	1	3
447.965	1	9
449.159	1	-8
450.352	1	4
451.546	1	10
452.739	1	8
453.933	1	-4
455.126	1	2
456.320	1	2
457.513	1	13
458.706	1	10
459.899	1	2
461.093	1	0
462.286	1	3
463.479	1	6
464.672	1	1
465.865	1	6
467.058	1	-3
468.251	1	-2
469.444	1	-2
470.637	1	5
471.830	1	-1
473.023	1	6
474.215	1	15
475.408	1	5
476.601	1	3
477.793	1	2
478.986	1	7
480.179	1	-7
481.371	1	11
482.564	1	13
483.756	1	14
484.948	1	3
486.141	1	5
487.333	1	15
488.525	1	10
489.718	1	12
490.910	1	13
492.102	1	10
493.294	1	16
494.486	1	18
495.678	1	6
496.870	1	12
498.062	1	14
499.254	1	13
500.446	1	10
501.638	1	12
502.829	1	17
504.021	1	10
505.213	1	27
506.404	1	15
507.596	1	28
508.788	1	27
509.979	1	25
511.171	1	16
512.362	1	15
513.553	1	12
514.745	1	17
515.936	1	21
517.127	1	27
518.319	1	23
519.510	1	22
520.701	1	35
521.892	1	35
523.083	1	14
524.274	1	32
525.465	1	37
526.656	1	36
527.847	1	34
529.038	1	31
530.229	1	30
531.419	1	35
532.610	1	29
533.801	1	52
534.991	1	30
536.182	1	38
537.373	1	34
538.563	1	50
539.754	1	30
540.944	1	28
542.134	1	39
543.325	1	35
544.515	1	34
545.705	1	34
546.896	1	43
548.086	1	35
549.276	1	32
550.466	1	45
551.656	1	31
552.846	1	38
554.036	1	41
555.226	1	34
556.416	1	36
557.606	1	43
558.796	1	22
559.986	1	27
561.175	1	47
562.365	1	38
563.555	1	37
564.744	1	31
565.934	1	44
567.123	1	40
568.313	1	42
569.502	1	31
570.692	1	39
571.881	1	45
573.070	1	38
574.260	1	48
575.449	1	37
576.638	1	29
577.827	1	32
579.016	1	48
580.205	1	39
581.394	1	42
582.583	1	44
583.772	1	29
584.961	1	32
586.150	1	36
587.339	1	37
588.528	1	39
589.717	1	32
590.905	1	30
592.094	1	25
593.283	1	24
594.471	1	36
595.660	1	32
596.848	1	27
598.037	1	17
599.225	1	26
600.413	1	32
601.602	1	41
602.790	1	28
603.978	1	32
605.166	1	37
606.355	1	41
607.543	1	28
608.731	1	32
609.919	1	35
611.107	1	21
612.295	1	25
613.483	1	28
614.671	1	28
615.858	1	29
617.046	1	25
618.234	1	28
619.422	1	14
620.609	1	24
621.797	1	12
622.985	1	21
624.172	1	22
625.360	1	14
626.547	1	13
627.735	1	33
628.922	1	19
630.109	1	11
631.297	1	14
632.484	1	3
633.671	1	6
634.858	1	15
636.045	1	26
637.232	1	7
638.419	1	7
639.606	1	26
640.793	1	17
641.980	1	16
643.167	1	7
644.354	1	10
645.541	1	9
646.728	1	8
647.914	1	7
649.101	1	15
650.288	1	19
651.474	1	6
652.661	1	10
653.847	1	19
655.034	1	19
656.220	1	16
657.406	1	10
658.593	1	21
659.779	1	12
660.965	1	11
662.152	1	15
663.338	1	25
664.524	1	8
665.710	1	18
666.896	1	12
668.082	1	17
669.268	1	5
670.454	1	13
671.640	1	18
672.826	1	2
674.011	1	17
675.197	1	-2
676.383	1	12
677.569	1	9
678.754	1	13
679.940	1	14
681.125	1	15
682.311	1	7
683.496	1	12
684.682	1	2
685.867	1	13
687.053	1	12
688.238	1	20
688.746	1	3