File: Data/GaN_200K_800ms/GaN_sample F_spot 12_UVVIS_200 K_200um_800 ms 2x2mm1_202.txt
340.368	1	6
341.565	1	-8
342.763	1	6
343.960	1	-1
345.157	1	-2
346.354	1	4
347.552	1	-1
348.749	1	-3
349.946	1	-11
351.143	1	-4
352.340	1	0
353.537	1	6
354.734	1	11
355.931	1	-3
357.127	1	3
358.324	1	6
359.521	1	15
360.718	1	9
361.914	1	14
363.111	1	-2
364.308	1	19
365.504	1	22
366.701	1	26
367.897	1	30
369.093	1	32
370.290	1	33
371.486	1	37
372.682	1	34
373.879	1	25
375.075	1	6
376.271	1	20
377.467	1	18
378.663	1	9
379.859	1	10
381.055	1	12
382.251	1	1
383.447	1	-1
384.643	1	15
385.839	1	12
387.035	1	9
388.230	1	11
389.426	1	4
390.622	1	3
391.817	1	12
393.013	1	-3
394.208	1	-1
395.404	1	-7
396.599	1	6
397.795	1	-5
398.990	1	-4
400.186	1	0
401.381	1	-7
402.576	1	2
403.771	1	15
404.967	1	0
406.162	1	10
407.357	1	-2
408.552	1	-4
409.747	1	0
410.942	1	6
412.137	1	-1
413.332	1	4
414.526	1	-10
415.721	1	8
416.916	1	6
418.111	1	-2
419.305	1	4
420.500	1	-4
421.695	1	4
422.889	1	-6
424.084	1	-8
425.278	1	13
426.472	1	-4
427.667	1	5
428.861	1	0
430.055	1	8
431.250	1	-7
432.444	1	9
433.638	1	-2
434.832	1	5
436.026	1	4
437.220	1	10
438.414	1	-12
439.608	1	-9
440.802	1	-2
441.996	1	0
443.190	1	6
444.384	1	2
445.578	1	-7
446.771	1	16
447.965	1	-2
449.159	1	-2
450.352	1	-3
451.546	1	1
452.739	1	14
453.933	1	4
455.126	1	0
456.320	1	1
457.513	1	12
458.706	1	6
459.899	1	5
461.093	1	8
462.286	1	7
463.479	1	0
464.672	1	1
465.865	1	1
467.058	1	5
468.251	1	3
469.444	1	-8
470.637	1	-5
471.830	1	-7
473.023	1	0
474.215	1	3
475.408	1	-9
476.601	1	1
477.793	1	-3
478.986	1	-3
480.179	1	11
481.371	1	-2
482.564	1	2
483.756	1	1
484.948	1	-12
486.141	1	-10
487.333	1	-5
488.525	1	0
489.718	1	1
490.910	1	-4
492.102	1	-5
493.294	1	5
494.486	1	6
495.678	1	7
496.870	1	2
498.062	1	-5
499.254	1	0
500.446	1	-8
501.638	1	-5
502.829	1	2
504.021	1	6
505.213	1	3
506.404	1	-1
507.596	1	3
508.788	1	13
509.979	1	12
511.171	1	-2
512.362	1	-4
513.553	1	-5
514.745	1	-2
515.936	1	-3
517.127	1	2
518.319	1	1
519.510	1	-1
520.701	1	5
521.892	1	-2
523.083	1	3
524.274	1	-1
525.465	1	1
526.656	1	0
527.847	1	8
529.038	1	3
530.229	1	6
531.419	1	-1
532.610	1	-4
533.801	1	21
534.991	1	1
536.182	1	8
537.373	1	0
538.563	1	7
539.754	1	8
540.944	1	2
542.134	1	1
543.325	1	3
544.515	1	-6
545.705	1	5
546.896	1	6
548.086	1	8
549.276	1	4
550.466	1	3
551.656	1	4
552.846	1	2
554.036	1	-2
555.226	1	0
556.416	1	-10
557.606	1	0
558.796	1	3
559.986	1	-7
561.175	1	4
562.365	1	6
563.555	1	-4
564.744	1	6
565.934	1	5
567.123	1	6
568.313	1	6
569.502	1	0
570.692	1	1
571.881	1	7
573.070	1	11
574.260	1	10
575.449	1	-4
576.638	1	3
577.827	1	-6
579.016	1	10
580.205	1	1
581.394	1	2
582.583	1	3
583.772	1	3
584.961	1	-2
586.150	1	-1
587.339	1	-2
588.528	1	11
589.717	1	5
590.905	1	6
592.094	1	-1
593.283	1	11
594.471	1	5
595.660	1	-2
596.848	1	-3
598.037	1	1
599.225	1	-14
600.413	1	13
601.602	1	7
602.790	1	5
603.978	1	-4
605.166	1	1
606.355	1	3
607.543	1	0
608.731	1	-5
609.919	1	6
611.107	1	-3
612.295	1	-1
613.483	1	6
614.671	1	13
615.858	1	5
617.046	1	6
618.234	1	-1
619.422	1	-8
620.609	1	6
621.797	1	-11
622.985	1	1
624.172	1	3
625.360	1	9
626.547	1	4
627.735	1	6
628.922	1	3
630.109	1	-9
631.297	1	-2
632.484	1	-6
633.671	1	0
634.858	1	-3
636.045	1	2
637.232	1	-5
638.419	1	-6
639.606	1	4
640.793	1	8
641.980	1	7
643.167	1	-8
644.354	1	6
645.541	1	6
646.728	1	-4
647.914	1	-6
649.101	1	2
650.288	1	3
651.474	1	-5
652.661	1	0
653.847	1	7
655.034	1	1
656.220	1	-3
657.406	1	5
658.593	1	2
659.779	1	-4
660.965	1	6
662.152	1	5
663.338	1	5
664.524	1	6
665.710	1	4
666.896	1	3
668.082	1	9
669.268	1	-3
670.454	1	-4
671.640	1	1
672.826	1	-2
674.011	1	-8
675.197	1	-10
676.383	1	1
677.569	1	5
678.754	1	-4
679.940	1	-2
681.125	1	11
682.311	1	9
683.496	1	9
684.682	1	-2
685.867	1	2
687.053	1	3
688.238	1	-3
688.746	1	3