File: Data/GaN_200K_800ms/GaN_sample F_spot 12_UVVIS_200 K_200um_800 ms 2x2mm1_362.txt
340.368	1	-1
341.565	1	0
342.763	1	2
343.960	1	5
345.157	1	-8
346.354	1	1
347.552	1	-8
348.749	1	-8
349.946	1	-8
351.143	1	1
352.340	1	8
353.537	1	0
354.734	1	-1
355.931	1	0
357.127	1	-1
358.324	1	-6
359.521	1	4
360.718	1	4
361.914	1	3
363.111	1	1
364.308	1	4
365.504	1	15
366.701	1	17
367.897	1	13
369.093	1	4
370.290	1	8
371.486	1	18
372.682	1	12
373.879	1	5
375.075	1	4
376.271	1	8
377.467	1	1
378.663	1	7
379.859	1	4
381.055	1	10
382.251	1	1
383.447	1	-3
384.643	1	12
385.839	1	0
387.035	1	-1
388.230	1	7
389.426	1	-3
390.622	1	-6
391.817	1	0
393.013	1	4
394.208	1	6
395.404	1	-4
396.599	1	-6
397.795	1	1
398.990	1	-2
400.186	1	1
401.381	1	-10
402.576	1	-10
403.771	1	2
404.967	1	8
406.162	1	3
407.357	1	-4
408.552	1	2
409.747	1	3
410.942	1	2
412.137	1	7
413.332	1	7
414.526	1	0
415.721	1	4
416.916	1	-9
418.111	1	5
419.305	1	0
420.500	1	-4
421.695	1	-5
422.889	1	-6
424.084	1	-1
425.278	1	8
426.472	1	-2
427.667	1	9
428.861	1	1
430.055	1	0
431.250	1	-5
432.444	1	-5
433.638	1	-10
434.832	1	4
436.026	1	5
437.220	1	2
438.414	1	-16
439.608	1	-14
440.802	1	-1
441.996	1	0
443.190	1	-9
444.384	1	4
445.578	1	-7
446.771	1	16
447.965	1	3
449.159	1	-10
450.352	1	-10
451.546	1	-5
452.739	1	3
453.933	1	-12
455.126	1	-4
456.320	1	-5
457.513	1	5
458.706	1	0
459.899	1	-3
461.093	1	-1
462.286	1	-3
463.479	1	-3
464.672	1	-6
465.865	1	-6
467.058	1	3
468.251	1	-3
469.444	1	-4
470.637	1	-3
471.830	1	-3
473.023	1	-1
474.215	1	5
475.408	1	3
476.601	1	-7
477.793	1	-6
478.986	1	-2
480.179	1	6
481.371	1	0
482.564	1	1
483.756	1	0
484.948	1	0
486.141	1	-4
487.333	1	2
488.525	1	6
489.718	1	2
490.910	1	-6
492.102	1	-2
493.294	1	-7
494.486	1	1
495.678	1	10
496.870	1	5
498.062	1	-2
499.254	1	-3
500.446	1	-8
501.638	1	-4
502.829	1	0
504.021	1	1
505.213	1	12
506.404	1	-1
507.596	1	11
508.788	1	9
509.979	1	-1
511.171	1	-1
512.362	1	-8
513.553	1	-1
514.745	1	-3
515.936	1	-9
517.127	1	-4
518.319	1	-1
519.510	1	3
520.701	1	5
521.892	1	6
523.083	1	-4
524.274	1	4
525.465	1	10
526.656	1	2
527.847	1	4
529.038	1	4
530.229	1	1
531.419	1	12
532.610	1	0
533.801	1	4
534.991	1	1
536.182	1	-1
537.373	1	-4
538.563	1	5
539.754	1	5
540.944	1	-2
542.134	1	-5
543.325	1	-2
544.515	1	-9
545.705	1	0
546.896	1	1
548.086	1	4
549.276	1	2
550.466	1	2
551.656	1	6
552.846	1	5
554.036	1	-8
555.226	1	-13
556.416	1	1
557.606	1	2
558.796	1	0
559.986	1	2
561.175	1	1
562.365	1	2
563.555	1	1
564.744	1	9
565.934	1	15
567.123	1	4
568.313	1	7
569.502	1	0
570.692	1	3
571.881	1	12
573.070	1	-5
574.260	1	10
575.449	1	4
576.638	1	-9
577.827	1	-6
579.016	1	4
580.205	1	-5
581.394	1	1
582.583	1	13
583.772	1	2
584.961	1	3
586.150	1	-1
587.339	1	11
588.528	1	7
589.717	1	-1
590.905	1	5
592.094	1	-1
593.283	1	9
594.471	1	15
595.660	1	-1
596.848	1	1
598.037	1	3
599.225	1	-6
600.413	1	11
601.602	1	13
602.790	1	1
603.978	1	-5
605.166	1	5
606.355	1	5
607.543	1	1
608.731	1	5
609.919	1	7
611.107	1	-4
612.295	1	-7
613.483	1	-1
614.671	1	7
615.858	1	9
617.046	1	9
618.234	1	4
619.422	1	-2
620.609	1	2
621.797	1	-3
622.985	1	3
624.172	1	-2
625.360	1	2
626.547	1	1
627.735	1	1
628.922	1	2
630.109	1	-4
631.297	1	5
632.484	1	-2
633.671	1	-7
634.858	1	-2
636.045	1	8
637.232	1	0
638.419	1	-3
639.606	1	2
640.793	1	1
641.980	1	6
643.167	1	-10
644.354	1	0
645.541	1	-5
646.728	1	3
647.914	1	-6
649.101	1	4
650.288	1	-6
651.474	1	-10
652.661	1	-2
653.847	1	6
655.034	1	4
656.220	1	1
657.406	1	4
658.593	1	14
659.779	1	7
660.965	1	8
662.152	1	4
663.338	1	6
664.524	1	-3
665.710	1	2
666.896	1	-15
668.082	1	3
669.268	1	0
670.454	1	3
671.640	1	6
672.826	1	-9
674.011	1	6
675.197	1	-8
676.383	1	5
677.569	1	-1
678.754	1	-15
679.940	1	-4
681.125	1	5
682.311	1	7
683.496	1	1
684.682	1	-7
685.867	1	-2
687.053	1	-3
688.238	1	-3
688.746	1	-2