File: Data/GaN_200K_800ms/GaN_sample F_spot 12_UVVIS_200 K_200um_800 ms 2x2mm1_288.txt
340.368	1	-1
341.565	1	-11
342.763	1	3
343.960	1	1
345.157	1	-13
346.354	1	0
347.552	1	-5
348.749	1	-7
349.946	1	-3
351.143	1	5
352.340	1	4
353.537	1	0
354.734	1	9
355.931	1	4
357.127	1	-4
358.324	1	3
359.521	1	20
360.718	1	14
361.914	1	7
363.111	1	-3
364.308	1	0
365.504	1	15
366.701	1	12
367.897	1	11
369.093	1	12
370.290	1	14
371.486	1	23
372.682	1	13
373.879	1	6
375.075	1	7
376.271	1	12
377.467	1	5
378.663	1	4
379.859	1	2
381.055	1	7
382.251	1	6
383.447	1	4
384.643	1	-1
385.839	1	4
387.035	1	0
388.230	1	13
389.426	1	-10
390.622	1	1
391.817	1	0
393.013	1	-1
394.208	1	4
395.404	1	-5
396.599	1	1
397.795	1	0
398.990	1	5
400.186	1	-6
401.381	1	-8
402.576	1	-4
403.771	1	2
404.967	1	7
406.162	1	4
407.357	1	-6
408.552	1	3
409.747	1	-2
410.942	1	4
412.137	1	-2
413.332	1	-1
414.526	1	-5
415.721	1	1
416.916	1	-1
418.111	1	-1
419.305	1	-2
420.500	1	0
421.695	1	-8
422.889	1	-9
424.084	1	-1
425.278	1	2
426.472	1	-2
427.667	1	7
428.861	1	-5
430.055	1	1
431.250	1	1
432.444	1	-3
433.638	1	-3
434.832	1	1
436.026	1	7
437.220	1	0
438.414	1	0
439.608	1	-12
440.802	1	2
441.996	1	10
443.190	1	4
444.384	1	-10
445.578	1	-12
446.771	1	7
447.965	1	-3
449.159	1	4
450.352	1	8
451.546	1	-2
452.739	1	2
453.933	1	-3
455.126	1	-10
456.320	1	-1
457.513	1	-1
458.706	1	-2
459.899	1	-3
461.093	1	-5
462.286	1	3
463.479	1	5
464.672	1	-4
465.865	1	-12
467.058	1	4
468.251	1	-1
469.444	1	-7
470.637	1	1
471.830	1	2
473.023	1	-4
474.215	1	15
475.408	1	8
476.601	1	1
477.793	1	1
478.986	1	-5
480.179	1	-1
481.371	1	5
482.564	1	4
483.756	1	2
484.948	1	-1
486.141	1	-5
487.333	1	5
488.525	1	-6
489.718	1	-10
490.910	1	-7
492.102	1	1
493.294	1	1
494.486	1	11
495.678	1	-6
496.870	1	3
498.062	1	8
499.254	1	-2
500.446	1	-10
501.638	1	-5
502.829	1	1
504.021	1	5
505.213	1	10
506.404	1	1
507.596	1	-2
508.788	1	12
509.979	1	3
511.171	1	-6
512.362	1	-1
513.553	1	-16
514.745	1	-5
515.936	1	1
517.127	1	-1
518.319	1	0
519.510	1	8
520.701	1	1
521.892	1	4
523.083	1	-5
524.274	1	9
525.465	1	3
526.656	1	0
527.847	1	4
529.038	1	3
530.229	1	-1
531.419	1	4
532.610	1	-6
533.801	1	13
534.991	1	11
536.182	1	-1
537.373	1	-2
538.563	1	11
539.754	1	7
540.944	1	-2
542.134	1	2
543.325	1	-4
544.515	1	5
545.705	1	7
546.896	1	-3
548.086	1	-1
549.276	1	-2
550.466	1	-3
551.656	1	9
552.846	1	7
554.036	1	3
555.226	1	-5
556.416	1	-6
557.606	1	7
558.796	1	1
559.986	1	1
561.175	1	2
562.365	1	1
563.555	1	-2
564.744	1	7
565.934	1	4
567.123	1	4
568.313	1	-4
569.502	1	-7
570.692	1	7
571.881	1	17
573.070	1	-3
574.260	1	9
575.449	1	8
576.638	1	1
577.827	1	-6
579.016	1	8
580.205	1	1
581.394	1	-3
582.583	1	5
583.772	1	0
584.961	1	-4
586.150	1	5
587.339	1	-3
588.528	1	1
589.717	1	5
590.905	1	5
592.094	1	2
593.283	1	-4
594.471	1	6
595.660	1	1
596.848	1	4
598.037	1	-2
599.225	1	-4
600.413	1	11
601.602	1	9
602.790	1	1
603.978	1	-2
605.166	1	6
606.355	1	1
607.543	1	2
608.731	1	0
609.919	1	11
611.107	1	5
612.295	1	-5
613.483	1	3
614.671	1	6
615.858	1	6
617.046	1	2
618.234	1	-3
619.422	1	-5
620.609	1	2
621.797	1	-6
622.985	1	3
624.172	1	-1
625.360	1	2
626.547	1	4
627.735	1	2
628.922	1	16
630.109	1	-12
631.297	1	-3
632.484	1	-11
633.671	1	-12
634.858	1	-6
636.045	1	1
637.232	1	-4
638.419	1	-5
639.606	1	12
640.793	1	5
641.980	1	-5
643.167	1	-4
644.354	1	-4
645.541	1	4
646.728	1	0
647.914	1	1
649.101	1	-8
650.288	1	3
651.474	1	0
652.661	1	-1
653.847	1	7
655.034	1	8
656.220	1	-5
657.406	1	7
658.593	1	7
659.779	1	-5
660.965	1	3
662.152	1	3
663.338	1	8
664.524	1	-1
665.710	1	2
666.896	1	-6
668.082	1	11
669.268	1	4
670.454	1	5
671.640	1	2
672.826	1	-2
674.011	1	-2
675.197	1	-7
676.383	1	6
677.569	1	0
678.754	1	0
679.940	1	3
681.125	1	6
682.311	1	7
683.496	1	10
684.682	1	-11
685.867	1	2
687.053	1	-4
688.238	1	5
688.746	1	6