File: Data/GaN_200K_800ms/GaN_sample F_spot 12_UVVIS_200 K_200um_800 ms 2x2mm1_45.txt
340.368	1	12
341.565	1	-5
342.763	1	17
343.960	1	11
345.157	1	3
346.354	1	13
347.552	1	7
348.749	1	-1
349.946	1	3
351.143	1	8
352.340	1	17
353.537	1	13
354.734	1	20
355.931	1	33
357.127	1	32
358.324	1	38
359.521	1	75
360.718	1	78
361.914	1	127
363.111	1	168
364.308	1	243
365.504	1	358
366.701	1	501
367.897	1	666
369.093	1	761
370.290	1	753
371.486	1	691
372.682	1	566
373.879	1	471
375.075	1	417
376.271	1	337
377.467	1	273
378.663	1	214
379.859	1	191
381.055	1	155
382.251	1	124
383.447	1	116
384.643	1	108
385.839	1	89
387.035	1	77
388.230	1	64
389.426	1	46
390.622	1	44
391.817	1	44
393.013	1	31
394.208	1	48
395.404	1	28
396.599	1	33
397.795	1	25
398.990	1	34
400.186	1	22
401.381	1	18
402.576	1	17
403.771	1	21
404.967	1	14
406.162	1	22
407.357	1	11
408.552	1	9
409.747	1	12
410.942	1	12
412.137	1	18
413.332	1	14
414.526	1	8
415.721	1	12
416.916	1	5
418.111	1	10
419.305	1	9
420.500	1	12
421.695	1	-2
422.889	1	1
424.084	1	7
425.278	1	18
426.472	1	12
427.667	1	17
428.861	1	7
430.055	1	8
431.250	1	2
432.444	1	10
433.638	1	-1
434.832	1	15
436.026	1	16
437.220	1	2
438.414	1	-3
439.608	1	-9
440.802	1	-1
441.996	1	5
443.190	1	12
444.384	1	-3
445.578	1	-11
446.771	1	10
447.965	1	9
449.159	1	8
450.352	1	4
451.546	1	7
452.739	1	5
453.933	1	3
455.126	1	5
456.320	1	9
457.513	1	9
458.706	1	11
459.899	1	9
461.093	1	4
462.286	1	-1
463.479	1	5
464.672	1	2
465.865	1	0
467.058	1	12
468.251	1	-3
469.444	1	7
470.637	1	6
471.830	1	11
473.023	1	17
474.215	1	17
475.408	1	7
476.601	1	7
477.793	1	7
478.986	1	0
480.179	1	14
481.371	1	9
482.564	1	12
483.756	1	21
484.948	1	9
486.141	1	10
487.333	1	12
488.525	1	17
489.718	1	10
490.910	1	14
492.102	1	15
493.294	1	17
494.486	1	23
495.678	1	20
496.870	1	17
498.062	1	17
499.254	1	28
500.446	1	11
501.638	1	18
502.829	1	32
504.021	1	20
505.213	1	45
506.404	1	26
507.596	1	26
508.788	1	47
509.979	1	32
511.171	1	27
512.362	1	27
513.553	1	15
514.745	1	29
515.936	1	40
517.127	1	39
518.319	1	40
519.510	1	41
520.701	1	49
521.892	1	33
523.083	1	45
524.274	1	44
525.465	1	49
526.656	1	52
527.847	1	44
529.038	1	51
530.229	1	50
531.419	1	58
532.610	1	55
533.801	1	64
534.991	1	51
536.182	1	57
537.373	1	56
538.563	1	54
539.754	1	57
540.944	1	52
542.134	1	49
543.325	1	54
544.515	1	48
545.705	1	55
546.896	1	47
548.086	1	60
549.276	1	63
550.466	1	56
551.656	1	68
552.846	1	74
554.036	1	56
555.226	1	62
556.416	1	58
557.606	1	65
558.796	1	59
559.986	1	49
561.175	1	57
562.365	1	62
563.555	1	63
564.744	1	63
565.934	1	69
567.123	1	64
568.313	1	66
569.502	1	57
570.692	1	58
571.881	1	72
573.070	1	56
574.260	1	71
575.449	1	56
576.638	1	53
577.827	1	52
579.016	1	72
580.205	1	51
581.394	1	54
582.583	1	58
583.772	1	61
584.961	1	58
586.150	1	49
587.339	1	69
588.528	1	46
589.717	1	46
590.905	1	55
592.094	1	52
593.283	1	52
594.471	1	63
595.660	1	46
596.848	1	43
598.037	1	47
599.225	1	43
600.413	1	49
601.602	1	40
602.790	1	47
603.978	1	38
605.166	1	41
606.355	1	47
607.543	1	50
608.731	1	47
609.919	1	56
611.107	1	39
612.295	1	30
613.483	1	52
614.671	1	36
615.858	1	40
617.046	1	30
618.234	1	27
619.422	1	27
620.609	1	39
621.797	1	32
622.985	1	32
624.172	1	29
625.360	1	37
626.547	1	27
627.735	1	38
628.922	1	33
630.109	1	31
631.297	1	27
632.484	1	27
633.671	1	24
634.858	1	29
636.045	1	32
637.232	1	25
638.419	1	11
639.606	1	34
640.793	1	33
641.980	1	29
643.167	1	15
644.354	1	22
645.541	1	27
646.728	1	33
647.914	1	19
649.101	1	12
650.288	1	25
651.474	1	6
652.661	1	11
653.847	1	26
655.034	1	17
656.220	1	26
657.406	1	16
658.593	1	24
659.779	1	21
660.965	1	30
662.152	1	19
663.338	1	13
664.524	1	17
665.710	1	15
666.896	1	9
668.082	1	13
669.268	1	15
670.454	1	13
671.640	1	16
672.826	1	18
674.011	1	17
675.197	1	0
676.383	1	15
677.569	1	10
678.754	1	12
679.940	1	13
681.125	1	15
682.311	1	24
683.496	1	7
684.682	1	10
685.867	1	12
687.053	1	21
688.238	1	20
688.746	1	13