File: Data/GaN_200K_800ms/GaN_sample F_spot 12_UVVIS_200 K_200um_800 ms 2x2mm1_128.txt
340.368	1	4
341.565	1	-6
342.763	1	2
343.960	1	1
345.157	1	11
346.354	1	-2
347.552	1	2
348.749	1	-2
349.946	1	0
351.143	1	-5
352.340	1	4
353.537	1	10
354.734	1	1
355.931	1	5
357.127	1	4
358.324	1	7
359.521	1	19
360.718	1	16
361.914	1	13
363.111	1	21
364.308	1	25
365.504	1	44
366.701	1	50
367.897	1	58
369.093	1	59
370.290	1	70
371.486	1	66
372.682	1	46
373.879	1	44
375.075	1	36
376.271	1	44
377.467	1	31
378.663	1	31
379.859	1	23
381.055	1	22
382.251	1	13
383.447	1	11
384.643	1	27
385.839	1	8
387.035	1	14
388.230	1	23
389.426	1	5
390.622	1	-1
391.817	1	12
393.013	1	1
394.208	1	6
395.404	1	0
396.599	1	-2
397.795	1	5
398.990	1	4
400.186	1	8
401.381	1	-2
402.576	1	3
403.771	1	-1
404.967	1	7
406.162	1	2
407.357	1	3
408.552	1	-3
409.747	1	6
410.942	1	10
412.137	1	7
413.332	1	0
414.526	1	0
415.721	1	-5
416.916	1	-7
418.111	1	1
419.305	1	3
420.500	1	-2
421.695	1	3
422.889	1	-3
424.084	1	-3
425.278	1	11
426.472	1	1
427.667	1	3
428.861	1	5
430.055	1	4
431.250	1	-2
432.444	1	8
433.638	1	-5
434.832	1	0
436.026	1	5
437.220	1	4
438.414	1	-7
439.608	1	-10
440.802	1	-2
441.996	1	-4
443.190	1	11
444.384	1	-8
445.578	1	-11
446.771	1	14
447.965	1	2
449.159	1	-4
450.352	1	2
451.546	1	-1
452.739	1	3
453.933	1	5
455.126	1	-6
456.320	1	-2
457.513	1	15
458.706	1	6
459.899	1	-4
461.093	1	2
462.286	1	8
463.479	1	-11
464.672	1	5
465.865	1	0
467.058	1	9
468.251	1	2
469.444	1	-9
470.637	1	7
471.830	1	0
473.023	1	5
474.215	1	3
475.408	1	-1
476.601	1	-4
477.793	1	1
478.986	1	-1
480.179	1	0
481.371	1	11
482.564	1	5
483.756	1	9
484.948	1	-2
486.141	1	-1
487.333	1	3
488.525	1	0
489.718	1	4
490.910	1	-1
492.102	1	0
493.294	1	-2
494.486	1	3
495.678	1	-4
496.870	1	2
498.062	1	4
499.254	1	5
500.446	1	-6
501.638	1	6
502.829	1	3
504.021	1	1
505.213	1	10
506.404	1	4
507.596	1	-4
508.788	1	14
509.979	1	4
511.171	1	-5
512.362	1	0
513.553	1	-9
514.745	1	3
515.936	1	1
517.127	1	12
518.319	1	7
519.510	1	9
520.701	1	8
521.892	1	6
523.083	1	0
524.274	1	15
525.465	1	11
526.656	1	8
527.847	1	4
529.038	1	5
530.229	1	10
531.419	1	10
532.610	1	1
533.801	1	23
534.991	1	5
536.182	1	-1
537.373	1	3
538.563	1	17
539.754	1	19
540.944	1	7
542.134	1	15
543.325	1	4
544.515	1	3
545.705	1	5
546.896	1	3
548.086	1	7
549.276	1	9
550.466	1	5
551.656	1	11
552.846	1	6
554.036	1	8
555.226	1	10
556.416	1	-8
557.606	1	9
558.796	1	9
559.986	1	0
561.175	1	14
562.365	1	11
563.555	1	7
564.744	1	3
565.934	1	11
567.123	1	10
568.313	1	11
569.502	1	0
570.692	1	9
571.881	1	16
573.070	1	2
574.260	1	10
575.449	1	0
576.638	1	-6
577.827	1	3
579.016	1	19
580.205	1	-1
581.394	1	8
582.583	1	11
583.772	1	9
584.961	1	9
586.150	1	6
587.339	1	5
588.528	1	0
589.717	1	7
590.905	1	-6
592.094	1	-8
593.283	1	15
594.471	1	12
595.660	1	5
596.848	1	-3
598.037	1	7
599.225	1	-4
600.413	1	17
601.602	1	12
602.790	1	8
603.978	1	4
605.166	1	6
606.355	1	6
607.543	1	8
608.731	1	5
609.919	1	17
611.107	1	0
612.295	1	3
613.483	1	12
614.671	1	14
615.858	1	1
617.046	1	1
618.234	1	-10
619.422	1	-10
620.609	1	10
621.797	1	5
622.985	1	8
624.172	1	1
625.360	1	3
626.547	1	5
627.735	1	6
628.922	1	1
630.109	1	-5
631.297	1	-2
632.484	1	-3
633.671	1	-5
634.858	1	2
636.045	1	14
637.232	1	-5
638.419	1	3
639.606	1	7
640.793	1	9
641.980	1	13
643.167	1	-2
644.354	1	-4
645.541	1	6
646.728	1	-2
647.914	1	3
649.101	1	-12
650.288	1	4
651.474	1	4
652.661	1	4
653.847	1	6
655.034	1	13
656.220	1	2
657.406	1	3
658.593	1	12
659.779	1	5
660.965	1	20
662.152	1	2
663.338	1	6
664.524	1	3
665.710	1	6
666.896	1	-5
668.082	1	0
669.268	1	-5
670.454	1	5
671.640	1	3
672.826	1	8
674.011	1	-3
675.197	1	-1
676.383	1	4
677.569	1	-3
678.754	1	0
679.940	1	-3
681.125	1	8
682.311	1	12
683.496	1	8
684.682	1	-7
685.867	1	4
687.053	1	0
688.238	1	11
688.746	1	13