File: Data/GaN_200K_800ms/GaN_sample F_spot 12_UVVIS_200 K_200um_800 ms 2x2mm1_389.txt
340.368	1	1
341.565	1	-9
342.763	1	7
343.960	1	-1
345.157	1	-2
346.354	1	-6
347.552	1	-1
348.749	1	-7
349.946	1	-3
351.143	1	-5
352.340	1	9
353.537	1	-1
354.734	1	-4
355.931	1	-12
357.127	1	-2
358.324	1	4
359.521	1	2
360.718	1	1
361.914	1	4
363.111	1	-5
364.308	1	-1
365.504	1	8
366.701	1	5
367.897	1	11
369.093	1	7
370.290	1	16
371.486	1	16
372.682	1	11
373.879	1	5
375.075	1	6
376.271	1	14
377.467	1	4
378.663	1	-2
379.859	1	7
381.055	1	5
382.251	1	1
383.447	1	-2
384.643	1	3
385.839	1	1
387.035	1	8
388.230	1	8
389.426	1	-1
390.622	1	-6
391.817	1	6
393.013	1	-5
394.208	1	-2
395.404	1	-5
396.599	1	-10
397.795	1	-1
398.990	1	-7
400.186	1	0
401.381	1	-8
402.576	1	0
403.771	1	7
404.967	1	0
406.162	1	5
407.357	1	-5
408.552	1	-7
409.747	1	0
410.942	1	2
412.137	1	-4
413.332	1	0
414.526	1	4
415.721	1	-4
416.916	1	-8
418.111	1	4
419.305	1	-3
420.500	1	4
421.695	1	4
422.889	1	-12
424.084	1	2
425.278	1	-1
426.472	1	-4
427.667	1	6
428.861	1	1
430.055	1	1
431.250	1	-14
432.444	1	8
433.638	1	-1
434.832	1	0
436.026	1	-2
437.220	1	4
438.414	1	-12
439.608	1	-13
440.802	1	-3
441.996	1	-3
443.190	1	-3
444.384	1	-8
445.578	1	-7
446.771	1	2
447.965	1	7
449.159	1	-3
450.352	1	-1
451.546	1	2
452.739	1	4
453.933	1	-7
455.126	1	-13
456.320	1	3
457.513	1	3
458.706	1	-4
459.899	1	-6
461.093	1	-2
462.286	1	-4
463.479	1	5
464.672	1	-2
465.865	1	-4
467.058	1	5
468.251	1	-7
469.444	1	-9
470.637	1	-3
471.830	1	-10
473.023	1	2
474.215	1	6
475.408	1	-10
476.601	1	-6
477.793	1	-6
478.986	1	-2
480.179	1	-9
481.371	1	5
482.564	1	1
483.756	1	1
484.948	1	-3
486.141	1	-2
487.333	1	3
488.525	1	-6
489.718	1	-1
490.910	1	-2
492.102	1	-10
493.294	1	-1
494.486	1	2
495.678	1	0
496.870	1	-4
498.062	1	-1
499.254	1	-7
500.446	1	-9
501.638	1	-8
502.829	1	5
504.021	1	-3
505.213	1	-1
506.404	1	-2
507.596	1	4
508.788	1	13
509.979	1	-14
511.171	1	-5
512.362	1	3
513.553	1	-6
514.745	1	-1
515.936	1	3
517.127	1	-6
518.319	1	-1
519.510	1	-1
520.701	1	-3
521.892	1	7
523.083	1	-10
524.274	1	6
525.465	1	-2
526.656	1	-9
527.847	1	-3
529.038	1	-5
530.229	1	1
531.419	1	0
532.610	1	-3
533.801	1	7
534.991	1	-3
536.182	1	6
537.373	1	5
538.563	1	7
539.754	1	4
540.944	1	-6
542.134	1	8
543.325	1	-5
544.515	1	5
545.705	1	-7
546.896	1	0
548.086	1	-1
549.276	1	-2
550.466	1	1
551.656	1	3
552.846	1	3
554.036	1	-1
555.226	1	-1
556.416	1	-9
557.606	1	-2
558.796	1	-7
559.986	1	-7
561.175	1	-1
562.365	1	-1
563.555	1	-4
564.744	1	-3
565.934	1	12
567.123	1	8
568.313	1	-5
569.502	1	-4
570.692	1	10
571.881	1	-3
573.070	1	1
574.260	1	11
575.449	1	1
576.638	1	-7
577.827	1	-1
579.016	1	8
580.205	1	-1
581.394	1	1
582.583	1	3
583.772	1	9
584.961	1	0
586.150	1	-2
587.339	1	3
588.528	1	8
589.717	1	-1
590.905	1	1
592.094	1	4
593.283	1	-6
594.471	1	0
595.660	1	-6
596.848	1	10
598.037	1	5
599.225	1	-5
600.413	1	14
601.602	1	9
602.790	1	-2
603.978	1	0
605.166	1	8
606.355	1	8
607.543	1	-7
608.731	1	-3
609.919	1	1
611.107	1	4
612.295	1	-6
613.483	1	-1
614.671	1	12
615.858	1	9
617.046	1	7
618.234	1	-5
619.422	1	-11
620.609	1	2
621.797	1	-3
622.985	1	-5
624.172	1	-5
625.360	1	-5
626.547	1	-4
627.735	1	1
628.922	1	8
630.109	1	-11
631.297	1	-1
632.484	1	-3
633.671	1	-4
634.858	1	2
636.045	1	5
637.232	1	-2
638.419	1	-10
639.606	1	11
640.793	1	8
641.980	1	0
643.167	1	-8
644.354	1	1
645.541	1	-5
646.728	1	-2
647.914	1	-5
649.101	1	-4
650.288	1	1
651.474	1	-10
652.661	1	-2
653.847	1	8
655.034	1	-5
656.220	1	-14
657.406	1	8
658.593	1	-1
659.779	1	1
660.965	1	16
662.152	1	0
663.338	1	14
664.524	1	1
665.710	1	-2
666.896	1	-5
668.082	1	5
669.268	1	-5
670.454	1	3
671.640	1	-1
672.826	1	-7
674.011	1	3
675.197	1	0
676.383	1	-5
677.569	1	-1
678.754	1	-7
679.940	1	-4
681.125	1	0
682.311	1	-3
683.496	1	3
684.682	1	-7
685.867	1	-3
687.053	1	5
688.238	1	3
688.746	1	-3