File: Data/GaN_200K_800ms/GaN_sample F_spot 12_UVVIS_200 K_200um_800 ms 2x2mm1_269.txt
340.368	1	-1
341.565	1	-11
342.763	1	-1
343.960	1	0
345.157	1	-14
346.354	1	-3
347.552	1	2
348.749	1	-4
349.946	1	-7
351.143	1	3
352.340	1	2
353.537	1	5
354.734	1	2
355.931	1	5
357.127	1	2
358.324	1	-5
359.521	1	12
360.718	1	5
361.914	1	6
363.111	1	0
364.308	1	10
365.504	1	19
366.701	1	15
367.897	1	16
369.093	1	19
370.290	1	20
371.486	1	21
372.682	1	32
373.879	1	12
375.075	1	4
376.271	1	25
377.467	1	3
378.663	1	0
379.859	1	1
381.055	1	19
382.251	1	5
383.447	1	4
384.643	1	12
385.839	1	7
387.035	1	3
388.230	1	13
389.426	1	4
390.622	1	-5
391.817	1	10
393.013	1	-1
394.208	1	5
395.404	1	6
396.599	1	-6
397.795	1	2
398.990	1	0
400.186	1	-1
401.381	1	-9
402.576	1	-6
403.771	1	4
404.967	1	5
406.162	1	-2
407.357	1	-4
408.552	1	2
409.747	1	-2
410.942	1	-3
412.137	1	10
413.332	1	8
414.526	1	-3
415.721	1	-3
416.916	1	2
418.111	1	-3
419.305	1	7
420.500	1	-3
421.695	1	2
422.889	1	-15
424.084	1	1
425.278	1	5
426.472	1	1
427.667	1	-4
428.861	1	-2
430.055	1	-2
431.250	1	0
432.444	1	13
433.638	1	-6
434.832	1	10
436.026	1	8
437.220	1	2
438.414	1	-4
439.608	1	-8
440.802	1	-10
441.996	1	-1
443.190	1	3
444.384	1	-7
445.578	1	-10
446.771	1	13
447.965	1	10
449.159	1	-4
450.352	1	0
451.546	1	-7
452.739	1	5
453.933	1	-6
455.126	1	-10
456.320	1	-6
457.513	1	12
458.706	1	-3
459.899	1	2
461.093	1	6
462.286	1	-6
463.479	1	-2
464.672	1	-1
465.865	1	-3
467.058	1	1
468.251	1	-3
469.444	1	-9
470.637	1	3
471.830	1	-6
473.023	1	1
474.215	1	11
475.408	1	7
476.601	1	6
477.793	1	5
478.986	1	-2
480.179	1	9
481.371	1	1
482.564	1	3
483.756	1	5
484.948	1	-4
486.141	1	-6
487.333	1	8
488.525	1	-1
489.718	1	-9
490.910	1	3
492.102	1	-8
493.294	1	-3
494.486	1	1
495.678	1	-6
496.870	1	4
498.062	1	-5
499.254	1	2
500.446	1	-7
501.638	1	2
502.829	1	-5
504.021	1	-3
505.213	1	6
506.404	1	-1
507.596	1	3
508.788	1	19
509.979	1	-5
511.171	1	-7
512.362	1	-12
513.553	1	-17
514.745	1	8
515.936	1	0
517.127	1	-2
518.319	1	-3
519.510	1	-2
520.701	1	4
521.892	1	0
523.083	1	-1
524.274	1	4
525.465	1	12
526.656	1	7
527.847	1	7
529.038	1	11
530.229	1	8
531.419	1	10
532.610	1	3
533.801	1	8
534.991	1	4
536.182	1	1
537.373	1	0
538.563	1	8
539.754	1	5
540.944	1	1
542.134	1	8
543.325	1	-2
544.515	1	5
545.705	1	-1
546.896	1	-1
548.086	1	7
549.276	1	-9
550.466	1	-1
551.656	1	9
552.846	1	0
554.036	1	-5
555.226	1	-4
556.416	1	-7
557.606	1	12
558.796	1	-6
559.986	1	2
561.175	1	2
562.365	1	12
563.555	1	4
564.744	1	3
565.934	1	5
567.123	1	7
568.313	1	8
569.502	1	0
570.692	1	9
571.881	1	4
573.070	1	9
574.260	1	4
575.449	1	-2
576.638	1	-1
577.827	1	-4
579.016	1	10
580.205	1	-1
581.394	1	2
582.583	1	7
583.772	1	8
584.961	1	-5
586.150	1	-1
587.339	1	3
588.528	1	-8
589.717	1	9
590.905	1	2
592.094	1	3
593.283	1	1
594.471	1	5
595.660	1	-3
596.848	1	1
598.037	1	7
599.225	1	-8
600.413	1	10
601.602	1	16
602.790	1	5
603.978	1	3
605.166	1	4
606.355	1	10
607.543	1	-2
608.731	1	-6
609.919	1	17
611.107	1	-3
612.295	1	-10
613.483	1	9
614.671	1	4
615.858	1	5
617.046	1	-4
618.234	1	-4
619.422	1	-1
620.609	1	7
621.797	1	-2
622.985	1	0
624.172	1	-3
625.360	1	3
626.547	1	1
627.735	1	7
628.922	1	2
630.109	1	-5
631.297	1	7
632.484	1	-6
633.671	1	-8
634.858	1	-5
636.045	1	15
637.232	1	-7
638.419	1	-6
639.606	1	5
640.793	1	7
641.980	1	5
643.167	1	4
644.354	1	-3
645.541	1	-13
646.728	1	-3
647.914	1	-4
649.101	1	0
650.288	1	7
651.474	1	-5
652.661	1	3
653.847	1	9
655.034	1	6
656.220	1	-2
657.406	1	-4
658.593	1	3
659.779	1	-5
660.965	1	15
662.152	1	7
663.338	1	1
664.524	1	-1
665.710	1	8
666.896	1	-6
668.082	1	5
669.268	1	-3
670.454	1	2
671.640	1	3
672.826	1	-1
674.011	1	-6
675.197	1	-8
676.383	1	4
677.569	1	-1
678.754	1	-2
679.940	1	-3
681.125	1	3
682.311	1	10
683.496	1	4
684.682	1	-6
685.867	1	1
687.053	1	0
688.238	1	8
688.746	1	1