File: Data/GaN_200K_800ms/GaN_sample F_spot 12_UVVIS_200 K_200um_800 ms 2x2mm1_184.txt
340.368	1	1
341.565	1	-7
342.763	1	3
343.960	1	7
345.157	1	-2
346.354	1	1
347.552	1	-9
348.749	1	5
349.946	1	-6
351.143	1	1
352.340	1	7
353.537	1	0
354.734	1	3
355.931	1	3
357.127	1	4
358.324	1	3
359.521	1	6
360.718	1	6
361.914	1	7
363.111	1	10
364.308	1	15
365.504	1	28
366.701	1	22
367.897	1	44
369.093	1	33
370.290	1	38
371.486	1	40
372.682	1	28
373.879	1	29
375.075	1	25
376.271	1	20
377.467	1	16
378.663	1	11
379.859	1	12
381.055	1	16
382.251	1	4
383.447	1	5
384.643	1	10
385.839	1	3
387.035	1	7
388.230	1	15
389.426	1	3
390.622	1	9
391.817	1	7
393.013	1	1
394.208	1	-1
395.404	1	-1
396.599	1	-2
397.795	1	9
398.990	1	-7
400.186	1	6
401.381	1	-1
402.576	1	3
403.771	1	3
404.967	1	-1
406.162	1	6
407.357	1	0
408.552	1	-10
409.747	1	1
410.942	1	3
412.137	1	7
413.332	1	-3
414.526	1	-1
415.721	1	6
416.916	1	-11
418.111	1	-1
419.305	1	0
420.500	1	-6
421.695	1	-6
422.889	1	-12
424.084	1	3
425.278	1	9
426.472	1	-1
427.667	1	-3
428.861	1	3
430.055	1	2
431.250	1	-4
432.444	1	11
433.638	1	2
434.832	1	1
436.026	1	13
437.220	1	7
438.414	1	-4
439.608	1	-7
440.802	1	-2
441.996	1	17
443.190	1	-7
444.384	1	-3
445.578	1	-10
446.771	1	-1
447.965	1	-3
449.159	1	-6
450.352	1	-5
451.546	1	9
452.739	1	-2
453.933	1	0
455.126	1	-10
456.320	1	5
457.513	1	4
458.706	1	6
459.899	1	2
461.093	1	0
462.286	1	2
463.479	1	-4
464.672	1	1
465.865	1	-8
467.058	1	-2
468.251	1	-1
469.444	1	-11
470.637	1	5
471.830	1	0
473.023	1	4
474.215	1	10
475.408	1	5
476.601	1	5
477.793	1	0
478.986	1	-5
480.179	1	6
481.371	1	3
482.564	1	4
483.756	1	4
484.948	1	-7
486.141	1	-6
487.333	1	1
488.525	1	-6
489.718	1	-1
490.910	1	-6
492.102	1	-7
493.294	1	-7
494.486	1	3
495.678	1	3
496.870	1	12
498.062	1	2
499.254	1	5
500.446	1	-11
501.638	1	-2
502.829	1	1
504.021	1	-1
505.213	1	4
506.404	1	-2
507.596	1	13
508.788	1	10
509.979	1	3
511.171	1	0
512.362	1	-1
513.553	1	2
514.745	1	-9
515.936	1	2
517.127	1	-3
518.319	1	-1
519.510	1	3
520.701	1	8
521.892	1	5
523.083	1	2
524.274	1	8
525.465	1	7
526.656	1	2
527.847	1	9
529.038	1	-2
530.229	1	4
531.419	1	4
532.610	1	0
533.801	1	16
534.991	1	4
536.182	1	4
537.373	1	4
538.563	1	3
539.754	1	7
540.944	1	4
542.134	1	9
543.325	1	9
544.515	1	3
545.705	1	4
546.896	1	4
548.086	1	7
549.276	1	-2
550.466	1	7
551.656	1	12
552.846	1	-2
554.036	1	-2
555.226	1	-9
556.416	1	4
557.606	1	1
558.796	1	-1
559.986	1	0
561.175	1	12
562.365	1	6
563.555	1	7
564.744	1	0
565.934	1	9
567.123	1	6
568.313	1	-1
569.502	1	3
570.692	1	6
571.881	1	6
573.070	1	5
574.260	1	5
575.449	1	-10
576.638	1	-4
577.827	1	-5
579.016	1	8
580.205	1	4
581.394	1	-3
582.583	1	8
583.772	1	7
584.961	1	3
586.150	1	8
587.339	1	10
588.528	1	7
589.717	1	7
590.905	1	-8
592.094	1	0
593.283	1	3
594.471	1	14
595.660	1	8
596.848	1	3
598.037	1	-4
599.225	1	-3
600.413	1	9
601.602	1	4
602.790	1	3
603.978	1	2
605.166	1	7
606.355	1	0
607.543	1	-1
608.731	1	11
609.919	1	9
611.107	1	-2
612.295	1	-5
613.483	1	4
614.671	1	1
615.858	1	9
617.046	1	4
618.234	1	-2
619.422	1	2
620.609	1	4
621.797	1	8
622.985	1	-1
624.172	1	2
625.360	1	-2
626.547	1	4
627.735	1	5
628.922	1	5
630.109	1	-7
631.297	1	-3
632.484	1	3
633.671	1	-5
634.858	1	-11
636.045	1	5
637.232	1	-5
638.419	1	1
639.606	1	2
640.793	1	7
641.980	1	9
643.167	1	-8
644.354	1	2
645.541	1	0
646.728	1	2
647.914	1	0
649.101	1	-8
650.288	1	-1
651.474	1	-7
652.661	1	-4
653.847	1	5
655.034	1	8
656.220	1	-1
657.406	1	8
658.593	1	7
659.779	1	8
660.965	1	10
662.152	1	13
663.338	1	9
664.524	1	2
665.710	1	-3
666.896	1	-5
668.082	1	0
669.268	1	-7
670.454	1	0
671.640	1	3
672.826	1	2
674.011	1	1
675.197	1	-5
676.383	1	3
677.569	1	3
678.754	1	1
679.940	1	4
681.125	1	2
682.311	1	9
683.496	1	3
684.682	1	-9
685.867	1	-1
687.053	1	3
688.238	1	8
688.746	1	-5