File: Data/GaN_200K_800ms/GaN_sample F_spot 12_UVVIS_200 K_200um_800 ms 2x2mm1_191.txt
340.368	1	1
341.565	1	-13
342.763	1	9
343.960	1	-5
345.157	1	-8
346.354	1	-9
347.552	1	-7
348.749	1	-12
349.946	1	-4
351.143	1	2
352.340	1	-2
353.537	1	-5
354.734	1	-4
355.931	1	2
357.127	1	10
358.324	1	10
359.521	1	11
360.718	1	11
361.914	1	10
363.111	1	14
364.308	1	5
365.504	1	24
366.701	1	33
367.897	1	38
369.093	1	30
370.290	1	33
371.486	1	37
372.682	1	31
373.879	1	16
375.075	1	22
376.271	1	27
377.467	1	20
378.663	1	3
379.859	1	7
381.055	1	13
382.251	1	9
383.447	1	3
384.643	1	14
385.839	1	13
387.035	1	9
388.230	1	15
389.426	1	0
390.622	1	0
391.817	1	4
393.013	1	3
394.208	1	5
395.404	1	2
396.599	1	-5
397.795	1	-2
398.990	1	3
400.186	1	3
401.381	1	-10
402.576	1	3
403.771	1	10
404.967	1	5
406.162	1	14
407.357	1	-2
408.552	1	1
409.747	1	4
410.942	1	10
412.137	1	0
413.332	1	4
414.526	1	-2
415.721	1	0
416.916	1	-6
418.111	1	-1
419.305	1	-4
420.500	1	-9
421.695	1	-1
422.889	1	-7
424.084	1	-2
425.278	1	10
426.472	1	1
427.667	1	12
428.861	1	-7
430.055	1	-1
431.250	1	9
432.444	1	13
433.638	1	0
434.832	1	1
436.026	1	1
437.220	1	1
438.414	1	-15
439.608	1	-6
440.802	1	-6
441.996	1	-5
443.190	1	4
444.384	1	-9
445.578	1	-5
446.771	1	4
447.965	1	2
449.159	1	-5
450.352	1	-2
451.546	1	-1
452.739	1	-8
453.933	1	-4
455.126	1	-4
456.320	1	3
457.513	1	-3
458.706	1	1
459.899	1	8
461.093	1	-5
462.286	1	0
463.479	1	-3
464.672	1	-8
465.865	1	-6
467.058	1	-2
468.251	1	-2
469.444	1	5
470.637	1	1
471.830	1	7
473.023	1	8
474.215	1	5
475.408	1	-1
476.601	1	2
477.793	1	-3
478.986	1	5
480.179	1	1
481.371	1	0
482.564	1	0
483.756	1	5
484.948	1	-7
486.141	1	-5
487.333	1	3
488.525	1	-8
489.718	1	3
490.910	1	3
492.102	1	-7
493.294	1	-1
494.486	1	5
495.678	1	8
496.870	1	-3
498.062	1	1
499.254	1	4
500.446	1	-10
501.638	1	-4
502.829	1	-1
504.021	1	6
505.213	1	8
506.404	1	-7
507.596	1	-5
508.788	1	15
509.979	1	-1
511.171	1	-6
512.362	1	3
513.553	1	-13
514.745	1	-5
515.936	1	0
517.127	1	0
518.319	1	4
519.510	1	-3
520.701	1	10
521.892	1	-1
523.083	1	1
524.274	1	0
525.465	1	8
526.656	1	5
527.847	1	12
529.038	1	4
530.229	1	7
531.419	1	7
532.610	1	4
533.801	1	11
534.991	1	-2
536.182	1	-1
537.373	1	6
538.563	1	3
539.754	1	8
540.944	1	2
542.134	1	3
543.325	1	3
544.515	1	0
545.705	1	2
546.896	1	7
548.086	1	4
549.276	1	2
550.466	1	12
551.656	1	5
552.846	1	0
554.036	1	-5
555.226	1	0
556.416	1	-3
557.606	1	6
558.796	1	4
559.986	1	-6
561.175	1	3
562.365	1	2
563.555	1	1
564.744	1	6
565.934	1	8
567.123	1	8
568.313	1	4
569.502	1	1
570.692	1	0
571.881	1	13
573.070	1	5
574.260	1	10
575.449	1	-2
576.638	1	-3
577.827	1	3
579.016	1	13
580.205	1	0
581.394	1	1
582.583	1	14
583.772	1	8
584.961	1	-2
586.150	1	2
587.339	1	1
588.528	1	-1
589.717	1	8
590.905	1	13
592.094	1	3
593.283	1	3
594.471	1	4
595.660	1	0
596.848	1	1
598.037	1	-8
599.225	1	-3
600.413	1	14
601.602	1	6
602.790	1	3
603.978	1	5
605.166	1	11
606.355	1	5
607.543	1	0
608.731	1	3
609.919	1	17
611.107	1	8
612.295	1	0
613.483	1	5
614.671	1	5
615.858	1	3
617.046	1	5
618.234	1	5
619.422	1	-11
620.609	1	2
621.797	1	4
622.985	1	6
624.172	1	0
625.360	1	4
626.547	1	0
627.735	1	10
628.922	1	6
630.109	1	-4
631.297	1	3
632.484	1	6
633.671	1	0
634.858	1	3
636.045	1	6
637.232	1	-5
638.419	1	-4
639.606	1	3
640.793	1	6
641.980	1	5
643.167	1	-4
644.354	1	-11
645.541	1	-1
646.728	1	-1
647.914	1	1
649.101	1	1
650.288	1	14
651.474	1	-3
652.661	1	8
653.847	1	9
655.034	1	10
656.220	1	-10
657.406	1	6
658.593	1	6
659.779	1	4
660.965	1	6
662.152	1	10
663.338	1	4
664.524	1	-2
665.710	1	-1
666.896	1	3
668.082	1	13
669.268	1	1
670.454	1	8
671.640	1	8
672.826	1	2
674.011	1	-7
675.197	1	-8
676.383	1	0
677.569	1	3
678.754	1	-2
679.940	1	0
681.125	1	2
682.311	1	3
683.496	1	-1
684.682	1	-7
685.867	1	4
687.053	1	3
688.238	1	-4
688.746	1	0