File: Data/GaN_200K_800ms/GaN_sample F_spot 12_UVVIS_200 K_200um_800 ms 2x2mm1_353.txt
340.368	1	-4
341.565	1	-1
342.763	1	8
343.960	1	-3
345.157	1	-6
346.354	1	0
347.552	1	-2
348.749	1	-5
349.946	1	-11
351.143	1	-10
352.340	1	5
353.537	1	1
354.734	1	7
355.931	1	-4
357.127	1	0
358.324	1	3
359.521	1	11
360.718	1	1
361.914	1	5
363.111	1	4
364.308	1	2
365.504	1	14
366.701	1	8
367.897	1	17
369.093	1	5
370.290	1	14
371.486	1	17
372.682	1	18
373.879	1	10
375.075	1	1
376.271	1	10
377.467	1	4
378.663	1	2
379.859	1	-11
381.055	1	7
382.251	1	7
383.447	1	0
384.643	1	9
385.839	1	-1
387.035	1	-5
388.230	1	0
389.426	1	-1
390.622	1	-4
391.817	1	-1
393.013	1	-9
394.208	1	4
395.404	1	-10
396.599	1	4
397.795	1	4
398.990	1	-1
400.186	1	-8
401.381	1	-9
402.576	1	-9
403.771	1	4
404.967	1	6
406.162	1	6
407.357	1	-5
408.552	1	-7
409.747	1	-1
410.942	1	6
412.137	1	7
413.332	1	2
414.526	1	1
415.721	1	-1
416.916	1	-3
418.111	1	11
419.305	1	1
420.500	1	-13
421.695	1	-10
422.889	1	-11
424.084	1	-1
425.278	1	12
426.472	1	3
427.667	1	0
428.861	1	-7
430.055	1	3
431.250	1	-3
432.444	1	4
433.638	1	-7
434.832	1	-3
436.026	1	3
437.220	1	-2
438.414	1	-6
439.608	1	-9
440.802	1	-2
441.996	1	6
443.190	1	-1
444.384	1	-2
445.578	1	-6
446.771	1	5
447.965	1	-6
449.159	1	-6
450.352	1	3
451.546	1	4
452.739	1	0
453.933	1	-7
455.126	1	-2
456.320	1	-3
457.513	1	3
458.706	1	4
459.899	1	-7
461.093	1	4
462.286	1	0
463.479	1	1
464.672	1	-5
465.865	1	-3
467.058	1	-1
468.251	1	-2
469.444	1	-9
470.637	1	2
471.830	1	-8
473.023	1	5
474.215	1	2
475.408	1	-6
476.601	1	-4
477.793	1	-4
478.986	1	-7
480.179	1	3
481.371	1	4
482.564	1	11
483.756	1	2
484.948	1	-7
486.141	1	-1
487.333	1	3
488.525	1	6
489.718	1	0
490.910	1	3
492.102	1	-3
493.294	1	1
494.486	1	7
495.678	1	-3
496.870	1	3
498.062	1	-9
499.254	1	6
500.446	1	-7
501.638	1	-12
502.829	1	-5
504.021	1	7
505.213	1	4
506.404	1	4
507.596	1	0
508.788	1	16
509.979	1	-4
511.171	1	-2
512.362	1	-4
513.553	1	-6
514.745	1	-3
515.936	1	1
517.127	1	-7
518.319	1	7
519.510	1	-1
520.701	1	-1
521.892	1	3
523.083	1	-2
524.274	1	6
525.465	1	13
526.656	1	4
527.847	1	6
529.038	1	0
530.229	1	-4
531.419	1	0
532.610	1	-5
533.801	1	14
534.991	1	7
536.182	1	-1
537.373	1	9
538.563	1	-4
539.754	1	1
540.944	1	-5
542.134	1	-2
543.325	1	0
544.515	1	1
545.705	1	5
546.896	1	0
548.086	1	7
549.276	1	-5
550.466	1	-3
551.656	1	11
552.846	1	1
554.036	1	-5
555.226	1	-15
556.416	1	-5
557.606	1	4
558.796	1	-9
559.986	1	0
561.175	1	4
562.365	1	12
563.555	1	-2
564.744	1	-1
565.934	1	6
567.123	1	1
568.313	1	4
569.502	1	-8
570.692	1	-1
571.881	1	5
573.070	1	-1
574.260	1	14
575.449	1	1
576.638	1	-2
577.827	1	1
579.016	1	6
580.205	1	-8
581.394	1	-6
582.583	1	1
583.772	1	8
584.961	1	1
586.150	1	-2
587.339	1	10
588.528	1	5
589.717	1	-3
590.905	1	3
592.094	1	2
593.283	1	4
594.471	1	14
595.660	1	-6
596.848	1	7
598.037	1	-1
599.225	1	-3
600.413	1	8
601.602	1	10
602.790	1	-2
603.978	1	0
605.166	1	-3
606.355	1	9
607.543	1	2
608.731	1	8
609.919	1	7
611.107	1	3
612.295	1	-11
613.483	1	6
614.671	1	-2
615.858	1	2
617.046	1	0
618.234	1	-1
619.422	1	-10
620.609	1	2
621.797	1	-1
622.985	1	1
624.172	1	2
625.360	1	-3
626.547	1	2
627.735	1	-1
628.922	1	2
630.109	1	-19
631.297	1	-5
632.484	1	-4
633.671	1	-9
634.858	1	2
636.045	1	4
637.232	1	-6
638.419	1	1
639.606	1	2
640.793	1	11
641.980	1	-3
643.167	1	0
644.354	1	-2
645.541	1	2
646.728	1	0
647.914	1	-4
649.101	1	-9
650.288	1	4
651.474	1	-8
652.661	1	0
653.847	1	6
655.034	1	-10
656.220	1	-8
657.406	1	-1
658.593	1	8
659.779	1	3
660.965	1	6
662.152	1	3
663.338	1	9
664.524	1	4
665.710	1	1
666.896	1	-4
668.082	1	-2
669.268	1	-4
670.454	1	1
671.640	1	0
672.826	1	-2
674.011	1	4
675.197	1	-6
676.383	1	0
677.569	1	-3
678.754	1	-6
679.940	1	-1
681.125	1	6
682.311	1	6
683.496	1	3
684.682	1	-9
685.867	1	1
687.053	1	-3
688.238	1	1
688.746	1	3