File: Data/GaN_200K_800ms/GaN_sample F_spot 12_UVVIS_200 K_200um_800 ms 2x2mm1_44.txt
340.368	1	10
341.565	1	1
342.763	1	12
343.960	1	6
345.157	1	-3
346.354	1	11
347.552	1	3
348.749	1	4
349.946	1	4
351.143	1	10
352.340	1	15
353.537	1	17
354.734	1	33
355.931	1	26
357.127	1	33
358.324	1	44
359.521	1	77
360.718	1	93
361.914	1	123
363.111	1	179
364.308	1	260
365.504	1	417
366.701	1	568
367.897	1	719
369.093	1	828
370.290	1	837
371.486	1	750
372.682	1	646
373.879	1	512
375.075	1	422
376.271	1	365
377.467	1	299
378.663	1	237
379.859	1	188
381.055	1	178
382.251	1	130
383.447	1	119
384.643	1	110
385.839	1	91
387.035	1	90
388.230	1	73
389.426	1	51
390.622	1	40
391.817	1	56
393.013	1	40
394.208	1	36
395.404	1	28
396.599	1	29
397.795	1	29
398.990	1	23
400.186	1	21
401.381	1	20
402.576	1	12
403.771	1	22
404.967	1	21
406.162	1	24
407.357	1	23
408.552	1	12
409.747	1	15
410.942	1	18
412.137	1	14
413.332	1	11
414.526	1	10
415.721	1	8
416.916	1	4
418.111	1	15
419.305	1	13
420.500	1	6
421.695	1	3
422.889	1	-2
424.084	1	8
425.278	1	14
426.472	1	12
427.667	1	11
428.861	1	2
430.055	1	13
431.250	1	12
432.444	1	14
433.638	1	6
434.832	1	7
436.026	1	12
437.220	1	9
438.414	1	10
439.608	1	-2
440.802	1	6
441.996	1	4
443.190	1	12
444.384	1	-6
445.578	1	2
446.771	1	19
447.965	1	4
449.159	1	5
450.352	1	7
451.546	1	7
452.739	1	16
453.933	1	6
455.126	1	4
456.320	1	6
457.513	1	13
458.706	1	5
459.899	1	11
461.093	1	8
462.286	1	6
463.479	1	6
464.672	1	17
465.865	1	2
467.058	1	4
468.251	1	5
469.444	1	-1
470.637	1	3
471.830	1	-1
473.023	1	9
474.215	1	19
475.408	1	14
476.601	1	16
477.793	1	7
478.986	1	8
480.179	1	13
481.371	1	6
482.564	1	11
483.756	1	20
484.948	1	3
486.141	1	2
487.333	1	16
488.525	1	18
489.718	1	12
490.910	1	18
492.102	1	7
493.294	1	11
494.486	1	17
495.678	1	23
496.870	1	22
498.062	1	25
499.254	1	25
500.446	1	10
501.638	1	23
502.829	1	22
504.021	1	18
505.213	1	43
506.404	1	41
507.596	1	43
508.788	1	47
509.979	1	37
511.171	1	28
512.362	1	33
513.553	1	26
514.745	1	42
515.936	1	40
517.127	1	42
518.319	1	44
519.510	1	49
520.701	1	46
521.892	1	48
523.083	1	45
524.274	1	52
525.465	1	54
526.656	1	47
527.847	1	57
529.038	1	57
530.229	1	64
531.419	1	62
532.610	1	55
533.801	1	79
534.991	1	56
536.182	1	56
537.373	1	52
538.563	1	56
539.754	1	62
540.944	1	45
542.134	1	50
543.325	1	55
544.515	1	58
545.705	1	56
546.896	1	63
548.086	1	51
549.276	1	67
550.466	1	76
551.656	1	84
552.846	1	78
554.036	1	70
555.226	1	50
556.416	1	54
557.606	1	72
558.796	1	68
559.986	1	56
561.175	1	66
562.365	1	67
563.555	1	70
564.744	1	67
565.934	1	75
567.123	1	65
568.313	1	80
569.502	1	64
570.692	1	76
571.881	1	74
573.070	1	63
574.260	1	74
575.449	1	60
576.638	1	61
577.827	1	55
579.016	1	76
580.205	1	57
581.394	1	53
582.583	1	71
583.772	1	65
584.961	1	62
586.150	1	65
587.339	1	65
588.528	1	68
589.717	1	48
590.905	1	65
592.094	1	60
593.283	1	58
594.471	1	48
595.660	1	49
596.848	1	44
598.037	1	41
599.225	1	40
600.413	1	49
601.602	1	47
602.790	1	50
603.978	1	60
605.166	1	58
606.355	1	51
607.543	1	52
608.731	1	47
609.919	1	52
611.107	1	49
612.295	1	46
613.483	1	56
614.671	1	50
615.858	1	45
617.046	1	44
618.234	1	33
619.422	1	34
620.609	1	48
621.797	1	32
622.985	1	34
624.172	1	46
625.360	1	34
626.547	1	26
627.735	1	40
628.922	1	42
630.109	1	25
631.297	1	28
632.484	1	22
633.671	1	23
634.858	1	27
636.045	1	40
637.232	1	26
638.419	1	26
639.606	1	36
640.793	1	37
641.980	1	25
643.167	1	33
644.354	1	34
645.541	1	35
646.728	1	24
647.914	1	21
649.101	1	27
650.288	1	26
651.474	1	26
652.661	1	28
653.847	1	34
655.034	1	27
656.220	1	21
657.406	1	13
658.593	1	26
659.779	1	22
660.965	1	27
662.152	1	20
663.338	1	30
664.524	1	14
665.710	1	10
666.896	1	13
668.082	1	17
669.268	1	22
670.454	1	22
671.640	1	20
672.826	1	14
674.011	1	20
675.197	1	8
676.383	1	7
677.569	1	19
678.754	1	12
679.940	1	15
681.125	1	26
682.311	1	24
683.496	1	18
684.682	1	5
685.867	1	13
687.053	1	18
688.238	1	29
688.746	1	20