File: Data/GaN_200K_800ms/GaN_sample F_spot 12_UVVIS_200 K_200um_800 ms 2x2mm1_131.txt
340.368	1	4
341.565	1	-12
342.763	1	4
343.960	1	7
345.157	1	-11
346.354	1	5
347.552	1	1
348.749	1	-3
349.946	1	-4
351.143	1	3
352.340	1	5
353.537	1	3
354.734	1	11
355.931	1	-4
357.127	1	1
358.324	1	5
359.521	1	13
360.718	1	18
361.914	1	17
363.111	1	29
364.308	1	25
365.504	1	48
366.701	1	44
367.897	1	52
369.093	1	55
370.290	1	62
371.486	1	64
372.682	1	56
373.879	1	42
375.075	1	40
376.271	1	45
377.467	1	30
378.663	1	23
379.859	1	22
381.055	1	23
382.251	1	7
383.447	1	1
384.643	1	12
385.839	1	7
387.035	1	11
388.230	1	20
389.426	1	7
390.622	1	3
391.817	1	12
393.013	1	4
394.208	1	0
395.404	1	-6
396.599	1	-4
397.795	1	5
398.990	1	-2
400.186	1	0
401.381	1	-4
402.576	1	2
403.771	1	11
404.967	1	4
406.162	1	13
407.357	1	5
408.552	1	-13
409.747	1	5
410.942	1	12
412.137	1	6
413.332	1	5
414.526	1	-1
415.721	1	5
416.916	1	-4
418.111	1	6
419.305	1	3
420.500	1	11
421.695	1	-1
422.889	1	-10
424.084	1	7
425.278	1	12
426.472	1	11
427.667	1	14
428.861	1	3
430.055	1	0
431.250	1	-6
432.444	1	6
433.638	1	-1
434.832	1	7
436.026	1	11
437.220	1	4
438.414	1	-9
439.608	1	-7
440.802	1	-4
441.996	1	2
443.190	1	3
444.384	1	-8
445.578	1	-2
446.771	1	8
447.965	1	1
449.159	1	-3
450.352	1	1
451.546	1	1
452.739	1	4
453.933	1	-8
455.126	1	-6
456.320	1	5
457.513	1	10
458.706	1	3
459.899	1	0
461.093	1	-3
462.286	1	9
463.479	1	-2
464.672	1	11
465.865	1	0
467.058	1	-1
468.251	1	-3
469.444	1	0
470.637	1	2
471.830	1	2
473.023	1	7
474.215	1	11
475.408	1	-4
476.601	1	5
477.793	1	-4
478.986	1	1
480.179	1	3
481.371	1	8
482.564	1	-3
483.756	1	16
484.948	1	-10
486.141	1	0
487.333	1	-1
488.525	1	2
489.718	1	3
490.910	1	5
492.102	1	-1
493.294	1	-3
494.486	1	11
495.678	1	6
496.870	1	10
498.062	1	2
499.254	1	0
500.446	1	-1
501.638	1	-4
502.829	1	5
504.021	1	-3
505.213	1	8
506.404	1	0
507.596	1	3
508.788	1	16
509.979	1	-1
511.171	1	2
512.362	1	2
513.553	1	-5
514.745	1	-2
515.936	1	6
517.127	1	3
518.319	1	9
519.510	1	10
520.701	1	10
521.892	1	8
523.083	1	0
524.274	1	-1
525.465	1	6
526.656	1	1
527.847	1	7
529.038	1	14
530.229	1	9
531.419	1	7
532.610	1	3
533.801	1	15
534.991	1	7
536.182	1	-3
537.373	1	-3
538.563	1	16
539.754	1	16
540.944	1	7
542.134	1	9
543.325	1	17
544.515	1	-2
545.705	1	6
546.896	1	2
548.086	1	4
549.276	1	4
550.466	1	18
551.656	1	12
552.846	1	3
554.036	1	6
555.226	1	-1
556.416	1	8
557.606	1	6
558.796	1	9
559.986	1	-2
561.175	1	10
562.365	1	11
563.555	1	8
564.744	1	20
565.934	1	14
567.123	1	3
568.313	1	11
569.502	1	5
570.692	1	7
571.881	1	21
573.070	1	5
574.260	1	16
575.449	1	10
576.638	1	0
577.827	1	2
579.016	1	12
580.205	1	1
581.394	1	1
582.583	1	12
583.772	1	7
584.961	1	8
586.150	1	15
587.339	1	7
588.528	1	9
589.717	1	7
590.905	1	0
592.094	1	6
593.283	1	2
594.471	1	19
595.660	1	12
596.848	1	3
598.037	1	5
599.225	1	2
600.413	1	11
601.602	1	16
602.790	1	8
603.978	1	8
605.166	1	14
606.355	1	3
607.543	1	4
608.731	1	-1
609.919	1	12
611.107	1	5
612.295	1	-1
613.483	1	12
614.671	1	10
615.858	1	5
617.046	1	5
618.234	1	0
619.422	1	0
620.609	1	5
621.797	1	5
622.985	1	7
624.172	1	6
625.360	1	2
626.547	1	5
627.735	1	9
628.922	1	11
630.109	1	3
631.297	1	-4
632.484	1	5
633.671	1	-6
634.858	1	-2
636.045	1	14
637.232	1	4
638.419	1	-2
639.606	1	4
640.793	1	5
641.980	1	9
643.167	1	-1
644.354	1	0
645.541	1	3
646.728	1	-3
647.914	1	-9
649.101	1	-2
650.288	1	8
651.474	1	8
652.661	1	-1
653.847	1	6
655.034	1	13
656.220	1	-7
657.406	1	11
658.593	1	12
659.779	1	8
660.965	1	5
662.152	1	0
663.338	1	16
664.524	1	9
665.710	1	1
666.896	1	0
668.082	1	4
669.268	1	5
670.454	1	8
671.640	1	10
672.826	1	-3
674.011	1	-1
675.197	1	-2
676.383	1	1
677.569	1	-4
678.754	1	-4
679.940	1	1
681.125	1	12
682.311	1	3
683.496	1	9
684.682	1	-10
685.867	1	-5
687.053	1	9
688.238	1	15
688.746	1	2