File: Data/GaN_200K_800ms/GaN_sample F_spot 12_UVVIS_200 K_200um_800 ms 2x2mm1_154.txt
340.368	1	7
341.565	1	-9
342.763	1	5
343.960	1	12
345.157	1	-3
346.354	1	8
347.552	1	2
348.749	1	-4
349.946	1	-1
351.143	1	5
352.340	1	7
353.537	1	4
354.734	1	17
355.931	1	8
357.127	1	8
358.324	1	3
359.521	1	5
360.718	1	9
361.914	1	15
363.111	1	12
364.308	1	21
365.504	1	38
366.701	1	40
367.897	1	39
369.093	1	50
370.290	1	43
371.486	1	52
372.682	1	36
373.879	1	29
375.075	1	36
376.271	1	33
377.467	1	29
378.663	1	21
379.859	1	12
381.055	1	25
382.251	1	6
383.447	1	10
384.643	1	7
385.839	1	5
387.035	1	18
388.230	1	12
389.426	1	11
390.622	1	6
391.817	1	4
393.013	1	0
394.208	1	-2
395.404	1	-5
396.599	1	-5
397.795	1	5
398.990	1	5
400.186	1	2
401.381	1	3
402.576	1	3
403.771	1	4
404.967	1	4
406.162	1	9
407.357	1	-9
408.552	1	3
409.747	1	0
410.942	1	11
412.137	1	2
413.332	1	5
414.526	1	-2
415.721	1	-1
416.916	1	7
418.111	1	2
419.305	1	5
420.500	1	6
421.695	1	-6
422.889	1	-8
424.084	1	6
425.278	1	12
426.472	1	-2
427.667	1	15
428.861	1	-5
430.055	1	4
431.250	1	2
432.444	1	7
433.638	1	-5
434.832	1	8
436.026	1	7
437.220	1	9
438.414	1	-13
439.608	1	-6
440.802	1	-3
441.996	1	8
443.190	1	0
444.384	1	-5
445.578	1	-8
446.771	1	12
447.965	1	-3
449.159	1	-1
450.352	1	4
451.546	1	2
452.739	1	11
453.933	1	5
455.126	1	1
456.320	1	1
457.513	1	8
458.706	1	-2
459.899	1	2
461.093	1	2
462.286	1	11
463.479	1	8
464.672	1	5
465.865	1	3
467.058	1	-3
468.251	1	3
469.444	1	-3
470.637	1	5
471.830	1	6
473.023	1	-3
474.215	1	5
475.408	1	3
476.601	1	6
477.793	1	1
478.986	1	3
480.179	1	2
481.371	1	8
482.564	1	-3
483.756	1	17
484.948	1	6
486.141	1	-6
487.333	1	4
488.525	1	4
489.718	1	-1
490.910	1	-2
492.102	1	1
493.294	1	-4
494.486	1	4
495.678	1	-2
496.870	1	10
498.062	1	8
499.254	1	-2
500.446	1	-5
501.638	1	5
502.829	1	-1
504.021	1	4
505.213	1	8
506.404	1	7
507.596	1	3
508.788	1	14
509.979	1	11
511.171	1	-4
512.362	1	5
513.553	1	-4
514.745	1	-2
515.936	1	-3
517.127	1	-1
518.319	1	-3
519.510	1	1
520.701	1	3
521.892	1	-5
523.083	1	5
524.274	1	6
525.465	1	20
526.656	1	-2
527.847	1	9
529.038	1	5
530.229	1	-1
531.419	1	6
532.610	1	-5
533.801	1	16
534.991	1	-1
536.182	1	2
537.373	1	11
538.563	1	7
539.754	1	10
540.944	1	-2
542.134	1	6
543.325	1	2
544.515	1	1
545.705	1	3
546.896	1	0
548.086	1	4
549.276	1	4
550.466	1	14
551.656	1	6
552.846	1	7
554.036	1	1
555.226	1	-7
556.416	1	4
557.606	1	3
558.796	1	5
559.986	1	-3
561.175	1	5
562.365	1	1
563.555	1	-3
564.744	1	3
565.934	1	2
567.123	1	11
568.313	1	8
569.502	1	-3
570.692	1	16
571.881	1	18
573.070	1	9
574.260	1	16
575.449	1	-4
576.638	1	4
577.827	1	6
579.016	1	6
580.205	1	10
581.394	1	8
582.583	1	16
583.772	1	5
584.961	1	6
586.150	1	1
587.339	1	9
588.528	1	0
589.717	1	8
590.905	1	9
592.094	1	-1
593.283	1	5
594.471	1	18
595.660	1	4
596.848	1	0
598.037	1	2
599.225	1	-3
600.413	1	7
601.602	1	11
602.790	1	3
603.978	1	7
605.166	1	7
606.355	1	15
607.543	1	10
608.731	1	5
609.919	1	12
611.107	1	3
612.295	1	-8
613.483	1	2
614.671	1	9
615.858	1	0
617.046	1	8
618.234	1	-3
619.422	1	-5
620.609	1	10
621.797	1	-2
622.985	1	7
624.172	1	-2
625.360	1	5
626.547	1	1
627.735	1	6
628.922	1	3
630.109	1	-6
631.297	1	6
632.484	1	-1
633.671	1	-1
634.858	1	-4
636.045	1	15
637.232	1	-8
638.419	1	1
639.606	1	1
640.793	1	23
641.980	1	9
643.167	1	-1
644.354	1	-2
645.541	1	5
646.728	1	5
647.914	1	2
649.101	1	4
650.288	1	12
651.474	1	2
652.661	1	-1
653.847	1	11
655.034	1	4
656.220	1	-3
657.406	1	5
658.593	1	16
659.779	1	-3
660.965	1	13
662.152	1	2
663.338	1	15
664.524	1	-1
665.710	1	2
666.896	1	0
668.082	1	7
669.268	1	-4
670.454	1	13
671.640	1	-4
672.826	1	-5
674.011	1	0
675.197	1	0
676.383	1	4
677.569	1	-2
678.754	1	1
679.940	1	-4
681.125	1	-8
682.311	1	6
683.496	1	-2
684.682	1	-2
685.867	1	2
687.053	1	3
688.238	1	13
688.746	1	6