File: Data/GaN_200K_800ms/GaN_sample F_spot 12_UVVIS_200 K_200um_800 ms 2x2mm1_247.txt
340.368	1	-1
341.565	1	-15
342.763	1	7
343.960	1	-4
345.157	1	-1
346.354	1	-2
347.552	1	0
348.749	1	1
349.946	1	-7
351.143	1	-4
352.340	1	13
353.537	1	-1
354.734	1	-1
355.931	1	5
357.127	1	-5
358.324	1	-1
359.521	1	3
360.718	1	10
361.914	1	4
363.111	1	5
364.308	1	1
365.504	1	15
366.701	1	28
367.897	1	10
369.093	1	9
370.290	1	18
371.486	1	29
372.682	1	24
373.879	1	14
375.075	1	9
376.271	1	16
377.467	1	13
378.663	1	5
379.859	1	8
381.055	1	10
382.251	1	-3
383.447	1	1
384.643	1	17
385.839	1	-1
387.035	1	-1
388.230	1	11
389.426	1	3
390.622	1	0
391.817	1	7
393.013	1	0
394.208	1	4
395.404	1	-7
396.599	1	7
397.795	1	-7
398.990	1	-4
400.186	1	-9
401.381	1	-5
402.576	1	-3
403.771	1	-1
404.967	1	4
406.162	1	6
407.357	1	-8
408.552	1	-9
409.747	1	11
410.942	1	6
412.137	1	10
413.332	1	2
414.526	1	-8
415.721	1	-4
416.916	1	-5
418.111	1	2
419.305	1	1
420.500	1	-1
421.695	1	-12
422.889	1	-1
424.084	1	8
425.278	1	9
426.472	1	7
427.667	1	-5
428.861	1	8
430.055	1	2
431.250	1	-5
432.444	1	-2
433.638	1	-11
434.832	1	3
436.026	1	14
437.220	1	3
438.414	1	-14
439.608	1	-5
440.802	1	1
441.996	1	1
443.190	1	-1
444.384	1	-5
445.578	1	-12
446.771	1	4
447.965	1	1
449.159	1	-7
450.352	1	-2
451.546	1	3
452.739	1	-1
453.933	1	-1
455.126	1	-4
456.320	1	0
457.513	1	-2
458.706	1	2
459.899	1	1
461.093	1	3
462.286	1	-7
463.479	1	-6
464.672	1	-4
465.865	1	-7
467.058	1	2
468.251	1	-1
469.444	1	-11
470.637	1	1
471.830	1	11
473.023	1	0
474.215	1	15
475.408	1	2
476.601	1	1
477.793	1	0
478.986	1	-2
480.179	1	5
481.371	1	-1
482.564	1	-7
483.756	1	9
484.948	1	-9
486.141	1	-7
487.333	1	0
488.525	1	-1
489.718	1	6
490.910	1	1
492.102	1	-7
493.294	1	-2
494.486	1	17
495.678	1	-4
496.870	1	-4
498.062	1	-2
499.254	1	2
500.446	1	-6
501.638	1	-9
502.829	1	-1
504.021	1	7
505.213	1	-1
506.404	1	-4
507.596	1	4
508.788	1	20
509.979	1	-2
511.171	1	-1
512.362	1	-6
513.553	1	-2
514.745	1	-7
515.936	1	-4
517.127	1	7
518.319	1	1
519.510	1	-6
520.701	1	0
521.892	1	4
523.083	1	-4
524.274	1	-7
525.465	1	14
526.656	1	1
527.847	1	-5
529.038	1	7
530.229	1	3
531.419	1	8
532.610	1	-1
533.801	1	20
534.991	1	4
536.182	1	0
537.373	1	-2
538.563	1	10
539.754	1	18
540.944	1	1
542.134	1	6
543.325	1	4
544.515	1	-2
545.705	1	-3
546.896	1	3
548.086	1	6
549.276	1	6
550.466	1	4
551.656	1	0
552.846	1	2
554.036	1	-4
555.226	1	-5
556.416	1	-1
557.606	1	-3
558.796	1	-1
559.986	1	-9
561.175	1	10
562.365	1	7
563.555	1	0
564.744	1	4
565.934	1	2
567.123	1	7
568.313	1	4
569.502	1	-12
570.692	1	1
571.881	1	7
573.070	1	1
574.260	1	3
575.449	1	-8
576.638	1	-5
577.827	1	6
579.016	1	13
580.205	1	-6
581.394	1	-2
582.583	1	12
583.772	1	5
584.961	1	2
586.150	1	1
587.339	1	3
588.528	1	-2
589.717	1	12
590.905	1	6
592.094	1	3
593.283	1	2
594.471	1	16
595.660	1	-3
596.848	1	3
598.037	1	9
599.225	1	-3
600.413	1	6
601.602	1	11
602.790	1	-3
603.978	1	1
605.166	1	6
606.355	1	5
607.543	1	0
608.731	1	0
609.919	1	7
611.107	1	-5
612.295	1	-1
613.483	1	-1
614.671	1	4
615.858	1	-3
617.046	1	-7
618.234	1	-1
619.422	1	-11
620.609	1	0
621.797	1	-5
622.985	1	9
624.172	1	-1
625.360	1	5
626.547	1	-1
627.735	1	-6
628.922	1	-1
630.109	1	-14
631.297	1	-3
632.484	1	-5
633.671	1	-2
634.858	1	-2
636.045	1	21
637.232	1	3
638.419	1	-4
639.606	1	13
640.793	1	14
641.980	1	2
643.167	1	-5
644.354	1	2
645.541	1	-7
646.728	1	4
647.914	1	-7
649.101	1	-7
650.288	1	4
651.474	1	-5
652.661	1	-7
653.847	1	17
655.034	1	2
656.220	1	-9
657.406	1	-1
658.593	1	4
659.779	1	11
660.965	1	11
662.152	1	8
663.338	1	9
664.524	1	-4
665.710	1	-5
666.896	1	-5
668.082	1	1
669.268	1	6
670.454	1	8
671.640	1	2
672.826	1	-3
674.011	1	4
675.197	1	-1
676.383	1	3
677.569	1	-3
678.754	1	-5
679.940	1	-6
681.125	1	7
682.311	1	6
683.496	1	8
684.682	1	-3
685.867	1	13
687.053	1	1
688.238	1	12
688.746	1	3