File: Data/GaN_200K_800ms/GaN_sample F_spot 12_UVVIS_200 K_200um_800 ms 2x2mm1_382.txt
340.368	1	-2
341.565	1	-11
342.763	1	0
343.960	1	6
345.157	1	0
346.354	1	-8
347.552	1	-2
348.749	1	-11
349.946	1	-5
351.143	1	-1
352.340	1	-1
353.537	1	-1
354.734	1	7
355.931	1	0
357.127	1	-6
358.324	1	0
359.521	1	6
360.718	1	4
361.914	1	9
363.111	1	2
364.308	1	0
365.504	1	0
366.701	1	0
367.897	1	6
369.093	1	2
370.290	1	4
371.486	1	21
372.682	1	13
373.879	1	10
375.075	1	3
376.271	1	13
377.467	1	4
378.663	1	-6
379.859	1	-4
381.055	1	14
382.251	1	-4
383.447	1	5
384.643	1	10
385.839	1	-2
387.035	1	-7
388.230	1	7
389.426	1	-2
390.622	1	-2
391.817	1	2
393.013	1	1
394.208	1	-12
395.404	1	-6
396.599	1	0
397.795	1	-5
398.990	1	0
400.186	1	4
401.381	1	-14
402.576	1	-8
403.771	1	0
404.967	1	-4
406.162	1	7
407.357	1	-3
408.552	1	-6
409.747	1	-6
410.942	1	5
412.137	1	-2
413.332	1	1
414.526	1	-6
415.721	1	-4
416.916	1	-10
418.111	1	-5
419.305	1	-3
420.500	1	-15
421.695	1	3
422.889	1	-9
424.084	1	3
425.278	1	10
426.472	1	-4
427.667	1	1
428.861	1	-3
430.055	1	-2
431.250	1	-5
432.444	1	-2
433.638	1	-7
434.832	1	0
436.026	1	-2
437.220	1	10
438.414	1	-5
439.608	1	-10
440.802	1	-7
441.996	1	7
443.190	1	1
444.384	1	-10
445.578	1	-4
446.771	1	12
447.965	1	6
449.159	1	-8
450.352	1	1
451.546	1	-9
452.739	1	0
453.933	1	-1
455.126	1	-15
456.320	1	-7
457.513	1	6
458.706	1	-2
459.899	1	5
461.093	1	-4
462.286	1	-5
463.479	1	5
464.672	1	-1
465.865	1	-2
467.058	1	0
468.251	1	0
469.444	1	-15
470.637	1	-6
471.830	1	-2
473.023	1	6
474.215	1	12
475.408	1	1
476.601	1	2
477.793	1	0
478.986	1	1
480.179	1	0
481.371	1	2
482.564	1	4
483.756	1	4
484.948	1	-1
486.141	1	-2
487.333	1	-2
488.525	1	0
489.718	1	1
490.910	1	-1
492.102	1	-2
493.294	1	-11
494.486	1	2
495.678	1	-9
496.870	1	4
498.062	1	-2
499.254	1	-3
500.446	1	-13
501.638	1	-8
502.829	1	-13
504.021	1	3
505.213	1	0
506.404	1	11
507.596	1	4
508.788	1	24
509.979	1	-7
511.171	1	0
512.362	1	-11
513.553	1	-12
514.745	1	4
515.936	1	1
517.127	1	6
518.319	1	2
519.510	1	1
520.701	1	-6
521.892	1	9
523.083	1	-9
524.274	1	-1
525.465	1	4
526.656	1	-6
527.847	1	-7
529.038	1	3
530.229	1	7
531.419	1	4
532.610	1	-5
533.801	1	2
534.991	1	-6
536.182	1	2
537.373	1	-3
538.563	1	0
539.754	1	1
540.944	1	-5
542.134	1	4
543.325	1	0
544.515	1	1
545.705	1	-8
546.896	1	9
548.086	1	-6
549.276	1	-9
550.466	1	6
551.656	1	-4
552.846	1	5
554.036	1	-7
555.226	1	-8
556.416	1	-9
557.606	1	0
558.796	1	1
559.986	1	-1
561.175	1	5
562.365	1	-1
563.555	1	-9
564.744	1	2
565.934	1	8
567.123	1	4
568.313	1	7
569.502	1	0
570.692	1	6
571.881	1	7
573.070	1	10
574.260	1	6
575.449	1	-2
576.638	1	-6
577.827	1	-6
579.016	1	9
580.205	1	-2
581.394	1	-4
582.583	1	5
583.772	1	12
584.961	1	1
586.150	1	2
587.339	1	3
588.528	1	8
589.717	1	1
590.905	1	-5
592.094	1	-2
593.283	1	-1
594.471	1	13
595.660	1	-3
596.848	1	3
598.037	1	2
599.225	1	-12
600.413	1	4
601.602	1	8
602.790	1	-1
603.978	1	-1
605.166	1	5
606.355	1	0
607.543	1	-2
608.731	1	-2
609.919	1	5
611.107	1	6
612.295	1	-1
613.483	1	8
614.671	1	0
615.858	1	4
617.046	1	-7
618.234	1	-7
619.422	1	-6
620.609	1	-2
621.797	1	-2
622.985	1	-3
624.172	1	-1
625.360	1	4
626.547	1	-7
627.735	1	10
628.922	1	6
630.109	1	-11
631.297	1	-1
632.484	1	2
633.671	1	-6
634.858	1	-6
636.045	1	9
637.232	1	-8
638.419	1	-12
639.606	1	9
640.793	1	8
641.980	1	6
643.167	1	4
644.354	1	0
645.541	1	-5
646.728	1	-3
647.914	1	-2
649.101	1	-6
650.288	1	0
651.474	1	-1
652.661	1	-8
653.847	1	13
655.034	1	4
656.220	1	-1
657.406	1	4
658.593	1	7
659.779	1	-2
660.965	1	4
662.152	1	3
663.338	1	12
664.524	1	-6
665.710	1	7
666.896	1	-1
668.082	1	-4
669.268	1	-5
670.454	1	8
671.640	1	3
672.826	1	-6
674.011	1	1
675.197	1	-6
676.383	1	-7
677.569	1	3
678.754	1	-1
679.940	1	-1
681.125	1	3
682.311	1	-2
683.496	1	0
684.682	1	-14
685.867	1	0
687.053	1	1
688.238	1	1
688.746	1	-2