File: Data/GaN_200K_800ms/GaN_sample F_spot 12_UVVIS_200 K_200um_800 ms 2x2mm1_264.txt
340.368	1	7
341.565	1	-11
342.763	1	11
343.960	1	2
345.157	1	-3
346.354	1	-2
347.552	1	-4
348.749	1	-5
349.946	1	-9
351.143	1	-3
352.340	1	2
353.537	1	6
354.734	1	4
355.931	1	9
357.127	1	-6
358.324	1	5
359.521	1	7
360.718	1	6
361.914	1	10
363.111	1	7
364.308	1	12
365.504	1	20
366.701	1	18
367.897	1	19
369.093	1	20
370.290	1	20
371.486	1	21
372.682	1	17
373.879	1	10
375.075	1	16
376.271	1	19
377.467	1	4
378.663	1	2
379.859	1	11
381.055	1	19
382.251	1	-3
383.447	1	7
384.643	1	9
385.839	1	1
387.035	1	4
388.230	1	5
389.426	1	5
390.622	1	6
391.817	1	-1
393.013	1	7
394.208	1	4
395.404	1	4
396.599	1	3
397.795	1	-3
398.990	1	1
400.186	1	0
401.381	1	4
402.576	1	-5
403.771	1	3
404.967	1	6
406.162	1	7
407.357	1	-2
408.552	1	-2
409.747	1	-4
410.942	1	7
412.137	1	7
413.332	1	8
414.526	1	-2
415.721	1	0
416.916	1	-2
418.111	1	2
419.305	1	-6
420.500	1	-3
421.695	1	-4
422.889	1	-11
424.084	1	-1
425.278	1	12
426.472	1	3
427.667	1	6
428.861	1	-3
430.055	1	3
431.250	1	-11
432.444	1	10
433.638	1	-2
434.832	1	2
436.026	1	11
437.220	1	2
438.414	1	-10
439.608	1	-9
440.802	1	8
441.996	1	4
443.190	1	1
444.384	1	-8
445.578	1	-7
446.771	1	11
447.965	1	2
449.159	1	-7
450.352	1	-7
451.546	1	-3
452.739	1	0
453.933	1	5
455.126	1	-8
456.320	1	-3
457.513	1	11
458.706	1	2
459.899	1	-6
461.093	1	-8
462.286	1	6
463.479	1	-1
464.672	1	-8
465.865	1	3
467.058	1	3
468.251	1	-6
469.444	1	-4
470.637	1	5
471.830	1	-1
473.023	1	2
474.215	1	9
475.408	1	-2
476.601	1	1
477.793	1	1
478.986	1	-3
480.179	1	-4
481.371	1	4
482.564	1	1
483.756	1	8
484.948	1	-12
486.141	1	-6
487.333	1	9
488.525	1	5
489.718	1	1
490.910	1	-1
492.102	1	2
493.294	1	-1
494.486	1	-5
495.678	1	-2
496.870	1	2
498.062	1	1
499.254	1	0
500.446	1	-6
501.638	1	-11
502.829	1	-2
504.021	1	4
505.213	1	13
506.404	1	0
507.596	1	7
508.788	1	12
509.979	1	-6
511.171	1	1
512.362	1	-4
513.553	1	-9
514.745	1	-5
515.936	1	10
517.127	1	1
518.319	1	-6
519.510	1	7
520.701	1	0
521.892	1	1
523.083	1	-9
524.274	1	2
525.465	1	8
526.656	1	-4
527.847	1	2
529.038	1	1
530.229	1	8
531.419	1	0
532.610	1	1
533.801	1	16
534.991	1	4
536.182	1	7
537.373	1	-2
538.563	1	15
539.754	1	4
540.944	1	-10
542.134	1	11
543.325	1	-4
544.515	1	-2
545.705	1	1
546.896	1	-3
548.086	1	5
549.276	1	-6
550.466	1	1
551.656	1	5
552.846	1	4
554.036	1	-2
555.226	1	-4
556.416	1	-7
557.606	1	0
558.796	1	-1
559.986	1	3
561.175	1	1
562.365	1	-6
563.555	1	-6
564.744	1	7
565.934	1	1
567.123	1	-2
568.313	1	4
569.502	1	-4
570.692	1	4
571.881	1	16
573.070	1	-1
574.260	1	6
575.449	1	6
576.638	1	-8
577.827	1	1
579.016	1	8
580.205	1	-5
581.394	1	-2
582.583	1	12
583.772	1	0
584.961	1	9
586.150	1	-3
587.339	1	-6
588.528	1	2
589.717	1	8
590.905	1	-3
592.094	1	-6
593.283	1	12
594.471	1	12
595.660	1	-4
596.848	1	-2
598.037	1	-5
599.225	1	-3
600.413	1	4
601.602	1	14
602.790	1	3
603.978	1	4
605.166	1	1
606.355	1	1
607.543	1	3
608.731	1	1
609.919	1	5
611.107	1	1
612.295	1	-3
613.483	1	2
614.671	1	0
615.858	1	4
617.046	1	16
618.234	1	2
619.422	1	-6
620.609	1	10
621.797	1	-3
622.985	1	4
624.172	1	-6
625.360	1	-1
626.547	1	0
627.735	1	-2
628.922	1	9
630.109	1	-5
631.297	1	-3
632.484	1	-6
633.671	1	-11
634.858	1	-6
636.045	1	14
637.232	1	-3
638.419	1	-1
639.606	1	1
640.793	1	7
641.980	1	6
643.167	1	-5
644.354	1	-5
645.541	1	4
646.728	1	-1
647.914	1	-2
649.101	1	2
650.288	1	7
651.474	1	-1
652.661	1	4
653.847	1	4
655.034	1	-2
656.220	1	-6
657.406	1	6
658.593	1	1
659.779	1	3
660.965	1	2
662.152	1	2
663.338	1	5
664.524	1	7
665.710	1	6
666.896	1	-5
668.082	1	-3
669.268	1	-2
670.454	1	8
671.640	1	-5
672.826	1	0
674.011	1	-4
675.197	1	-15
676.383	1	2
677.569	1	-9
678.754	1	-4
679.940	1	5
681.125	1	7
682.311	1	4
683.496	1	1
684.682	1	-6
685.867	1	7
687.053	1	-1
688.238	1	1
688.746	1	-2