File: Data/GaN_200K_800ms/GaN_sample F_spot 12_UVVIS_200 K_200um_800 ms 2x2mm1_295.txt
340.368	1	0
341.565	1	-6
342.763	1	7
343.960	1	7
345.157	1	-9
346.354	1	-1
347.552	1	-1
348.749	1	-7
349.946	1	-7
351.143	1	0
352.340	1	8
353.537	1	4
354.734	1	7
355.931	1	5
357.127	1	0
358.324	1	9
359.521	1	5
360.718	1	9
361.914	1	13
363.111	1	0
364.308	1	7
365.504	1	17
366.701	1	16
367.897	1	27
369.093	1	9
370.290	1	18
371.486	1	13
372.682	1	22
373.879	1	10
375.075	1	6
376.271	1	13
377.467	1	9
378.663	1	4
379.859	1	10
381.055	1	16
382.251	1	4
383.447	1	-12
384.643	1	5
385.839	1	0
387.035	1	6
388.230	1	7
389.426	1	-3
390.622	1	-1
391.817	1	12
393.013	1	12
394.208	1	-1
395.404	1	-6
396.599	1	-5
397.795	1	-6
398.990	1	-4
400.186	1	-3
401.381	1	-7
402.576	1	7
403.771	1	6
404.967	1	11
406.162	1	-3
407.357	1	0
408.552	1	-5
409.747	1	2
410.942	1	2
412.137	1	8
413.332	1	0
414.526	1	1
415.721	1	2
416.916	1	-8
418.111	1	2
419.305	1	-3
420.500	1	5
421.695	1	-12
422.889	1	-11
424.084	1	-9
425.278	1	12
426.472	1	-3
427.667	1	5
428.861	1	-4
430.055	1	-3
431.250	1	-8
432.444	1	9
433.638	1	-7
434.832	1	-5
436.026	1	9
437.220	1	0
438.414	1	-4
439.608	1	-13
440.802	1	-6
441.996	1	-7
443.190	1	0
444.384	1	-11
445.578	1	-15
446.771	1	14
447.965	1	-8
449.159	1	-7
450.352	1	-3
451.546	1	-2
452.739	1	0
453.933	1	1
455.126	1	-5
456.320	1	-6
457.513	1	-1
458.706	1	-4
459.899	1	8
461.093	1	-8
462.286	1	2
463.479	1	-6
464.672	1	2
465.865	1	2
467.058	1	-4
468.251	1	3
469.444	1	-6
470.637	1	-3
471.830	1	-1
473.023	1	14
474.215	1	-3
475.408	1	1
476.601	1	-10
477.793	1	4
478.986	1	0
480.179	1	-2
481.371	1	2
482.564	1	0
483.756	1	7
484.948	1	-7
486.141	1	-10
487.333	1	0
488.525	1	5
489.718	1	-1
490.910	1	-8
492.102	1	-7
493.294	1	3
494.486	1	8
495.678	1	0
496.870	1	4
498.062	1	-2
499.254	1	0
500.446	1	5
501.638	1	-8
502.829	1	-4
504.021	1	-8
505.213	1	2
506.404	1	0
507.596	1	7
508.788	1	14
509.979	1	3
511.171	1	-4
512.362	1	0
513.553	1	0
514.745	1	-4
515.936	1	-5
517.127	1	-6
518.319	1	-3
519.510	1	2
520.701	1	5
521.892	1	-1
523.083	1	-4
524.274	1	7
525.465	1	7
526.656	1	5
527.847	1	2
529.038	1	-2
530.229	1	4
531.419	1	11
532.610	1	1
533.801	1	13
534.991	1	3
536.182	1	-6
537.373	1	-2
538.563	1	3
539.754	1	7
540.944	1	7
542.134	1	-3
543.325	1	4
544.515	1	-3
545.705	1	-5
546.896	1	7
548.086	1	3
549.276	1	0
550.466	1	-4
551.656	1	-6
552.846	1	1
554.036	1	1
555.226	1	-11
556.416	1	1
557.606	1	4
558.796	1	-5
559.986	1	-11
561.175	1	-4
562.365	1	6
563.555	1	6
564.744	1	-2
565.934	1	4
567.123	1	3
568.313	1	10
569.502	1	1
570.692	1	0
571.881	1	6
573.070	1	3
574.260	1	12
575.449	1	-4
576.638	1	-10
577.827	1	-1
579.016	1	0
580.205	1	10
581.394	1	-4
582.583	1	7
583.772	1	5
584.961	1	4
586.150	1	-3
587.339	1	9
588.528	1	-3
589.717	1	2
590.905	1	3
592.094	1	1
593.283	1	0
594.471	1	13
595.660	1	5
596.848	1	10
598.037	1	-10
599.225	1	-7
600.413	1	4
601.602	1	12
602.790	1	-5
603.978	1	-2
605.166	1	12
606.355	1	5
607.543	1	7
608.731	1	1
609.919	1	7
611.107	1	-6
612.295	1	-8
613.483	1	-10
614.671	1	9
615.858	1	1
617.046	1	11
618.234	1	3
619.422	1	-8
620.609	1	4
621.797	1	0
622.985	1	-6
624.172	1	-5
625.360	1	7
626.547	1	-2
627.735	1	3
628.922	1	1
630.109	1	-14
631.297	1	-5
632.484	1	-2
633.671	1	-3
634.858	1	5
636.045	1	3
637.232	1	-1
638.419	1	-1
639.606	1	0
640.793	1	8
641.980	1	6
643.167	1	-8
644.354	1	5
645.541	1	9
646.728	1	-3
647.914	1	-5
649.101	1	-2
650.288	1	7
651.474	1	-9
652.661	1	2
653.847	1	11
655.034	1	-2
656.220	1	-4
657.406	1	10
658.593	1	9
659.779	1	-5
660.965	1	11
662.152	1	4
663.338	1	9
664.524	1	-1
665.710	1	4
666.896	1	9
668.082	1	-1
669.268	1	5
670.454	1	4
671.640	1	0
672.826	1	1
674.011	1	-14
675.197	1	-6
676.383	1	3
677.569	1	-7
678.754	1	-6
679.940	1	-3
681.125	1	9
682.311	1	4
683.496	1	2
684.682	1	-9
685.867	1	-8
687.053	1	9
688.238	1	3
688.746	1	1