File: Data/GaN_200K_800ms/GaN_sample F_spot 12_UVVIS_200 K_200um_800 ms 2x2mm1_347.txt
340.368	1	4
341.565	1	-11
342.763	1	2
343.960	1	-7
345.157	1	-5
346.354	1	-4
347.552	1	-1
348.749	1	-2
349.946	1	-2
351.143	1	-2
352.340	1	6
353.537	1	0
354.734	1	5
355.931	1	2
357.127	1	4
358.324	1	3
359.521	1	-2
360.718	1	9
361.914	1	-3
363.111	1	-3
364.308	1	3
365.504	1	16
366.701	1	12
367.897	1	16
369.093	1	18
370.290	1	25
371.486	1	11
372.682	1	12
373.879	1	7
375.075	1	2
376.271	1	6
377.467	1	4
378.663	1	0
379.859	1	-1
381.055	1	9
382.251	1	-7
383.447	1	1
384.643	1	4
385.839	1	8
387.035	1	0
388.230	1	9
389.426	1	-5
390.622	1	-4
391.817	1	1
393.013	1	2
394.208	1	0
395.404	1	-2
396.599	1	-7
397.795	1	4
398.990	1	3
400.186	1	1
401.381	1	-8
402.576	1	-3
403.771	1	4
404.967	1	-6
406.162	1	7
407.357	1	1
408.552	1	-6
409.747	1	-5
410.942	1	8
412.137	1	7
413.332	1	2
414.526	1	-4
415.721	1	2
416.916	1	-19
418.111	1	0
419.305	1	13
420.500	1	-7
421.695	1	-2
422.889	1	-6
424.084	1	0
425.278	1	9
426.472	1	-1
427.667	1	2
428.861	1	-1
430.055	1	2
431.250	1	-7
432.444	1	8
433.638	1	-7
434.832	1	2
436.026	1	7
437.220	1	1
438.414	1	-4
439.608	1	-8
440.802	1	-5
441.996	1	-4
443.190	1	1
444.384	1	-10
445.578	1	-11
446.771	1	13
447.965	1	2
449.159	1	0
450.352	1	-5
451.546	1	1
452.739	1	1
453.933	1	1
455.126	1	-8
456.320	1	-1
457.513	1	1
458.706	1	6
459.899	1	4
461.093	1	0
462.286	1	6
463.479	1	-4
464.672	1	-11
465.865	1	5
467.058	1	-6
468.251	1	2
469.444	1	-1
470.637	1	-1
471.830	1	-1
473.023	1	3
474.215	1	10
475.408	1	6
476.601	1	-3
477.793	1	3
478.986	1	-2
480.179	1	6
481.371	1	5
482.564	1	3
483.756	1	-2
484.948	1	-4
486.141	1	-7
487.333	1	6
488.525	1	-6
489.718	1	2
490.910	1	-6
492.102	1	-6
493.294	1	-2
494.486	1	8
495.678	1	0
496.870	1	6
498.062	1	-3
499.254	1	-7
500.446	1	-9
501.638	1	-7
502.829	1	4
504.021	1	1
505.213	1	11
506.404	1	2
507.596	1	1
508.788	1	15
509.979	1	-1
511.171	1	1
512.362	1	2
513.553	1	-11
514.745	1	-12
515.936	1	-4
517.127	1	-1
518.319	1	3
519.510	1	1
520.701	1	-5
521.892	1	3
523.083	1	2
524.274	1	-6
525.465	1	5
526.656	1	-3
527.847	1	10
529.038	1	5
530.229	1	-8
531.419	1	2
532.610	1	-5
533.801	1	9
534.991	1	-5
536.182	1	-2
537.373	1	9
538.563	1	2
539.754	1	10
540.944	1	-4
542.134	1	12
543.325	1	2
544.515	1	-2
545.705	1	2
546.896	1	-9
548.086	1	2
549.276	1	-1
550.466	1	3
551.656	1	-2
552.846	1	-1
554.036	1	-9
555.226	1	-17
556.416	1	-9
557.606	1	8
558.796	1	3
559.986	1	2
561.175	1	2
562.365	1	4
563.555	1	-3
564.744	1	4
565.934	1	18
567.123	1	5
568.313	1	-5
569.502	1	-9
570.692	1	0
571.881	1	7
573.070	1	2
574.260	1	12
575.449	1	-2
576.638	1	-9
577.827	1	-10
579.016	1	5
580.205	1	-2
581.394	1	0
582.583	1	4
583.772	1	1
584.961	1	-1
586.150	1	3
587.339	1	7
588.528	1	1
589.717	1	7
590.905	1	4
592.094	1	0
593.283	1	0
594.471	1	5
595.660	1	-4
596.848	1	12
598.037	1	3
599.225	1	-7
600.413	1	5
601.602	1	10
602.790	1	6
603.978	1	3
605.166	1	4
606.355	1	9
607.543	1	5
608.731	1	2
609.919	1	5
611.107	1	0
612.295	1	4
613.483	1	2
614.671	1	1
615.858	1	1
617.046	1	-2
618.234	1	9
619.422	1	-7
620.609	1	2
621.797	1	5
622.985	1	2
624.172	1	1
625.360	1	8
626.547	1	4
627.735	1	2
628.922	1	6
630.109	1	-6
631.297	1	-2
632.484	1	-9
633.671	1	1
634.858	1	0
636.045	1	15
637.232	1	-7
638.419	1	-7
639.606	1	4
640.793	1	4
641.980	1	-4
643.167	1	-6
644.354	1	4
645.541	1	2
646.728	1	-6
647.914	1	-7
649.101	1	-6
650.288	1	7
651.474	1	-8
652.661	1	-7
653.847	1	12
655.034	1	-1
656.220	1	-3
657.406	1	10
658.593	1	6
659.779	1	-2
660.965	1	4
662.152	1	-5
663.338	1	7
664.524	1	-2
665.710	1	4
666.896	1	-5
668.082	1	2
669.268	1	-3
670.454	1	5
671.640	1	2
672.826	1	2
674.011	1	0
675.197	1	-7
676.383	1	0
677.569	1	1
678.754	1	-17
679.940	1	-6
681.125	1	6
682.311	1	0
683.496	1	0
684.682	1	-4
685.867	1	0
687.053	1	4
688.238	1	-2
688.746	1	-2