File: Data/GaN_200K_800ms/GaN_sample F_spot 12_UVVIS_200 K_200um_800 ms 2x2mm1_228.txt
340.368	1	5
341.565	1	-1
342.763	1	5
343.960	1	5
345.157	1	-9
346.354	1	9
347.552	1	0
348.749	1	2
349.946	1	-7
351.143	1	7
352.340	1	11
353.537	1	2
354.734	1	2
355.931	1	0
357.127	1	5
358.324	1	0
359.521	1	13
360.718	1	4
361.914	1	6
363.111	1	14
364.308	1	3
365.504	1	20
366.701	1	6
367.897	1	27
369.093	1	32
370.290	1	27
371.486	1	33
372.682	1	32
373.879	1	13
375.075	1	15
376.271	1	24
377.467	1	12
378.663	1	2
379.859	1	16
381.055	1	12
382.251	1	2
383.447	1	5
384.643	1	10
385.839	1	7
387.035	1	3
388.230	1	10
389.426	1	4
390.622	1	1
391.817	1	3
393.013	1	-6
394.208	1	9
395.404	1	0
396.599	1	-1
397.795	1	3
398.990	1	7
400.186	1	-3
401.381	1	-6
402.576	1	-4
403.771	1	3
404.967	1	-1
406.162	1	2
407.357	1	4
408.552	1	1
409.747	1	3
410.942	1	10
412.137	1	2
413.332	1	5
414.526	1	0
415.721	1	-2
416.916	1	-7
418.111	1	-5
419.305	1	2
420.500	1	1
421.695	1	0
422.889	1	-6
424.084	1	-6
425.278	1	4
426.472	1	6
427.667	1	6
428.861	1	0
430.055	1	9
431.250	1	-6
432.444	1	2
433.638	1	1
434.832	1	9
436.026	1	5
437.220	1	0
438.414	1	-2
439.608	1	-10
440.802	1	2
441.996	1	6
443.190	1	-1
444.384	1	-4
445.578	1	0
446.771	1	5
447.965	1	3
449.159	1	-8
450.352	1	-4
451.546	1	0
452.739	1	4
453.933	1	0
455.126	1	2
456.320	1	4
457.513	1	-1
458.706	1	3
459.899	1	2
461.093	1	3
462.286	1	2
463.479	1	4
464.672	1	3
465.865	1	-6
467.058	1	-8
468.251	1	0
469.444	1	-8
470.637	1	-1
471.830	1	1
473.023	1	-1
474.215	1	14
475.408	1	-4
476.601	1	3
477.793	1	-2
478.986	1	-10
480.179	1	-2
481.371	1	12
482.564	1	2
483.756	1	5
484.948	1	-17
486.141	1	-4
487.333	1	5
488.525	1	-4
489.718	1	0
490.910	1	1
492.102	1	-7
493.294	1	0
494.486	1	0
495.678	1	-5
496.870	1	1
498.062	1	-6
499.254	1	6
500.446	1	0
501.638	1	2
502.829	1	-1
504.021	1	5
505.213	1	5
506.404	1	6
507.596	1	-1
508.788	1	15
509.979	1	7
511.171	1	-1
512.362	1	-8
513.553	1	-9
514.745	1	-3
515.936	1	5
517.127	1	0
518.319	1	2
519.510	1	-7
520.701	1	-4
521.892	1	7
523.083	1	-5
524.274	1	10
525.465	1	2
526.656	1	-3
527.847	1	4
529.038	1	0
530.229	1	3
531.419	1	11
532.610	1	-3
533.801	1	15
534.991	1	2
536.182	1	3
537.373	1	6
538.563	1	4
539.754	1	3
540.944	1	0
542.134	1	9
543.325	1	6
544.515	1	1
545.705	1	-1
546.896	1	-1
548.086	1	7
549.276	1	2
550.466	1	12
551.656	1	4
552.846	1	2
554.036	1	3
555.226	1	-13
556.416	1	-3
557.606	1	9
558.796	1	5
559.986	1	2
561.175	1	16
562.365	1	5
563.555	1	2
564.744	1	6
565.934	1	10
567.123	1	5
568.313	1	13
569.502	1	-2
570.692	1	9
571.881	1	11
573.070	1	6
574.260	1	13
575.449	1	2
576.638	1	4
577.827	1	6
579.016	1	2
580.205	1	6
581.394	1	0
582.583	1	14
583.772	1	13
584.961	1	7
586.150	1	-7
587.339	1	9
588.528	1	3
589.717	1	-3
590.905	1	0
592.094	1	3
593.283	1	-2
594.471	1	11
595.660	1	1
596.848	1	8
598.037	1	1
599.225	1	-8
600.413	1	7
601.602	1	10
602.790	1	-1
603.978	1	-2
605.166	1	5
606.355	1	3
607.543	1	4
608.731	1	-5
609.919	1	12
611.107	1	-7
612.295	1	2
613.483	1	4
614.671	1	2
615.858	1	1
617.046	1	-1
618.234	1	-4
619.422	1	-4
620.609	1	7
621.797	1	-9
622.985	1	0
624.172	1	-1
625.360	1	3
626.547	1	-5
627.735	1	-2
628.922	1	10
630.109	1	-9
631.297	1	3
632.484	1	-2
633.671	1	1
634.858	1	2
636.045	1	11
637.232	1	-11
638.419	1	-1
639.606	1	5
640.793	1	12
641.980	1	9
643.167	1	-3
644.354	1	-2
645.541	1	-5
646.728	1	-3
647.914	1	0
649.101	1	-9
650.288	1	6
651.474	1	-2
652.661	1	-9
653.847	1	5
655.034	1	4
656.220	1	-7
657.406	1	5
658.593	1	4
659.779	1	-1
660.965	1	10
662.152	1	3
663.338	1	12
664.524	1	1
665.710	1	6
666.896	1	-7
668.082	1	-2
669.268	1	-9
670.454	1	-2
671.640	1	0
672.826	1	4
674.011	1	-8
675.197	1	-8
676.383	1	6
677.569	1	-11
678.754	1	-11
679.940	1	-1
681.125	1	6
682.311	1	5
683.496	1	5
684.682	1	-9
685.867	1	-8
687.053	1	-1
688.238	1	8
688.746	1	-6