File: Data/GaN_200K_800ms/GaN_sample F_spot 12_UVVIS_200 K_200um_800 ms 2x2mm1_48.txt
340.368	1	0
341.565	1	-5
342.763	1	12
343.960	1	6
345.157	1	-2
346.354	1	12
347.552	1	10
348.749	1	5
349.946	1	1
351.143	1	8
352.340	1	22
353.537	1	19
354.734	1	21
355.931	1	20
357.127	1	32
358.324	1	32
359.521	1	51
360.718	1	72
361.914	1	104
363.111	1	146
364.308	1	206
365.504	1	285
366.701	1	396
367.897	1	505
369.093	1	602
370.290	1	562
371.486	1	516
372.682	1	427
373.879	1	359
375.075	1	298
376.271	1	264
377.467	1	216
378.663	1	174
379.859	1	135
381.055	1	130
382.251	1	102
383.447	1	75
384.643	1	91
385.839	1	76
387.035	1	67
388.230	1	57
389.426	1	45
390.622	1	39
391.817	1	46
393.013	1	36
394.208	1	36
395.404	1	17
396.599	1	18
397.795	1	29
398.990	1	23
400.186	1	18
401.381	1	9
402.576	1	14
403.771	1	20
404.967	1	10
406.162	1	23
407.357	1	4
408.552	1	10
409.747	1	6
410.942	1	12
412.137	1	9
413.332	1	11
414.526	1	11
415.721	1	9
416.916	1	6
418.111	1	9
419.305	1	12
420.500	1	4
421.695	1	6
422.889	1	-4
424.084	1	3
425.278	1	8
426.472	1	5
427.667	1	7
428.861	1	-3
430.055	1	9
431.250	1	3
432.444	1	11
433.638	1	-1
434.832	1	3
436.026	1	10
437.220	1	10
438.414	1	-1
439.608	1	-7
440.802	1	0
441.996	1	10
443.190	1	5
444.384	1	-1
445.578	1	5
446.771	1	12
447.965	1	0
449.159	1	-3
450.352	1	1
451.546	1	2
452.739	1	7
453.933	1	3
455.126	1	-1
456.320	1	3
457.513	1	4
458.706	1	10
459.899	1	7
461.093	1	11
462.286	1	10
463.479	1	2
464.672	1	6
465.865	1	2
467.058	1	-2
468.251	1	13
469.444	1	-6
470.637	1	7
471.830	1	2
473.023	1	7
474.215	1	17
475.408	1	5
476.601	1	10
477.793	1	2
478.986	1	5
480.179	1	6
481.371	1	9
482.564	1	11
483.756	1	18
484.948	1	1
486.141	1	6
487.333	1	13
488.525	1	8
489.718	1	9
490.910	1	8
492.102	1	3
493.294	1	9
494.486	1	20
495.678	1	7
496.870	1	11
498.062	1	16
499.254	1	14
500.446	1	11
501.638	1	13
502.829	1	29
504.021	1	15
505.213	1	17
506.404	1	35
507.596	1	28
508.788	1	41
509.979	1	25
511.171	1	16
512.362	1	11
513.553	1	13
514.745	1	19
515.936	1	17
517.127	1	29
518.319	1	39
519.510	1	33
520.701	1	38
521.892	1	34
523.083	1	35
524.274	1	36
525.465	1	49
526.656	1	41
527.847	1	38
529.038	1	43
530.229	1	38
531.419	1	47
532.610	1	31
533.801	1	62
534.991	1	44
536.182	1	46
537.373	1	50
538.563	1	56
539.754	1	42
540.944	1	30
542.134	1	46
543.325	1	43
544.515	1	36
545.705	1	41
546.896	1	40
548.086	1	50
549.276	1	50
550.466	1	46
551.656	1	39
552.846	1	56
554.036	1	45
555.226	1	42
556.416	1	28
557.606	1	51
558.796	1	48
559.986	1	36
561.175	1	55
562.365	1	40
563.555	1	48
564.744	1	52
565.934	1	40
567.123	1	43
568.313	1	47
569.502	1	41
570.692	1	48
571.881	1	58
573.070	1	39
574.260	1	50
575.449	1	41
576.638	1	40
577.827	1	38
579.016	1	46
580.205	1	43
581.394	1	44
582.583	1	55
583.772	1	37
584.961	1	46
586.150	1	46
587.339	1	45
588.528	1	43
589.717	1	41
590.905	1	38
592.094	1	37
593.283	1	35
594.471	1	47
595.660	1	34
596.848	1	38
598.037	1	23
599.225	1	23
600.413	1	35
601.602	1	47
602.790	1	31
603.978	1	33
605.166	1	38
606.355	1	39
607.543	1	33
608.731	1	39
609.919	1	33
611.107	1	29
612.295	1	23
613.483	1	29
614.671	1	33
615.858	1	28
617.046	1	38
618.234	1	18
619.422	1	14
620.609	1	31
621.797	1	27
622.985	1	18
624.172	1	27
625.360	1	28
626.547	1	30
627.735	1	16
628.922	1	31
630.109	1	15
631.297	1	16
632.484	1	24
633.671	1	22
634.858	1	28
636.045	1	27
637.232	1	19
638.419	1	2
639.606	1	20
640.793	1	34
641.980	1	17
643.167	1	21
644.354	1	29
645.541	1	20
646.728	1	16
647.914	1	21
649.101	1	12
650.288	1	19
651.474	1	10
652.661	1	5
653.847	1	16
655.034	1	18
656.220	1	1
657.406	1	11
658.593	1	21
659.779	1	12
660.965	1	17
662.152	1	22
663.338	1	18
664.524	1	17
665.710	1	21
666.896	1	3
668.082	1	11
669.268	1	9
670.454	1	16
671.640	1	18
672.826	1	9
674.011	1	9
675.197	1	0
676.383	1	12
677.569	1	14
678.754	1	12
679.940	1	15
681.125	1	15
682.311	1	23
683.496	1	12
684.682	1	7
685.867	1	8
687.053	1	25
688.238	1	10
688.746	1	4