File: Data/GaN_200K_800ms/GaN_sample F_spot 12_UVVIS_200 K_200um_800 ms 2x2mm1_489.txt
340.368	1	10
341.565	1	-12
342.763	1	1
343.960	1	-3
345.157	1	5
346.354	1	-1
347.552	1	-8
348.749	1	-7
349.946	1	-5
351.143	1	-2
352.340	1	4
353.537	1	0
354.734	1	2
355.931	1	-1
357.127	1	3
358.324	1	-9
359.521	1	3
360.718	1	-3
361.914	1	-1
363.111	1	3
364.308	1	5
365.504	1	1
366.701	1	9
367.897	1	10
369.093	1	0
370.290	1	9
371.486	1	9
372.682	1	6
373.879	1	8
375.075	1	0
376.271	1	1
377.467	1	-1
378.663	1	0
379.859	1	-2
381.055	1	9
382.251	1	-4
383.447	1	-3
384.643	1	6
385.839	1	5
387.035	1	1
388.230	1	-2
389.426	1	3
390.622	1	1
391.817	1	-3
393.013	1	-3
394.208	1	0
395.404	1	-9
396.599	1	-3
397.795	1	1
398.990	1	-1
400.186	1	-4
401.381	1	-1
402.576	1	-1
403.771	1	-3
404.967	1	3
406.162	1	4
407.357	1	0
408.552	1	-7
409.747	1	-3
410.942	1	6
412.137	1	3
413.332	1	-4
414.526	1	0
415.721	1	-4
416.916	1	-3
418.111	1	-4
419.305	1	-1
420.500	1	-1
421.695	1	-6
422.889	1	-5
424.084	1	0
425.278	1	9
426.472	1	3
427.667	1	4
428.861	1	-5
430.055	1	10
431.250	1	-7
432.444	1	-6
433.638	1	-6
434.832	1	1
436.026	1	9
437.220	1	-3
438.414	1	-12
439.608	1	-5
440.802	1	-5
441.996	1	-3
443.190	1	3
444.384	1	-13
445.578	1	-9
446.771	1	9
447.965	1	-4
449.159	1	1
450.352	1	-8
451.546	1	0
452.739	1	3
453.933	1	-7
455.126	1	-2
456.320	1	-1
457.513	1	5
458.706	1	-6
459.899	1	2
461.093	1	4
462.286	1	1
463.479	1	-10
464.672	1	-6
465.865	1	-3
467.058	1	1
468.251	1	-8
469.444	1	-15
470.637	1	7
471.830	1	-4
473.023	1	3
474.215	1	18
475.408	1	4
476.601	1	6
477.793	1	-7
478.986	1	3
480.179	1	5
481.371	1	7
482.564	1	4
483.756	1	3
484.948	1	-7
486.141	1	-6
487.333	1	-2
488.525	1	6
489.718	1	2
490.910	1	-7
492.102	1	-9
493.294	1	-8
494.486	1	2
495.678	1	-2
496.870	1	-3
498.062	1	3
499.254	1	-2
500.446	1	-9
501.638	1	-4
502.829	1	-1
504.021	1	2
505.213	1	7
506.404	1	10
507.596	1	-1
508.788	1	22
509.979	1	-3
511.171	1	-3
512.362	1	-6
513.553	1	-5
514.745	1	-4
515.936	1	-8
517.127	1	-5
518.319	1	-9
519.510	1	2
520.701	1	-7
521.892	1	1
523.083	1	4
524.274	1	-1
525.465	1	-1
526.656	1	4
527.847	1	7
529.038	1	1
530.229	1	7
531.419	1	11
532.610	1	-4
533.801	1	8
534.991	1	-8
536.182	1	-2
537.373	1	-7
538.563	1	5
539.754	1	-1
540.944	1	-10
542.134	1	11
543.325	1	2
544.515	1	-10
545.705	1	-4
546.896	1	-3
548.086	1	7
549.276	1	-4
550.466	1	-9
551.656	1	-7
552.846	1	9
554.036	1	-3
555.226	1	-9
556.416	1	-7
557.606	1	7
558.796	1	4
559.986	1	-5
561.175	1	1
562.365	1	0
563.555	1	-4
564.744	1	-1
565.934	1	5
567.123	1	-3
568.313	1	2
569.502	1	-7
570.692	1	4
571.881	1	12
573.070	1	2
574.260	1	5
575.449	1	-6
576.638	1	-8
577.827	1	-3
579.016	1	5
580.205	1	2
581.394	1	1
582.583	1	5
583.772	1	6
584.961	1	10
586.150	1	0
587.339	1	-3
588.528	1	1
589.717	1	0
590.905	1	-2
592.094	1	3
593.283	1	-7
594.471	1	7
595.660	1	3
596.848	1	0
598.037	1	0
599.225	1	-3
600.413	1	10
601.602	1	3
602.790	1	-5
603.978	1	1
605.166	1	2
606.355	1	-2
607.543	1	-6
608.731	1	-7
609.919	1	2
611.107	1	1
612.295	1	-10
613.483	1	4
614.671	1	8
615.858	1	2
617.046	1	-14
618.234	1	3
619.422	1	-15
620.609	1	0
621.797	1	-9
622.985	1	7
624.172	1	3
625.360	1	3
626.547	1	-4
627.735	1	3
628.922	1	7
630.109	1	-14
631.297	1	1
632.484	1	-5
633.671	1	-9
634.858	1	-10
636.045	1	8
637.232	1	-9
638.419	1	-5
639.606	1	3
640.793	1	7
641.980	1	-7
643.167	1	-5
644.354	1	3
645.541	1	-2
646.728	1	-1
647.914	1	-6
649.101	1	-4
650.288	1	-3
651.474	1	-15
652.661	1	5
653.847	1	9
655.034	1	2
656.220	1	-3
657.406	1	6
658.593	1	6
659.779	1	4
660.965	1	3
662.152	1	-2
663.338	1	5
664.524	1	-3
665.710	1	0
666.896	1	-7
668.082	1	8
669.268	1	-10
670.454	1	4
671.640	1	-4
672.826	1	-4
674.011	1	-1
675.197	1	-6
676.383	1	3
677.569	1	-3
678.754	1	0
679.940	1	-1
681.125	1	4
682.311	1	3
683.496	1	4
684.682	1	-7
685.867	1	-3
687.053	1	-1
688.238	1	4
688.746	1	-2