File: Data/GaN_200K_800ms/GaN_sample F_spot 12_UVVIS_200 K_200um_800 ms 2x2mm1_227.txt
340.368	1	0
341.565	1	-8
342.763	1	3
343.960	1	2
345.157	1	1
346.354	1	10
347.552	1	2
348.749	1	1
349.946	1	-2
351.143	1	-5
352.340	1	4
353.537	1	10
354.734	1	9
355.931	1	1
357.127	1	5
358.324	1	-3
359.521	1	19
360.718	1	1
361.914	1	17
363.111	1	13
364.308	1	15
365.504	1	17
366.701	1	17
367.897	1	32
369.093	1	27
370.290	1	18
371.486	1	34
372.682	1	29
373.879	1	16
375.075	1	12
376.271	1	11
377.467	1	14
378.663	1	9
379.859	1	11
381.055	1	18
382.251	1	1
383.447	1	-1
384.643	1	12
385.839	1	9
387.035	1	9
388.230	1	10
389.426	1	-3
390.622	1	-1
391.817	1	4
393.013	1	5
394.208	1	0
395.404	1	-3
396.599	1	-1
397.795	1	5
398.990	1	0
400.186	1	1
401.381	1	-5
402.576	1	-10
403.771	1	11
404.967	1	-4
406.162	1	7
407.357	1	0
408.552	1	-6
409.747	1	-1
410.942	1	4
412.137	1	9
413.332	1	1
414.526	1	-4
415.721	1	-4
416.916	1	-6
418.111	1	-1
419.305	1	2
420.500	1	-7
421.695	1	3
422.889	1	-13
424.084	1	6
425.278	1	9
426.472	1	-1
427.667	1	8
428.861	1	-12
430.055	1	-2
431.250	1	0
432.444	1	5
433.638	1	-8
434.832	1	3
436.026	1	6
437.220	1	-2
438.414	1	-2
439.608	1	-4
440.802	1	2
441.996	1	8
443.190	1	-11
444.384	1	-3
445.578	1	-7
446.771	1	6
447.965	1	0
449.159	1	-7
450.352	1	8
451.546	1	4
452.739	1	-2
453.933	1	3
455.126	1	-8
456.320	1	-5
457.513	1	-2
458.706	1	3
459.899	1	-4
461.093	1	-2
462.286	1	-2
463.479	1	-2
464.672	1	-3
465.865	1	-5
467.058	1	1
468.251	1	-4
469.444	1	10
470.637	1	4
471.830	1	-9
473.023	1	4
474.215	1	5
475.408	1	0
476.601	1	2
477.793	1	-5
478.986	1	4
480.179	1	-2
481.371	1	8
482.564	1	-7
483.756	1	10
484.948	1	-4
486.141	1	-2
487.333	1	7
488.525	1	11
489.718	1	-6
490.910	1	2
492.102	1	-9
493.294	1	-4
494.486	1	3
495.678	1	-1
496.870	1	10
498.062	1	0
499.254	1	1
500.446	1	-8
501.638	1	-12
502.829	1	-2
504.021	1	-3
505.213	1	3
506.404	1	6
507.596	1	0
508.788	1	13
509.979	1	-3
511.171	1	-5
512.362	1	3
513.553	1	-10
514.745	1	-4
515.936	1	-9
517.127	1	-5
518.319	1	-3
519.510	1	8
520.701	1	-6
521.892	1	2
523.083	1	2
524.274	1	1
525.465	1	-1
526.656	1	5
527.847	1	8
529.038	1	-4
530.229	1	0
531.419	1	12
532.610	1	-2
533.801	1	13
534.991	1	7
536.182	1	9
537.373	1	10
538.563	1	8
539.754	1	6
540.944	1	-3
542.134	1	12
543.325	1	-2
544.515	1	8
545.705	1	12
546.896	1	1
548.086	1	6
549.276	1	-2
550.466	1	0
551.656	1	17
552.846	1	8
554.036	1	0
555.226	1	3
556.416	1	-2
557.606	1	5
558.796	1	5
559.986	1	1
561.175	1	-5
562.365	1	8
563.555	1	-2
564.744	1	-3
565.934	1	15
567.123	1	3
568.313	1	11
569.502	1	-10
570.692	1	9
571.881	1	17
573.070	1	-3
574.260	1	10
575.449	1	5
576.638	1	-4
577.827	1	-3
579.016	1	13
580.205	1	0
581.394	1	-3
582.583	1	15
583.772	1	16
584.961	1	6
586.150	1	6
587.339	1	1
588.528	1	8
589.717	1	1
590.905	1	-5
592.094	1	1
593.283	1	1
594.471	1	16
595.660	1	-1
596.848	1	8
598.037	1	-1
599.225	1	-9
600.413	1	9
601.602	1	12
602.790	1	8
603.978	1	-1
605.166	1	-1
606.355	1	8
607.543	1	1
608.731	1	1
609.919	1	12
611.107	1	0
612.295	1	8
613.483	1	3
614.671	1	4
615.858	1	4
617.046	1	4
618.234	1	6
619.422	1	-4
620.609	1	3
621.797	1	-6
622.985	1	2
624.172	1	-3
625.360	1	5
626.547	1	-2
627.735	1	6
628.922	1	0
630.109	1	-7
631.297	1	4
632.484	1	-3
633.671	1	1
634.858	1	-8
636.045	1	5
637.232	1	3
638.419	1	-2
639.606	1	8
640.793	1	17
641.980	1	15
643.167	1	-1
644.354	1	6
645.541	1	9
646.728	1	0
647.914	1	-5
649.101	1	2
650.288	1	4
651.474	1	-1
652.661	1	-2
653.847	1	7
655.034	1	5
656.220	1	-6
657.406	1	7
658.593	1	7
659.779	1	1
660.965	1	9
662.152	1	3
663.338	1	7
664.524	1	11
665.710	1	7
666.896	1	-1
668.082	1	7
669.268	1	3
670.454	1	1
671.640	1	1
672.826	1	-4
674.011	1	-1
675.197	1	-3
676.383	1	3
677.569	1	2
678.754	1	-7
679.940	1	-5
681.125	1	-4
682.311	1	1
683.496	1	-2
684.682	1	0
685.867	1	0
687.053	1	1
688.238	1	-6
688.746	1	-3