File: Data/GaN_200K_800ms/GaN_sample F_spot 12_UVVIS_200 K_200um_800 ms 2x2mm1_410.txt
340.368	1	5
341.565	1	-8
342.763	1	6
343.960	1	-3
345.157	1	-13
346.354	1	-1
347.552	1	-1
348.749	1	-5
349.946	1	-8
351.143	1	5
352.340	1	7
353.537	1	-6
354.734	1	-4
355.931	1	6
357.127	1	-1
358.324	1	-7
359.521	1	13
360.718	1	4
361.914	1	-3
363.111	1	7
364.308	1	0
365.504	1	10
366.701	1	13
367.897	1	7
369.093	1	-3
370.290	1	5
371.486	1	13
372.682	1	8
373.879	1	7
375.075	1	-2
376.271	1	6
377.467	1	-1
378.663	1	-3
379.859	1	-3
381.055	1	9
382.251	1	-8
383.447	1	-2
384.643	1	15
385.839	1	2
387.035	1	7
388.230	1	7
389.426	1	7
390.622	1	-2
391.817	1	2
393.013	1	-8
394.208	1	3
395.404	1	-2
396.599	1	-4
397.795	1	-4
398.990	1	4
400.186	1	-4
401.381	1	-3
402.576	1	-2
403.771	1	0
404.967	1	3
406.162	1	10
407.357	1	-6
408.552	1	-11
409.747	1	-5
410.942	1	12
412.137	1	0
413.332	1	-2
414.526	1	-2
415.721	1	-6
416.916	1	-7
418.111	1	-6
419.305	1	-4
420.500	1	-7
421.695	1	-4
422.889	1	-12
424.084	1	-2
425.278	1	7
426.472	1	6
427.667	1	10
428.861	1	-6
430.055	1	-2
431.250	1	2
432.444	1	6
433.638	1	-6
434.832	1	4
436.026	1	5
437.220	1	0
438.414	1	-6
439.608	1	-6
440.802	1	-11
441.996	1	9
443.190	1	3
444.384	1	-4
445.578	1	-5
446.771	1	0
447.965	1	-6
449.159	1	-7
450.352	1	2
451.546	1	-2
452.739	1	-1
453.933	1	-11
455.126	1	-6
456.320	1	-5
457.513	1	0
458.706	1	11
459.899	1	-4
461.093	1	-2
462.286	1	-2
463.479	1	-8
464.672	1	-3
465.865	1	-9
467.058	1	-5
468.251	1	5
469.444	1	-7
470.637	1	-7
471.830	1	-4
473.023	1	-3
474.215	1	7
475.408	1	-3
476.601	1	-10
477.793	1	-11
478.986	1	-5
480.179	1	4
481.371	1	1
482.564	1	-1
483.756	1	3
484.948	1	-4
486.141	1	1
487.333	1	-4
488.525	1	-3
489.718	1	0
490.910	1	-2
492.102	1	-17
493.294	1	-6
494.486	1	6
495.678	1	0
496.870	1	3
498.062	1	-5
499.254	1	3
500.446	1	-11
501.638	1	-3
502.829	1	-3
504.021	1	-7
505.213	1	4
506.404	1	5
507.596	1	-2
508.788	1	6
509.979	1	-14
511.171	1	-12
512.362	1	-5
513.553	1	3
514.745	1	3
515.936	1	0
517.127	1	-6
518.319	1	-2
519.510	1	4
520.701	1	4
521.892	1	2
523.083	1	-5
524.274	1	2
525.465	1	2
526.656	1	-2
527.847	1	-3
529.038	1	0
530.229	1	-2
531.419	1	-1
532.610	1	-6
533.801	1	12
534.991	1	7
536.182	1	0
537.373	1	0
538.563	1	2
539.754	1	2
540.944	1	4
542.134	1	5
543.325	1	2
544.515	1	-2
545.705	1	-7
546.896	1	-7
548.086	1	8
549.276	1	-1
550.466	1	4
551.656	1	-1
552.846	1	-3
554.036	1	-3
555.226	1	-6
556.416	1	-3
557.606	1	3
558.796	1	-1
559.986	1	-2
561.175	1	-1
562.365	1	-3
563.555	1	-13
564.744	1	13
565.934	1	10
567.123	1	4
568.313	1	-1
569.502	1	2
570.692	1	5
571.881	1	14
573.070	1	-3
574.260	1	11
575.449	1	1
576.638	1	-8
577.827	1	-3
579.016	1	8
580.205	1	3
581.394	1	-1
582.583	1	15
583.772	1	12
584.961	1	1
586.150	1	-1
587.339	1	6
588.528	1	3
589.717	1	6
590.905	1	-1
592.094	1	-2
593.283	1	-7
594.471	1	5
595.660	1	7
596.848	1	-3
598.037	1	2
599.225	1	0
600.413	1	10
601.602	1	6
602.790	1	-3
603.978	1	4
605.166	1	0
606.355	1	1
607.543	1	2
608.731	1	-1
609.919	1	4
611.107	1	3
612.295	1	-1
613.483	1	3
614.671	1	3
615.858	1	6
617.046	1	2
618.234	1	3
619.422	1	-12
620.609	1	3
621.797	1	0
622.985	1	3
624.172	1	-5
625.360	1	-3
626.547	1	-1
627.735	1	-4
628.922	1	6
630.109	1	-9
631.297	1	-2
632.484	1	-6
633.671	1	-12
634.858	1	-3
636.045	1	4
637.232	1	-12
638.419	1	2
639.606	1	4
640.793	1	3
641.980	1	2
643.167	1	-3
644.354	1	4
645.541	1	0
646.728	1	0
647.914	1	-10
649.101	1	-4
650.288	1	-1
651.474	1	-7
652.661	1	-11
653.847	1	-6
655.034	1	4
656.220	1	-10
657.406	1	9
658.593	1	1
659.779	1	1
660.965	1	4
662.152	1	-1
663.338	1	4
664.524	1	4
665.710	1	3
666.896	1	4
668.082	1	-1
669.268	1	-3
670.454	1	1
671.640	1	8
672.826	1	0
674.011	1	2
675.197	1	-10
676.383	1	-4
677.569	1	3
678.754	1	-3
679.940	1	-7
681.125	1	-2
682.311	1	-3
683.496	1	6
684.682	1	-16
685.867	1	-6
687.053	1	-1
688.238	1	6
688.746	1	-4