File: Data/GaN_200K_800ms/GaN_sample F_spot 12_UVVIS_200 K_200um_800 ms 2x2mm1_67.txt
340.368	1	4
341.565	1	-6
342.763	1	9
343.960	1	-3
345.157	1	4
346.354	1	5
347.552	1	4
348.749	1	0
349.946	1	-2
351.143	1	4
352.340	1	14
353.537	1	8
354.734	1	15
355.931	1	12
357.127	1	14
358.324	1	16
359.521	1	44
360.718	1	41
361.914	1	53
363.111	1	67
364.308	1	95
365.504	1	129
366.701	1	160
367.897	1	199
369.093	1	213
370.290	1	216
371.486	1	205
372.682	1	175
373.879	1	142
375.075	1	111
376.271	1	97
377.467	1	100
378.663	1	71
379.859	1	60
381.055	1	53
382.251	1	36
383.447	1	38
384.643	1	39
385.839	1	40
387.035	1	26
388.230	1	34
389.426	1	17
390.622	1	19
391.817	1	23
393.013	1	18
394.208	1	17
395.404	1	5
396.599	1	18
397.795	1	12
398.990	1	14
400.186	1	12
401.381	1	6
402.576	1	5
403.771	1	10
404.967	1	6
406.162	1	10
407.357	1	-1
408.552	1	9
409.747	1	9
410.942	1	13
412.137	1	17
413.332	1	11
414.526	1	4
415.721	1	12
416.916	1	-5
418.111	1	5
419.305	1	16
420.500	1	-2
421.695	1	-1
422.889	1	-11
424.084	1	5
425.278	1	17
426.472	1	4
427.667	1	9
428.861	1	2
430.055	1	4
431.250	1	4
432.444	1	10
433.638	1	0
434.832	1	-3
436.026	1	7
437.220	1	7
438.414	1	-4
439.608	1	1
440.802	1	-9
441.996	1	11
443.190	1	2
444.384	1	-3
445.578	1	-9
446.771	1	11
447.965	1	-3
449.159	1	-9
450.352	1	1
451.546	1	-1
452.739	1	11
453.933	1	-4
455.126	1	2
456.320	1	-3
457.513	1	11
458.706	1	7
459.899	1	1
461.093	1	5
462.286	1	-4
463.479	1	1
464.672	1	5
465.865	1	2
467.058	1	5
468.251	1	3
469.444	1	2
470.637	1	2
471.830	1	-2
473.023	1	-3
474.215	1	9
475.408	1	7
476.601	1	-1
477.793	1	0
478.986	1	-5
480.179	1	2
481.371	1	2
482.564	1	7
483.756	1	3
484.948	1	-4
486.141	1	4
487.333	1	5
488.525	1	10
489.718	1	8
490.910	1	5
492.102	1	-6
493.294	1	2
494.486	1	8
495.678	1	12
496.870	1	7
498.062	1	2
499.254	1	10
500.446	1	6
501.638	1	-5
502.829	1	10
504.021	1	5
505.213	1	21
506.404	1	10
507.596	1	3
508.788	1	31
509.979	1	8
511.171	1	1
512.362	1	6
513.553	1	4
514.745	1	4
515.936	1	11
517.127	1	17
518.319	1	9
519.510	1	10
520.701	1	8
521.892	1	17
523.083	1	9
524.274	1	13
525.465	1	17
526.656	1	8
527.847	1	17
529.038	1	18
530.229	1	16
531.419	1	27
532.610	1	13
533.801	1	42
534.991	1	18
536.182	1	19
537.373	1	27
538.563	1	16
539.754	1	23
540.944	1	14
542.134	1	19
543.325	1	16
544.515	1	18
545.705	1	10
546.896	1	22
548.086	1	20
549.276	1	13
550.466	1	20
551.656	1	30
552.846	1	27
554.036	1	29
555.226	1	15
556.416	1	17
557.606	1	27
558.796	1	23
559.986	1	20
561.175	1	21
562.365	1	28
563.555	1	20
564.744	1	23
565.934	1	32
567.123	1	26
568.313	1	37
569.502	1	20
570.692	1	24
571.881	1	38
573.070	1	27
574.260	1	31
575.449	1	24
576.638	1	13
577.827	1	19
579.016	1	28
580.205	1	7
581.394	1	13
582.583	1	33
583.772	1	29
584.961	1	23
586.150	1	12
587.339	1	26
588.528	1	23
589.717	1	30
590.905	1	21
592.094	1	21
593.283	1	11
594.471	1	19
595.660	1	13
596.848	1	10
598.037	1	16
599.225	1	5
600.413	1	25
601.602	1	31
602.790	1	10
603.978	1	27
605.166	1	18
606.355	1	21
607.543	1	18
608.731	1	15
609.919	1	21
611.107	1	20
612.295	1	10
613.483	1	17
614.671	1	23
615.858	1	17
617.046	1	13
618.234	1	14
619.422	1	3
620.609	1	25
621.797	1	16
622.985	1	15
624.172	1	11
625.360	1	11
626.547	1	15
627.735	1	13
628.922	1	19
630.109	1	5
631.297	1	12
632.484	1	7
633.671	1	7
634.858	1	4
636.045	1	26
637.232	1	8
638.419	1	3
639.606	1	24
640.793	1	10
641.980	1	18
643.167	1	-1
644.354	1	8
645.541	1	6
646.728	1	14
647.914	1	3
649.101	1	11
650.288	1	15
651.474	1	7
652.661	1	8
653.847	1	11
655.034	1	23
656.220	1	-1
657.406	1	9
658.593	1	17
659.779	1	8
660.965	1	9
662.152	1	13
663.338	1	15
664.524	1	8
665.710	1	11
666.896	1	2
668.082	1	12
669.268	1	13
670.454	1	16
671.640	1	8
672.826	1	6
674.011	1	6
675.197	1	-3
676.383	1	-1
677.569	1	5
678.754	1	11
679.940	1	7
681.125	1	6
682.311	1	10
683.496	1	4
684.682	1	13
685.867	1	8
687.053	1	8
688.238	1	14
688.746	1	14