File: Data/GaN_200K_800ms/GaN_sample F_spot 12_UVVIS_200 K_200um_800 ms 2x2mm1_61.txt
340.368	1	11
341.565	1	-9
342.763	1	15
343.960	1	4
345.157	1	3
346.354	1	-3
347.552	1	5
348.749	1	-4
349.946	1	0
351.143	1	1
352.340	1	17
353.537	1	23
354.734	1	25
355.931	1	14
357.127	1	26
358.324	1	25
359.521	1	37
360.718	1	45
361.914	1	69
363.111	1	78
364.308	1	102
365.504	1	145
366.701	1	188
367.897	1	242
369.093	1	264
370.290	1	273
371.486	1	259
372.682	1	206
373.879	1	170
375.075	1	148
376.271	1	138
377.467	1	110
378.663	1	102
379.859	1	90
381.055	1	74
382.251	1	49
383.447	1	44
384.643	1	45
385.839	1	39
387.035	1	46
388.230	1	38
389.426	1	27
390.622	1	23
391.817	1	19
393.013	1	17
394.208	1	17
395.404	1	19
396.599	1	6
397.795	1	16
398.990	1	4
400.186	1	8
401.381	1	9
402.576	1	1
403.771	1	10
404.967	1	4
406.162	1	12
407.357	1	15
408.552	1	9
409.747	1	4
410.942	1	11
412.137	1	8
413.332	1	11
414.526	1	-5
415.721	1	0
416.916	1	7
418.111	1	6
419.305	1	5
420.500	1	6
421.695	1	3
422.889	1	-5
424.084	1	-1
425.278	1	9
426.472	1	5
427.667	1	10
428.861	1	0
430.055	1	5
431.250	1	-3
432.444	1	5
433.638	1	0
434.832	1	4
436.026	1	6
437.220	1	13
438.414	1	-6
439.608	1	-5
440.802	1	2
441.996	1	8
443.190	1	7
444.384	1	-5
445.578	1	-5
446.771	1	13
447.965	1	-1
449.159	1	-9
450.352	1	7
451.546	1	-7
452.739	1	6
453.933	1	-3
455.126	1	-8
456.320	1	6
457.513	1	5
458.706	1	9
459.899	1	4
461.093	1	2
462.286	1	9
463.479	1	-5
464.672	1	7
465.865	1	4
467.058	1	-5
468.251	1	-1
469.444	1	0
470.637	1	5
471.830	1	7
473.023	1	10
474.215	1	12
475.408	1	4
476.601	1	-3
477.793	1	1
478.986	1	1
480.179	1	5
481.371	1	16
482.564	1	10
483.756	1	13
484.948	1	-1
486.141	1	-5
487.333	1	5
488.525	1	3
489.718	1	12
490.910	1	3
492.102	1	2
493.294	1	4
494.486	1	10
495.678	1	15
496.870	1	9
498.062	1	11
499.254	1	5
500.446	1	7
501.638	1	4
502.829	1	10
504.021	1	8
505.213	1	28
506.404	1	9
507.596	1	21
508.788	1	18
509.979	1	4
511.171	1	9
512.362	1	15
513.553	1	3
514.745	1	8
515.936	1	17
517.127	1	21
518.319	1	9
519.510	1	21
520.701	1	21
521.892	1	20
523.083	1	0
524.274	1	17
525.465	1	17
526.656	1	14
527.847	1	20
529.038	1	21
530.229	1	27
531.419	1	28
532.610	1	13
533.801	1	39
534.991	1	22
536.182	1	17
537.373	1	34
538.563	1	27
539.754	1	27
540.944	1	22
542.134	1	26
543.325	1	26
544.515	1	25
545.705	1	26
546.896	1	22
548.086	1	30
549.276	1	23
550.466	1	35
551.656	1	24
552.846	1	29
554.036	1	29
555.226	1	14
556.416	1	21
557.606	1	30
558.796	1	32
559.986	1	19
561.175	1	36
562.365	1	18
563.555	1	18
564.744	1	25
565.934	1	24
567.123	1	27
568.313	1	30
569.502	1	18
570.692	1	28
571.881	1	38
573.070	1	23
574.260	1	27
575.449	1	24
576.638	1	20
577.827	1	20
579.016	1	37
580.205	1	22
581.394	1	28
582.583	1	27
583.772	1	35
584.961	1	20
586.150	1	25
587.339	1	28
588.528	1	26
589.717	1	13
590.905	1	23
592.094	1	21
593.283	1	21
594.471	1	19
595.660	1	18
596.848	1	18
598.037	1	15
599.225	1	14
600.413	1	19
601.602	1	23
602.790	1	16
603.978	1	19
605.166	1	26
606.355	1	16
607.543	1	16
608.731	1	21
609.919	1	25
611.107	1	21
612.295	1	11
613.483	1	19
614.671	1	9
615.858	1	20
617.046	1	5
618.234	1	9
619.422	1	5
620.609	1	19
621.797	1	13
622.985	1	14
624.172	1	16
625.360	1	16
626.547	1	10
627.735	1	20
628.922	1	22
630.109	1	10
631.297	1	11
632.484	1	0
633.671	1	11
634.858	1	3
636.045	1	25
637.232	1	4
638.419	1	5
639.606	1	20
640.793	1	20
641.980	1	22
643.167	1	8
644.354	1	7
645.541	1	12
646.728	1	10
647.914	1	8
649.101	1	9
650.288	1	16
651.474	1	4
652.661	1	8
653.847	1	19
655.034	1	15
656.220	1	-1
657.406	1	11
658.593	1	29
659.779	1	9
660.965	1	16
662.152	1	13
663.338	1	12
664.524	1	13
665.710	1	9
666.896	1	-1
668.082	1	13
669.268	1	2
670.454	1	10
671.640	1	12
672.826	1	14
674.011	1	6
675.197	1	1
676.383	1	9
677.569	1	11
678.754	1	1
679.940	1	9
681.125	1	17
682.311	1	19
683.496	1	3
684.682	1	5
685.867	1	6
687.053	1	10
688.238	1	3
688.746	1	11