File: Data/GaN_200K_800ms/GaN_sample F_spot 12_UVVIS_200 K_200um_800 ms 2x2mm1_223.txt
340.368	1	6
341.565	1	-9
342.763	1	12
343.960	1	0
345.157	1	-6
346.354	1	-2
347.552	1	9
348.749	1	1
349.946	1	-2
351.143	1	0
352.340	1	1
353.537	1	-2
354.734	1	-2
355.931	1	2
357.127	1	6
358.324	1	-5
359.521	1	10
360.718	1	11
361.914	1	3
363.111	1	7
364.308	1	7
365.504	1	22
366.701	1	21
367.897	1	29
369.093	1	31
370.290	1	28
371.486	1	23
372.682	1	23
373.879	1	12
375.075	1	11
376.271	1	22
377.467	1	10
378.663	1	1
379.859	1	6
381.055	1	8
382.251	1	1
383.447	1	-7
384.643	1	14
385.839	1	4
387.035	1	7
388.230	1	5
389.426	1	-1
390.622	1	6
391.817	1	4
393.013	1	-6
394.208	1	4
395.404	1	-9
396.599	1	10
397.795	1	0
398.990	1	2
400.186	1	-2
401.381	1	0
402.576	1	-4
403.771	1	0
404.967	1	4
406.162	1	4
407.357	1	0
408.552	1	-5
409.747	1	0
410.942	1	5
412.137	1	4
413.332	1	8
414.526	1	-15
415.721	1	2
416.916	1	-6
418.111	1	1
419.305	1	0
420.500	1	3
421.695	1	-9
422.889	1	-14
424.084	1	-4
425.278	1	9
426.472	1	5
427.667	1	3
428.861	1	4
430.055	1	-7
431.250	1	-1
432.444	1	8
433.638	1	-3
434.832	1	1
436.026	1	8
437.220	1	1
438.414	1	-10
439.608	1	-6
440.802	1	-9
441.996	1	9
443.190	1	-1
444.384	1	-6
445.578	1	-5
446.771	1	8
447.965	1	-2
449.159	1	-4
450.352	1	-5
451.546	1	-3
452.739	1	10
453.933	1	0
455.126	1	-5
456.320	1	-6
457.513	1	11
458.706	1	2
459.899	1	0
461.093	1	-5
462.286	1	-2
463.479	1	-1
464.672	1	0
465.865	1	-11
467.058	1	-3
468.251	1	3
469.444	1	-6
470.637	1	-8
471.830	1	-3
473.023	1	2
474.215	1	3
475.408	1	2
476.601	1	1
477.793	1	-2
478.986	1	5
480.179	1	2
481.371	1	-4
482.564	1	4
483.756	1	3
484.948	1	-6
486.141	1	-3
487.333	1	1
488.525	1	0
489.718	1	-2
490.910	1	-5
492.102	1	-3
493.294	1	-4
494.486	1	-3
495.678	1	-4
496.870	1	1
498.062	1	-9
499.254	1	3
500.446	1	-15
501.638	1	3
502.829	1	-2
504.021	1	-6
505.213	1	1
506.404	1	3
507.596	1	-1
508.788	1	18
509.979	1	0
511.171	1	3
512.362	1	-15
513.553	1	-7
514.745	1	1
515.936	1	-3
517.127	1	-1
518.319	1	-1
519.510	1	-1
520.701	1	-2
521.892	1	8
523.083	1	1
524.274	1	-2
525.465	1	13
526.656	1	-1
527.847	1	1
529.038	1	5
530.229	1	1
531.419	1	13
532.610	1	1
533.801	1	15
534.991	1	8
536.182	1	1
537.373	1	1
538.563	1	6
539.754	1	9
540.944	1	3
542.134	1	13
543.325	1	4
544.515	1	-3
545.705	1	5
546.896	1	0
548.086	1	3
549.276	1	-1
550.466	1	8
551.656	1	-1
552.846	1	0
554.036	1	4
555.226	1	-19
556.416	1	-1
557.606	1	-3
558.796	1	4
559.986	1	-1
561.175	1	7
562.365	1	0
563.555	1	-5
564.744	1	8
565.934	1	3
567.123	1	6
568.313	1	3
569.502	1	-1
570.692	1	1
571.881	1	15
573.070	1	6
574.260	1	8
575.449	1	7
576.638	1	3
577.827	1	-3
579.016	1	7
580.205	1	-2
581.394	1	2
582.583	1	8
583.772	1	-1
584.961	1	0
586.150	1	-4
587.339	1	4
588.528	1	5
589.717	1	1
590.905	1	4
592.094	1	2
593.283	1	1
594.471	1	20
595.660	1	6
596.848	1	8
598.037	1	3
599.225	1	-5
600.413	1	11
601.602	1	13
602.790	1	0
603.978	1	-4
605.166	1	12
606.355	1	15
607.543	1	0
608.731	1	3
609.919	1	9
611.107	1	-2
612.295	1	1
613.483	1	7
614.671	1	6
615.858	1	-6
617.046	1	2
618.234	1	-6
619.422	1	-13
620.609	1	4
621.797	1	-2
622.985	1	9
624.172	1	-1
625.360	1	4
626.547	1	8
627.735	1	7
628.922	1	7
630.109	1	-5
631.297	1	7
632.484	1	-1
633.671	1	-9
634.858	1	4
636.045	1	10
637.232	1	7
638.419	1	7
639.606	1	4
640.793	1	11
641.980	1	3
643.167	1	8
644.354	1	-3
645.541	1	-2
646.728	1	8
647.914	1	3
649.101	1	-5
650.288	1	5
651.474	1	-1
652.661	1	1
653.847	1	1
655.034	1	3
656.220	1	-1
657.406	1	1
658.593	1	12
659.779	1	11
660.965	1	10
662.152	1	11
663.338	1	2
664.524	1	-9
665.710	1	-1
666.896	1	0
668.082	1	4
669.268	1	3
670.454	1	-4
671.640	1	-2
672.826	1	-5
674.011	1	-6
675.197	1	0
676.383	1	1
677.569	1	0
678.754	1	-4
679.940	1	0
681.125	1	7
682.311	1	2
683.496	1	-4
684.682	1	-8
685.867	1	-6
687.053	1	-1
688.238	1	12
688.746	1	-1