File: Data/GaN_200K_800ms/GaN_sample F_spot 12_UVVIS_200 K_200um_800 ms 2x2mm1_186.txt
340.368	1	4
341.565	1	-6
342.763	1	9
343.960	1	-4
345.157	1	-10
346.354	1	-3
347.552	1	-7
348.749	1	-10
349.946	1	3
351.143	1	-3
352.340	1	8
353.537	1	4
354.734	1	-5
355.931	1	0
357.127	1	2
358.324	1	11
359.521	1	12
360.718	1	11
361.914	1	11
363.111	1	12
364.308	1	13
365.504	1	23
366.701	1	32
367.897	1	29
369.093	1	35
370.290	1	30
371.486	1	40
372.682	1	28
373.879	1	19
375.075	1	16
376.271	1	26
377.467	1	18
378.663	1	14
379.859	1	4
381.055	1	15
382.251	1	4
383.447	1	7
384.643	1	13
385.839	1	8
387.035	1	0
388.230	1	12
389.426	1	1
390.622	1	-1
391.817	1	0
393.013	1	-2
394.208	1	-4
395.404	1	-3
396.599	1	2
397.795	1	5
398.990	1	6
400.186	1	2
401.381	1	-2
402.576	1	1
403.771	1	0
404.967	1	10
406.162	1	4
407.357	1	-2
408.552	1	-5
409.747	1	-4
410.942	1	11
412.137	1	5
413.332	1	2
414.526	1	-1
415.721	1	3
416.916	1	-2
418.111	1	7
419.305	1	9
420.500	1	-2
421.695	1	-1
422.889	1	-8
424.084	1	2
425.278	1	16
426.472	1	2
427.667	1	-3
428.861	1	1
430.055	1	4
431.250	1	1
432.444	1	10
433.638	1	-13
434.832	1	9
436.026	1	15
437.220	1	8
438.414	1	-5
439.608	1	-7
440.802	1	-4
441.996	1	3
443.190	1	-5
444.384	1	-7
445.578	1	-7
446.771	1	5
447.965	1	-7
449.159	1	-2
450.352	1	-2
451.546	1	2
452.739	1	2
453.933	1	-5
455.126	1	-6
456.320	1	0
457.513	1	4
458.706	1	4
459.899	1	3
461.093	1	6
462.286	1	0
463.479	1	-1
464.672	1	8
465.865	1	-7
467.058	1	-3
468.251	1	4
469.444	1	-11
470.637	1	-2
471.830	1	9
473.023	1	5
474.215	1	9
475.408	1	6
476.601	1	2
477.793	1	2
478.986	1	-2
480.179	1	8
481.371	1	1
482.564	1	8
483.756	1	8
484.948	1	-6
486.141	1	-8
487.333	1	7
488.525	1	4
489.718	1	-9
490.910	1	0
492.102	1	2
493.294	1	3
494.486	1	7
495.678	1	7
496.870	1	9
498.062	1	-1
499.254	1	6
500.446	1	-6
501.638	1	-3
502.829	1	7
504.021	1	6
505.213	1	9
506.404	1	4
507.596	1	7
508.788	1	16
509.979	1	-4
511.171	1	6
512.362	1	-5
513.553	1	-1
514.745	1	-1
515.936	1	2
517.127	1	-3
518.319	1	4
519.510	1	7
520.701	1	8
521.892	1	3
523.083	1	-4
524.274	1	-6
525.465	1	5
526.656	1	-5
527.847	1	-3
529.038	1	15
530.229	1	5
531.419	1	14
532.610	1	-6
533.801	1	12
534.991	1	1
536.182	1	-1
537.373	1	2
538.563	1	5
539.754	1	8
540.944	1	-2
542.134	1	7
543.325	1	5
544.515	1	0
545.705	1	1
546.896	1	-1
548.086	1	6
549.276	1	-2
550.466	1	2
551.656	1	5
552.846	1	2
554.036	1	4
555.226	1	-9
556.416	1	-9
557.606	1	6
558.796	1	-7
559.986	1	1
561.175	1	8
562.365	1	1
563.555	1	3
564.744	1	6
565.934	1	5
567.123	1	5
568.313	1	3
569.502	1	-4
570.692	1	9
571.881	1	24
573.070	1	0
574.260	1	7
575.449	1	9
576.638	1	-3
577.827	1	3
579.016	1	4
580.205	1	2
581.394	1	2
582.583	1	11
583.772	1	13
584.961	1	6
586.150	1	-2
587.339	1	-2
588.528	1	6
589.717	1	-1
590.905	1	3
592.094	1	-3
593.283	1	3
594.471	1	12
595.660	1	5
596.848	1	4
598.037	1	5
599.225	1	-7
600.413	1	8
601.602	1	19
602.790	1	-1
603.978	1	-6
605.166	1	8
606.355	1	6
607.543	1	-6
608.731	1	8
609.919	1	12
611.107	1	-3
612.295	1	3
613.483	1	4
614.671	1	1
615.858	1	0
617.046	1	13
618.234	1	2
619.422	1	2
620.609	1	6
621.797	1	4
622.985	1	6
624.172	1	-2
625.360	1	-1
626.547	1	12
627.735	1	2
628.922	1	5
630.109	1	-6
631.297	1	-4
632.484	1	2
633.671	1	-3
634.858	1	0
636.045	1	13
637.232	1	2
638.419	1	5
639.606	1	6
640.793	1	8
641.980	1	-2
643.167	1	-3
644.354	1	-2
645.541	1	8
646.728	1	2
647.914	1	3
649.101	1	0
650.288	1	6
651.474	1	-6
652.661	1	5
653.847	1	1
655.034	1	1
656.220	1	-9
657.406	1	3
658.593	1	11
659.779	1	1
660.965	1	9
662.152	1	6
663.338	1	12
664.524	1	4
665.710	1	4
666.896	1	-5
668.082	1	8
669.268	1	4
670.454	1	4
671.640	1	2
672.826	1	3
674.011	1	10
675.197	1	-4
676.383	1	9
677.569	1	-1
678.754	1	-2
679.940	1	-1
681.125	1	13
682.311	1	7
683.496	1	4
684.682	1	-4
685.867	1	-5
687.053	1	0
688.238	1	3
688.746	1	6