File: Data/GaN_200K_800ms/GaN_sample F_spot 12_UVVIS_200 K_200um_800 ms 2x2mm1_49.txt
340.368	1	9
341.565	1	-2
342.763	1	6
343.960	1	6
345.157	1	-2
346.354	1	8
347.552	1	2
348.749	1	-3
349.946	1	-2
351.143	1	10
352.340	1	14
353.537	1	13
354.734	1	21
355.931	1	23
357.127	1	31
358.324	1	44
359.521	1	59
360.718	1	64
361.914	1	95
363.111	1	115
364.308	1	193
365.504	1	259
366.701	1	380
367.897	1	463
369.093	1	522
370.290	1	540
371.486	1	477
372.682	1	403
373.879	1	335
375.075	1	277
376.271	1	257
377.467	1	185
378.663	1	166
379.859	1	135
381.055	1	114
382.251	1	96
383.447	1	77
384.643	1	80
385.839	1	75
387.035	1	59
388.230	1	61
389.426	1	42
390.622	1	32
391.817	1	43
393.013	1	24
394.208	1	21
395.404	1	16
396.599	1	18
397.795	1	22
398.990	1	32
400.186	1	24
401.381	1	12
402.576	1	3
403.771	1	23
404.967	1	14
406.162	1	14
407.357	1	11
408.552	1	5
409.747	1	18
410.942	1	17
412.137	1	11
413.332	1	7
414.526	1	4
415.721	1	6
416.916	1	6
418.111	1	8
419.305	1	13
420.500	1	3
421.695	1	4
422.889	1	-7
424.084	1	4
425.278	1	11
426.472	1	5
427.667	1	17
428.861	1	-1
430.055	1	7
431.250	1	1
432.444	1	13
433.638	1	2
434.832	1	8
436.026	1	21
437.220	1	6
438.414	1	-5
439.608	1	-6
440.802	1	0
441.996	1	5
443.190	1	9
444.384	1	-4
445.578	1	0
446.771	1	16
447.965	1	16
449.159	1	-3
450.352	1	-1
451.546	1	8
452.739	1	5
453.933	1	3
455.126	1	-3
456.320	1	-5
457.513	1	13
458.706	1	5
459.899	1	9
461.093	1	1
462.286	1	2
463.479	1	11
464.672	1	5
465.865	1	10
467.058	1	12
468.251	1	-1
469.444	1	2
470.637	1	7
471.830	1	9
473.023	1	12
474.215	1	14
475.408	1	14
476.601	1	5
477.793	1	-3
478.986	1	2
480.179	1	14
481.371	1	12
482.564	1	9
483.756	1	8
484.948	1	4
486.141	1	11
487.333	1	10
488.525	1	20
489.718	1	16
490.910	1	18
492.102	1	15
493.294	1	15
494.486	1	11
495.678	1	12
496.870	1	24
498.062	1	13
499.254	1	21
500.446	1	5
501.638	1	15
502.829	1	13
504.021	1	18
505.213	1	34
506.404	1	22
507.596	1	18
508.788	1	51
509.979	1	27
511.171	1	17
512.362	1	25
513.553	1	17
514.745	1	24
515.936	1	28
517.127	1	26
518.319	1	36
519.510	1	33
520.701	1	40
521.892	1	36
523.083	1	18
524.274	1	41
525.465	1	38
526.656	1	28
527.847	1	35
529.038	1	38
530.229	1	41
531.419	1	47
532.610	1	36
533.801	1	51
534.991	1	42
536.182	1	42
537.373	1	37
538.563	1	39
539.754	1	40
540.944	1	42
542.134	1	36
543.325	1	42
544.515	1	29
545.705	1	34
546.896	1	44
548.086	1	37
549.276	1	48
550.466	1	42
551.656	1	48
552.846	1	55
554.036	1	45
555.226	1	33
556.416	1	43
557.606	1	37
558.796	1	43
559.986	1	35
561.175	1	43
562.365	1	39
563.555	1	37
564.744	1	39
565.934	1	53
567.123	1	45
568.313	1	52
569.502	1	41
570.692	1	43
571.881	1	51
573.070	1	49
574.260	1	50
575.449	1	38
576.638	1	32
577.827	1	35
579.016	1	61
580.205	1	45
581.394	1	33
582.583	1	46
583.772	1	43
584.961	1	40
586.150	1	38
587.339	1	33
588.528	1	34
589.717	1	33
590.905	1	26
592.094	1	37
593.283	1	35
594.471	1	46
595.660	1	26
596.848	1	40
598.037	1	30
599.225	1	16
600.413	1	45
601.602	1	43
602.790	1	30
603.978	1	33
605.166	1	33
606.355	1	35
607.543	1	32
608.731	1	29
609.919	1	38
611.107	1	32
612.295	1	24
613.483	1	36
614.671	1	41
615.858	1	31
617.046	1	31
618.234	1	29
619.422	1	26
620.609	1	31
621.797	1	23
622.985	1	29
624.172	1	30
625.360	1	18
626.547	1	11
627.735	1	26
628.922	1	22
630.109	1	20
631.297	1	27
632.484	1	22
633.671	1	21
634.858	1	18
636.045	1	28
637.232	1	14
638.419	1	19
639.606	1	15
640.793	1	25
641.980	1	21
643.167	1	7
644.354	1	7
645.541	1	22
646.728	1	12
647.914	1	8
649.101	1	16
650.288	1	25
651.474	1	8
652.661	1	13
653.847	1	27
655.034	1	19
656.220	1	3
657.406	1	19
658.593	1	13
659.779	1	15
660.965	1	7
662.152	1	16
663.338	1	7
664.524	1	10
665.710	1	10
666.896	1	3
668.082	1	9
669.268	1	13
670.454	1	16
671.640	1	18
672.826	1	10
674.011	1	8
675.197	1	7
676.383	1	13
677.569	1	11
678.754	1	2
679.940	1	9
681.125	1	21
682.311	1	10
683.496	1	10
684.682	1	7
685.867	1	9
687.053	1	14
688.238	1	19
688.746	1	10