File: Data/GaN_200K_800ms/GaN_sample F_spot 12_UVVIS_200 K_200um_800 ms 2x2mm1_172.txt
340.368	1	12
341.565	1	-13
342.763	1	13
343.960	1	2
345.157	1	6
346.354	1	2
347.552	1	-6
348.749	1	-4
349.946	1	-6
351.143	1	0
352.340	1	8
353.537	1	0
354.734	1	3
355.931	1	6
357.127	1	2
358.324	1	7
359.521	1	15
360.718	1	6
361.914	1	14
363.111	1	8
364.308	1	16
365.504	1	26
366.701	1	30
367.897	1	37
369.093	1	49
370.290	1	34
371.486	1	33
372.682	1	45
373.879	1	28
375.075	1	25
376.271	1	28
377.467	1	24
378.663	1	9
379.859	1	11
381.055	1	20
382.251	1	6
383.447	1	4
384.643	1	21
385.839	1	6
387.035	1	4
388.230	1	18
389.426	1	4
390.622	1	-2
391.817	1	1
393.013	1	-3
394.208	1	6
395.404	1	7
396.599	1	0
397.795	1	0
398.990	1	0
400.186	1	-1
401.381	1	-11
402.576	1	-8
403.771	1	7
404.967	1	6
406.162	1	8
407.357	1	-8
408.552	1	1
409.747	1	3
410.942	1	10
412.137	1	-2
413.332	1	2
414.526	1	-7
415.721	1	-4
416.916	1	-5
418.111	1	-3
419.305	1	3
420.500	1	-2
421.695	1	1
422.889	1	-1
424.084	1	4
425.278	1	6
426.472	1	2
427.667	1	4
428.861	1	-1
430.055	1	9
431.250	1	7
432.444	1	12
433.638	1	-2
434.832	1	16
436.026	1	9
437.220	1	9
438.414	1	-12
439.608	1	-2
440.802	1	-2
441.996	1	4
443.190	1	1
444.384	1	-9
445.578	1	-2
446.771	1	19
447.965	1	-1
449.159	1	2
450.352	1	-2
451.546	1	-5
452.739	1	-2
453.933	1	-6
455.126	1	-7
456.320	1	-2
457.513	1	10
458.706	1	5
459.899	1	-1
461.093	1	2
462.286	1	-1
463.479	1	-6
464.672	1	6
465.865	1	8
467.058	1	-1
468.251	1	2
469.444	1	-9
470.637	1	-1
471.830	1	-2
473.023	1	7
474.215	1	16
475.408	1	2
476.601	1	3
477.793	1	0
478.986	1	0
480.179	1	6
481.371	1	-1
482.564	1	-4
483.756	1	4
484.948	1	-7
486.141	1	6
487.333	1	-5
488.525	1	4
489.718	1	0
490.910	1	5
492.102	1	3
493.294	1	2
494.486	1	6
495.678	1	6
496.870	1	6
498.062	1	-3
499.254	1	6
500.446	1	3
501.638	1	-6
502.829	1	2
504.021	1	-4
505.213	1	1
506.404	1	3
507.596	1	3
508.788	1	14
509.979	1	9
511.171	1	1
512.362	1	-4
513.553	1	-2
514.745	1	4
515.936	1	0
517.127	1	-1
518.319	1	0
519.510	1	-1
520.701	1	4
521.892	1	9
523.083	1	3
524.274	1	10
525.465	1	16
526.656	1	-1
527.847	1	7
529.038	1	8
530.229	1	-2
531.419	1	1
532.610	1	2
533.801	1	25
534.991	1	10
536.182	1	10
537.373	1	12
538.563	1	10
539.754	1	14
540.944	1	1
542.134	1	5
543.325	1	11
544.515	1	8
545.705	1	1
546.896	1	-1
548.086	1	9
549.276	1	-2
550.466	1	1
551.656	1	15
552.846	1	16
554.036	1	0
555.226	1	0
556.416	1	1
557.606	1	11
558.796	1	10
559.986	1	3
561.175	1	2
562.365	1	7
563.555	1	8
564.744	1	4
565.934	1	9
567.123	1	10
568.313	1	4
569.502	1	-3
570.692	1	12
571.881	1	15
573.070	1	4
574.260	1	19
575.449	1	8
576.638	1	-3
577.827	1	5
579.016	1	13
580.205	1	6
581.394	1	3
582.583	1	9
583.772	1	14
584.961	1	16
586.150	1	8
587.339	1	12
588.528	1	9
589.717	1	4
590.905	1	-1
592.094	1	8
593.283	1	2
594.471	1	16
595.660	1	3
596.848	1	9
598.037	1	9
599.225	1	-2
600.413	1	16
601.602	1	24
602.790	1	2
603.978	1	3
605.166	1	5
606.355	1	9
607.543	1	5
608.731	1	7
609.919	1	12
611.107	1	8
612.295	1	2
613.483	1	2
614.671	1	13
615.858	1	7
617.046	1	1
618.234	1	3
619.422	1	5
620.609	1	14
621.797	1	-6
622.985	1	8
624.172	1	1
625.360	1	9
626.547	1	-1
627.735	1	6
628.922	1	6
630.109	1	-12
631.297	1	3
632.484	1	2
633.671	1	-7
634.858	1	2
636.045	1	12
637.232	1	1
638.419	1	-2
639.606	1	2
640.793	1	11
641.980	1	7
643.167	1	5
644.354	1	9
645.541	1	-4
646.728	1	4
647.914	1	1
649.101	1	4
650.288	1	11
651.474	1	1
652.661	1	0
653.847	1	13
655.034	1	0
656.220	1	0
657.406	1	-1
658.593	1	14
659.779	1	5
660.965	1	13
662.152	1	0
663.338	1	6
664.524	1	0
665.710	1	3
666.896	1	-2
668.082	1	5
669.268	1	0
670.454	1	7
671.640	1	2
672.826	1	2
674.011	1	4
675.197	1	-5
676.383	1	-5
677.569	1	-1
678.754	1	-1
679.940	1	-3
681.125	1	4
682.311	1	5
683.496	1	5
684.682	1	-5
685.867	1	1
687.053	1	-7
688.238	1	6
688.746	1	3