File: Data/GaN_200K_800ms/GaN_sample F_spot 12_UVVIS_200 K_200um_800 ms 2x2mm1_104.txt
340.368	1	8
341.565	1	-7
342.763	1	4
343.960	1	0
345.157	1	-2
346.354	1	-6
347.552	1	3
348.749	1	3
349.946	1	-1
351.143	1	2
352.340	1	7
353.537	1	9
354.734	1	7
355.931	1	2
357.127	1	0
358.324	1	9
359.521	1	19
360.718	1	11
361.914	1	14
363.111	1	43
364.308	1	34
365.504	1	61
366.701	1	66
367.897	1	80
369.093	1	81
370.290	1	89
371.486	1	80
372.682	1	84
373.879	1	61
375.075	1	50
376.271	1	61
377.467	1	39
378.663	1	28
379.859	1	34
381.055	1	46
382.251	1	26
383.447	1	6
384.643	1	10
385.839	1	14
387.035	1	12
388.230	1	20
389.426	1	15
390.622	1	1
391.817	1	12
393.013	1	17
394.208	1	5
395.404	1	0
396.599	1	9
397.795	1	9
398.990	1	8
400.186	1	5
401.381	1	8
402.576	1	5
403.771	1	7
404.967	1	6
406.162	1	12
407.357	1	-3
408.552	1	0
409.747	1	1
410.942	1	14
412.137	1	6
413.332	1	9
414.526	1	1
415.721	1	1
416.916	1	0
418.111	1	3
419.305	1	12
420.500	1	2
421.695	1	-7
422.889	1	2
424.084	1	9
425.278	1	11
426.472	1	3
427.667	1	8
428.861	1	4
430.055	1	17
431.250	1	1
432.444	1	5
433.638	1	3
434.832	1	9
436.026	1	-1
437.220	1	2
438.414	1	-10
439.608	1	-1
440.802	1	-2
441.996	1	8
443.190	1	-5
444.384	1	-3
445.578	1	0
446.771	1	11
447.965	1	-5
449.159	1	0
450.352	1	2
451.546	1	2
452.739	1	5
453.933	1	4
455.126	1	-7
456.320	1	1
457.513	1	10
458.706	1	10
459.899	1	-6
461.093	1	2
462.286	1	10
463.479	1	6
464.672	1	4
465.865	1	-4
467.058	1	-2
468.251	1	2
469.444	1	4
470.637	1	1
471.830	1	1
473.023	1	4
474.215	1	8
475.408	1	0
476.601	1	7
477.793	1	2
478.986	1	2
480.179	1	2
481.371	1	4
482.564	1	5
483.756	1	9
484.948	1	-2
486.141	1	-5
487.333	1	10
488.525	1	-1
489.718	1	9
490.910	1	3
492.102	1	0
493.294	1	1
494.486	1	11
495.678	1	10
496.870	1	-4
498.062	1	1
499.254	1	-2
500.446	1	-4
501.638	1	-2
502.829	1	4
504.021	1	17
505.213	1	12
506.404	1	12
507.596	1	5
508.788	1	20
509.979	1	-5
511.171	1	3
512.362	1	8
513.553	1	-8
514.745	1	2
515.936	1	8
517.127	1	6
518.319	1	1
519.510	1	8
520.701	1	12
521.892	1	10
523.083	1	2
524.274	1	10
525.465	1	17
526.656	1	-4
527.847	1	7
529.038	1	10
530.229	1	14
531.419	1	7
532.610	1	0
533.801	1	17
534.991	1	10
536.182	1	11
537.373	1	4
538.563	1	15
539.754	1	18
540.944	1	15
542.134	1	17
543.325	1	11
544.515	1	-1
545.705	1	7
546.896	1	6
548.086	1	12
549.276	1	8
550.466	1	19
551.656	1	6
552.846	1	18
554.036	1	6
555.226	1	9
556.416	1	21
557.606	1	16
558.796	1	18
559.986	1	9
561.175	1	17
562.365	1	19
563.555	1	10
564.744	1	15
565.934	1	21
567.123	1	16
568.313	1	16
569.502	1	15
570.692	1	15
571.881	1	15
573.070	1	10
574.260	1	17
575.449	1	17
576.638	1	1
577.827	1	5
579.016	1	22
580.205	1	11
581.394	1	10
582.583	1	27
583.772	1	14
584.961	1	8
586.150	1	7
587.339	1	12
588.528	1	10
589.717	1	3
590.905	1	10
592.094	1	0
593.283	1	15
594.471	1	22
595.660	1	7
596.848	1	13
598.037	1	3
599.225	1	3
600.413	1	20
601.602	1	16
602.790	1	10
603.978	1	1
605.166	1	15
606.355	1	11
607.543	1	3
608.731	1	11
609.919	1	15
611.107	1	10
612.295	1	-2
613.483	1	6
614.671	1	14
615.858	1	9
617.046	1	10
618.234	1	10
619.422	1	-3
620.609	1	8
621.797	1	0
622.985	1	11
624.172	1	9
625.360	1	4
626.547	1	-1
627.735	1	8
628.922	1	15
630.109	1	-6
631.297	1	7
632.484	1	8
633.671	1	5
634.858	1	-2
636.045	1	15
637.232	1	4
638.419	1	3
639.606	1	9
640.793	1	15
641.980	1	12
643.167	1	8
644.354	1	2
645.541	1	10
646.728	1	2
647.914	1	6
649.101	1	6
650.288	1	3
651.474	1	3
652.661	1	1
653.847	1	8
655.034	1	7
656.220	1	13
657.406	1	9
658.593	1	11
659.779	1	8
660.965	1	11
662.152	1	0
663.338	1	4
664.524	1	9
665.710	1	-1
666.896	1	-1
668.082	1	2
669.268	1	0
670.454	1	9
671.640	1	7
672.826	1	2
674.011	1	-2
675.197	1	1
676.383	1	12
677.569	1	-2
678.754	1	4
679.940	1	9
681.125	1	1
682.311	1	9
683.496	1	17
684.682	1	-4
685.867	1	3
687.053	1	9
688.238	1	4
688.746	1	8