File: Data/GaN_200K_800ms/GaN_sample F_spot 12_UVVIS_200 K_200um_800 ms 2x2mm1_299.txt
340.368	1	1
341.565	1	-10
342.763	1	1
343.960	1	-9
345.157	1	-3
346.354	1	-1
347.552	1	2
348.749	1	-9
349.946	1	-1
351.143	1	-9
352.340	1	6
353.537	1	-2
354.734	1	-5
355.931	1	-3
357.127	1	-3
358.324	1	-2
359.521	1	15
360.718	1	3
361.914	1	10
363.111	1	-1
364.308	1	4
365.504	1	20
366.701	1	11
367.897	1	15
369.093	1	9
370.290	1	16
371.486	1	15
372.682	1	21
373.879	1	11
375.075	1	2
376.271	1	12
377.467	1	6
378.663	1	5
379.859	1	2
381.055	1	5
382.251	1	-11
383.447	1	-7
384.643	1	7
385.839	1	-3
387.035	1	2
388.230	1	13
389.426	1	1
390.622	1	0
391.817	1	3
393.013	1	-5
394.208	1	-2
395.404	1	-12
396.599	1	2
397.795	1	-1
398.990	1	4
400.186	1	6
401.381	1	-7
402.576	1	-5
403.771	1	6
404.967	1	3
406.162	1	15
407.357	1	9
408.552	1	5
409.747	1	8
410.942	1	8
412.137	1	0
413.332	1	2
414.526	1	1
415.721	1	-8
416.916	1	-3
418.111	1	1
419.305	1	1
420.500	1	-9
421.695	1	-1
422.889	1	-8
424.084	1	1
425.278	1	2
426.472	1	2
427.667	1	5
428.861	1	5
430.055	1	9
431.250	1	2
432.444	1	9
433.638	1	1
434.832	1	0
436.026	1	8
437.220	1	2
438.414	1	-6
439.608	1	-9
440.802	1	-3
441.996	1	0
443.190	1	0
444.384	1	0
445.578	1	-2
446.771	1	8
447.965	1	9
449.159	1	-8
450.352	1	-4
451.546	1	0
452.739	1	0
453.933	1	-9
455.126	1	-3
456.320	1	-4
457.513	1	-2
458.706	1	2
459.899	1	-1
461.093	1	7
462.286	1	-9
463.479	1	1
464.672	1	1
465.865	1	-2
467.058	1	7
468.251	1	0
469.444	1	-19
470.637	1	4
471.830	1	-5
473.023	1	-2
474.215	1	10
475.408	1	-4
476.601	1	-5
477.793	1	-5
478.986	1	-2
480.179	1	5
481.371	1	8
482.564	1	1
483.756	1	5
484.948	1	1
486.141	1	-2
487.333	1	7
488.525	1	3
489.718	1	-3
490.910	1	-4
492.102	1	-6
493.294	1	1
494.486	1	-5
495.678	1	0
496.870	1	5
498.062	1	2
499.254	1	-1
500.446	1	-7
501.638	1	-6
502.829	1	-3
504.021	1	2
505.213	1	6
506.404	1	3
507.596	1	1
508.788	1	7
509.979	1	-4
511.171	1	1
512.362	1	2
513.553	1	-10
514.745	1	-2
515.936	1	-3
517.127	1	-1
518.319	1	-4
519.510	1	-2
520.701	1	5
521.892	1	-1
523.083	1	-4
524.274	1	5
525.465	1	8
526.656	1	2
527.847	1	5
529.038	1	0
530.229	1	-1
531.419	1	8
532.610	1	-6
533.801	1	8
534.991	1	1
536.182	1	3
537.373	1	-5
538.563	1	4
539.754	1	10
540.944	1	4
542.134	1	12
543.325	1	-5
544.515	1	2
545.705	1	-5
546.896	1	-6
548.086	1	7
549.276	1	3
550.466	1	-6
551.656	1	7
552.846	1	-4
554.036	1	-2
555.226	1	-14
556.416	1	-2
557.606	1	6
558.796	1	2
559.986	1	2
561.175	1	6
562.365	1	8
563.555	1	2
564.744	1	7
565.934	1	10
567.123	1	7
568.313	1	3
569.502	1	-6
570.692	1	8
571.881	1	7
573.070	1	2
574.260	1	4
575.449	1	0
576.638	1	-3
577.827	1	-1
579.016	1	11
580.205	1	2
581.394	1	-5
582.583	1	12
583.772	1	5
584.961	1	7
586.150	1	-5
587.339	1	-1
588.528	1	6
589.717	1	5
590.905	1	1
592.094	1	-6
593.283	1	7
594.471	1	8
595.660	1	-6
596.848	1	3
598.037	1	-4
599.225	1	-1
600.413	1	7
601.602	1	2
602.790	1	0
603.978	1	-2
605.166	1	9
606.355	1	-6
607.543	1	-6
608.731	1	-6
609.919	1	8
611.107	1	5
612.295	1	-6
613.483	1	-4
614.671	1	4
615.858	1	1
617.046	1	4
618.234	1	-10
619.422	1	0
620.609	1	9
621.797	1	-6
622.985	1	-7
624.172	1	0
625.360	1	0
626.547	1	0
627.735	1	8
628.922	1	8
630.109	1	-7
631.297	1	-5
632.484	1	-5
633.671	1	-4
634.858	1	-2
636.045	1	6
637.232	1	-2
638.419	1	-7
639.606	1	10
640.793	1	12
641.980	1	0
643.167	1	-1
644.354	1	-2
645.541	1	-3
646.728	1	-5
647.914	1	-5
649.101	1	-1
650.288	1	3
651.474	1	-3
652.661	1	-5
653.847	1	11
655.034	1	0
656.220	1	-10
657.406	1	9
658.593	1	9
659.779	1	5
660.965	1	9
662.152	1	0
663.338	1	9
664.524	1	3
665.710	1	-2
666.896	1	-8
668.082	1	2
669.268	1	0
670.454	1	6
671.640	1	0
672.826	1	-8
674.011	1	1
675.197	1	-7
676.383	1	2
677.569	1	-6
678.754	1	-4
679.940	1	-12
681.125	1	5
682.311	1	-4
683.496	1	1
684.682	1	-6
685.867	1	3
687.053	1	-3
688.238	1	5
688.746	1	6