File: Data/GaN_200K_800ms/GaN_sample F_spot 12_UVVIS_200 K_200um_800 ms 2x2mm1_138.txt
340.368	1	3
341.565	1	-8
342.763	1	12
343.960	1	-6
345.157	1	-2
346.354	1	4
347.552	1	-5
348.749	1	3
349.946	1	1
351.143	1	8
352.340	1	0
353.537	1	4
354.734	1	13
355.931	1	5
357.127	1	0
358.324	1	4
359.521	1	17
360.718	1	18
361.914	1	18
363.111	1	15
364.308	1	24
365.504	1	41
366.701	1	35
367.897	1	50
369.093	1	54
370.290	1	54
371.486	1	49
372.682	1	55
373.879	1	27
375.075	1	29
376.271	1	41
377.467	1	30
378.663	1	25
379.859	1	26
381.055	1	29
382.251	1	7
383.447	1	3
384.643	1	27
385.839	1	3
387.035	1	8
388.230	1	19
389.426	1	5
390.622	1	11
391.817	1	15
393.013	1	0
394.208	1	3
395.404	1	-4
396.599	1	2
397.795	1	8
398.990	1	0
400.186	1	4
401.381	1	5
402.576	1	2
403.771	1	6
404.967	1	8
406.162	1	9
407.357	1	1
408.552	1	3
409.747	1	0
410.942	1	9
412.137	1	11
413.332	1	1
414.526	1	3
415.721	1	-1
416.916	1	-1
418.111	1	3
419.305	1	-1
420.500	1	-4
421.695	1	-2
422.889	1	-12
424.084	1	7
425.278	1	10
426.472	1	2
427.667	1	12
428.861	1	0
430.055	1	4
431.250	1	5
432.444	1	11
433.638	1	-7
434.832	1	7
436.026	1	9
437.220	1	3
438.414	1	-6
439.608	1	-2
440.802	1	-2
441.996	1	6
443.190	1	4
444.384	1	-4
445.578	1	0
446.771	1	8
447.965	1	1
449.159	1	-6
450.352	1	4
451.546	1	7
452.739	1	5
453.933	1	-4
455.126	1	-4
456.320	1	1
457.513	1	4
458.706	1	-5
459.899	1	-9
461.093	1	0
462.286	1	-1
463.479	1	-6
464.672	1	4
465.865	1	0
467.058	1	-10
468.251	1	4
469.444	1	2
470.637	1	6
471.830	1	0
473.023	1	0
474.215	1	9
475.408	1	14
476.601	1	4
477.793	1	7
478.986	1	0
480.179	1	6
481.371	1	5
482.564	1	0
483.756	1	3
484.948	1	-3
486.141	1	-5
487.333	1	2
488.525	1	3
489.718	1	5
490.910	1	7
492.102	1	-2
493.294	1	-8
494.486	1	-2
495.678	1	-2
496.870	1	8
498.062	1	-5
499.254	1	-5
500.446	1	-5
501.638	1	-5
502.829	1	4
504.021	1	2
505.213	1	11
506.404	1	15
507.596	1	0
508.788	1	17
509.979	1	10
511.171	1	6
512.362	1	-2
513.553	1	-1
514.745	1	-1
515.936	1	-2
517.127	1	5
518.319	1	6
519.510	1	4
520.701	1	11
521.892	1	-4
523.083	1	-1
524.274	1	6
525.465	1	9
526.656	1	-3
527.847	1	2
529.038	1	4
530.229	1	3
531.419	1	3
532.610	1	4
533.801	1	4
534.991	1	-1
536.182	1	3
537.373	1	-1
538.563	1	11
539.754	1	5
540.944	1	3
542.134	1	16
543.325	1	7
544.515	1	4
545.705	1	11
546.896	1	4
548.086	1	6
549.276	1	1
550.466	1	8
551.656	1	16
552.846	1	0
554.036	1	-2
555.226	1	-8
556.416	1	4
557.606	1	12
558.796	1	8
559.986	1	-1
561.175	1	12
562.365	1	9
563.555	1	0
564.744	1	10
565.934	1	15
567.123	1	14
568.313	1	6
569.502	1	7
570.692	1	10
571.881	1	16
573.070	1	-1
574.260	1	13
575.449	1	4
576.638	1	2
577.827	1	-3
579.016	1	17
580.205	1	9
581.394	1	0
582.583	1	11
583.772	1	13
584.961	1	11
586.150	1	2
587.339	1	9
588.528	1	10
589.717	1	3
590.905	1	-5
592.094	1	-2
593.283	1	6
594.471	1	14
595.660	1	8
596.848	1	5
598.037	1	9
599.225	1	-2
600.413	1	3
601.602	1	18
602.790	1	3
603.978	1	5
605.166	1	6
606.355	1	9
607.543	1	9
608.731	1	2
609.919	1	4
611.107	1	12
612.295	1	-1
613.483	1	4
614.671	1	9
615.858	1	13
617.046	1	9
618.234	1	0
619.422	1	-5
620.609	1	10
621.797	1	1
622.985	1	13
624.172	1	-4
625.360	1	-1
626.547	1	-4
627.735	1	5
628.922	1	4
630.109	1	0
631.297	1	11
632.484	1	0
633.671	1	-1
634.858	1	3
636.045	1	10
637.232	1	1
638.419	1	0
639.606	1	6
640.793	1	7
641.980	1	12
643.167	1	-7
644.354	1	2
645.541	1	11
646.728	1	6
647.914	1	0
649.101	1	-2
650.288	1	11
651.474	1	1
652.661	1	4
653.847	1	9
655.034	1	3
656.220	1	-1
657.406	1	9
658.593	1	3
659.779	1	2
660.965	1	9
662.152	1	0
663.338	1	8
664.524	1	-1
665.710	1	4
666.896	1	-9
668.082	1	3
669.268	1	-9
670.454	1	3
671.640	1	2
672.826	1	3
674.011	1	-1
675.197	1	-4
676.383	1	-5
677.569	1	-1
678.754	1	-4
679.940	1	2
681.125	1	4
682.311	1	3
683.496	1	2
684.682	1	-9
685.867	1	8
687.053	1	5
688.238	1	1
688.746	1	-5