File: Data/GaN_200K_800ms/GaN_sample F_spot 12_UVVIS_200 K_200um_800 ms 2x2mm1_431.txt
340.368	1	8
341.565	1	-12
342.763	1	4
343.960	1	-2
345.157	1	-8
346.354	1	0
347.552	1	-7
348.749	1	-4
349.946	1	-9
351.143	1	2
352.340	1	-2
353.537	1	1
354.734	1	7
355.931	1	-3
357.127	1	-16
358.324	1	2
359.521	1	5
360.718	1	5
361.914	1	4
363.111	1	-2
364.308	1	4
365.504	1	12
366.701	1	8
367.897	1	6
369.093	1	0
370.290	1	14
371.486	1	9
372.682	1	15
373.879	1	0
375.075	1	7
376.271	1	5
377.467	1	2
378.663	1	2
379.859	1	-7
381.055	1	-4
382.251	1	-1
383.447	1	1
384.643	1	5
385.839	1	4
387.035	1	8
388.230	1	12
389.426	1	-4
390.622	1	-11
391.817	1	2
393.013	1	0
394.208	1	-9
395.404	1	0
396.599	1	-5
397.795	1	-10
398.990	1	3
400.186	1	3
401.381	1	-3
402.576	1	-8
403.771	1	2
404.967	1	8
406.162	1	4
407.357	1	-1
408.552	1	1
409.747	1	-7
410.942	1	3
412.137	1	-4
413.332	1	-2
414.526	1	-2
415.721	1	0
416.916	1	0
418.111	1	0
419.305	1	5
420.500	1	0
421.695	1	-2
422.889	1	-10
424.084	1	-6
425.278	1	0
426.472	1	-5
427.667	1	6
428.861	1	-4
430.055	1	5
431.250	1	4
432.444	1	1
433.638	1	-7
434.832	1	10
436.026	1	9
437.220	1	-5
438.414	1	-11
439.608	1	-4
440.802	1	0
441.996	1	7
443.190	1	4
444.384	1	-21
445.578	1	-5
446.771	1	7
447.965	1	5
449.159	1	-12
450.352	1	-5
451.546	1	-8
452.739	1	6
453.933	1	2
455.126	1	2
456.320	1	0
457.513	1	8
458.706	1	5
459.899	1	-7
461.093	1	5
462.286	1	-4
463.479	1	-2
464.672	1	7
465.865	1	-6
467.058	1	-2
468.251	1	2
469.444	1	-10
470.637	1	0
471.830	1	-3
473.023	1	2
474.215	1	6
475.408	1	3
476.601	1	-4
477.793	1	-4
478.986	1	-5
480.179	1	-6
481.371	1	6
482.564	1	3
483.756	1	11
484.948	1	-7
486.141	1	-7
487.333	1	-1
488.525	1	-4
489.718	1	-15
490.910	1	9
492.102	1	-9
493.294	1	-7
494.486	1	4
495.678	1	-3
496.870	1	-1
498.062	1	-2
499.254	1	-7
500.446	1	-6
501.638	1	-8
502.829	1	-4
504.021	1	-2
505.213	1	5
506.404	1	1
507.596	1	-2
508.788	1	14
509.979	1	-4
511.171	1	2
512.362	1	-2
513.553	1	0
514.745	1	-3
515.936	1	2
517.127	1	-3
518.319	1	-3
519.510	1	-4
520.701	1	-4
521.892	1	3
523.083	1	-5
524.274	1	-4
525.465	1	12
526.656	1	-2
527.847	1	1
529.038	1	2
530.229	1	3
531.419	1	4
532.610	1	-2
533.801	1	14
534.991	1	1
536.182	1	-4
537.373	1	-1
538.563	1	6
539.754	1	2
540.944	1	4
542.134	1	6
543.325	1	-1
544.515	1	0
545.705	1	-2
546.896	1	-3
548.086	1	-2
549.276	1	-7
550.466	1	5
551.656	1	4
552.846	1	1
554.036	1	-3
555.226	1	-4
556.416	1	-1
557.606	1	12
558.796	1	-4
559.986	1	-3
561.175	1	3
562.365	1	4
563.555	1	-3
564.744	1	7
565.934	1	7
567.123	1	0
568.313	1	0
569.502	1	-7
570.692	1	6
571.881	1	10
573.070	1	-5
574.260	1	6
575.449	1	-12
576.638	1	-3
577.827	1	-4
579.016	1	15
580.205	1	0
581.394	1	2
582.583	1	8
583.772	1	10
584.961	1	6
586.150	1	-2
587.339	1	-2
588.528	1	7
589.717	1	11
590.905	1	-6
592.094	1	2
593.283	1	6
594.471	1	4
595.660	1	-7
596.848	1	-4
598.037	1	2
599.225	1	-5
600.413	1	5
601.602	1	17
602.790	1	2
603.978	1	1
605.166	1	5
606.355	1	4
607.543	1	2
608.731	1	-5
609.919	1	16
611.107	1	-3
612.295	1	0
613.483	1	5
614.671	1	3
615.858	1	-1
617.046	1	0
618.234	1	-3
619.422	1	-6
620.609	1	4
621.797	1	-4
622.985	1	3
624.172	1	0
625.360	1	2
626.547	1	2
627.735	1	9
628.922	1	-2
630.109	1	-5
631.297	1	-2
632.484	1	-7
633.671	1	-5
634.858	1	-2
636.045	1	7
637.232	1	-4
638.419	1	-5
639.606	1	1
640.793	1	9
641.980	1	5
643.167	1	0
644.354	1	-1
645.541	1	2
646.728	1	-4
647.914	1	-13
649.101	1	-9
650.288	1	1
651.474	1	2
652.661	1	-2
653.847	1	8
655.034	1	2
656.220	1	-9
657.406	1	-2
658.593	1	4
659.779	1	4
660.965	1	5
662.152	1	3
663.338	1	2
664.524	1	-5
665.710	1	-6
666.896	1	-10
668.082	1	7
669.268	1	-3
670.454	1	8
671.640	1	2
672.826	1	-12
674.011	1	-3
675.197	1	-3
676.383	1	1
677.569	1	-4
678.754	1	-14
679.940	1	-9
681.125	1	4
682.311	1	11
683.496	1	3
684.682	1	-7
685.867	1	8
687.053	1	8
688.238	1	11
688.746	1	-8