File: Data/GaN_200K_800ms/GaN_sample F_spot 12_UVVIS_200 K_200um_800 ms 2x2mm1_100.txt
340.368	1	1
341.565	1	-11
342.763	1	11
343.960	1	1
345.157	1	4
346.354	1	-2
347.552	1	1
348.749	1	-9
349.946	1	-5
351.143	1	6
352.340	1	10
353.537	1	10
354.734	1	9
355.931	1	10
357.127	1	6
358.324	1	13
359.521	1	22
360.718	1	24
361.914	1	29
363.111	1	28
364.308	1	42
365.504	1	66
366.701	1	73
367.897	1	86
369.093	1	87
370.290	1	97
371.486	1	86
372.682	1	90
373.879	1	64
375.075	1	49
376.271	1	55
377.467	1	57
378.663	1	37
379.859	1	35
381.055	1	43
382.251	1	24
383.447	1	20
384.643	1	40
385.839	1	20
387.035	1	15
388.230	1	25
389.426	1	10
390.622	1	8
391.817	1	12
393.013	1	-6
394.208	1	8
395.404	1	1
396.599	1	5
397.795	1	6
398.990	1	2
400.186	1	10
401.381	1	-3
402.576	1	4
403.771	1	11
404.967	1	7
406.162	1	6
407.357	1	0
408.552	1	2
409.747	1	0
410.942	1	2
412.137	1	-4
413.332	1	6
414.526	1	-1
415.721	1	10
416.916	1	4
418.111	1	11
419.305	1	4
420.500	1	7
421.695	1	2
422.889	1	0
424.084	1	2
425.278	1	15
426.472	1	0
427.667	1	6
428.861	1	5
430.055	1	4
431.250	1	4
432.444	1	13
433.638	1	-7
434.832	1	6
436.026	1	14
437.220	1	10
438.414	1	1
439.608	1	-1
440.802	1	-1
441.996	1	8
443.190	1	0
444.384	1	7
445.578	1	-4
446.771	1	15
447.965	1	1
449.159	1	-4
450.352	1	4
451.546	1	1
452.739	1	-3
453.933	1	1
455.126	1	-3
456.320	1	1
457.513	1	7
458.706	1	6
459.899	1	1
461.093	1	-1
462.286	1	0
463.479	1	-1
464.672	1	-2
465.865	1	-3
467.058	1	6
468.251	1	1
469.444	1	2
470.637	1	4
471.830	1	-1
473.023	1	6
474.215	1	18
475.408	1	-4
476.601	1	1
477.793	1	4
478.986	1	6
480.179	1	4
481.371	1	6
482.564	1	12
483.756	1	13
484.948	1	-2
486.141	1	0
487.333	1	4
488.525	1	1
489.718	1	2
490.910	1	6
492.102	1	-2
493.294	1	-3
494.486	1	8
495.678	1	6
496.870	1	10
498.062	1	11
499.254	1	-7
500.446	1	-2
501.638	1	3
502.829	1	3
504.021	1	4
505.213	1	10
506.404	1	-1
507.596	1	13
508.788	1	9
509.979	1	8
511.171	1	0
512.362	1	14
513.553	1	-5
514.745	1	5
515.936	1	8
517.127	1	8
518.319	1	3
519.510	1	0
520.701	1	12
521.892	1	6
523.083	1	0
524.274	1	2
525.465	1	13
526.656	1	13
527.847	1	5
529.038	1	17
530.229	1	5
531.419	1	11
532.610	1	2
533.801	1	22
534.991	1	10
536.182	1	8
537.373	1	10
538.563	1	14
539.754	1	17
540.944	1	13
542.134	1	10
543.325	1	9
544.515	1	11
545.705	1	8
546.896	1	9
548.086	1	14
549.276	1	19
550.466	1	7
551.656	1	19
552.846	1	9
554.036	1	6
555.226	1	6
556.416	1	0
557.606	1	16
558.796	1	10
559.986	1	5
561.175	1	17
562.365	1	14
563.555	1	-5
564.744	1	12
565.934	1	11
567.123	1	12
568.313	1	11
569.502	1	13
570.692	1	20
571.881	1	18
573.070	1	4
574.260	1	19
575.449	1	14
576.638	1	-1
577.827	1	9
579.016	1	3
580.205	1	9
581.394	1	6
582.583	1	18
583.772	1	23
584.961	1	11
586.150	1	9
587.339	1	8
588.528	1	13
589.717	1	9
590.905	1	10
592.094	1	8
593.283	1	14
594.471	1	16
595.660	1	8
596.848	1	15
598.037	1	2
599.225	1	7
600.413	1	18
601.602	1	25
602.790	1	6
603.978	1	7
605.166	1	11
606.355	1	13
607.543	1	9
608.731	1	19
609.919	1	12
611.107	1	15
612.295	1	6
613.483	1	14
614.671	1	11
615.858	1	12
617.046	1	19
618.234	1	16
619.422	1	4
620.609	1	5
621.797	1	11
622.985	1	2
624.172	1	4
625.360	1	11
626.547	1	13
627.735	1	16
628.922	1	7
630.109	1	8
631.297	1	9
632.484	1	7
633.671	1	4
634.858	1	6
636.045	1	20
637.232	1	8
638.419	1	5
639.606	1	10
640.793	1	17
641.980	1	12
643.167	1	1
644.354	1	0
645.541	1	10
646.728	1	-2
647.914	1	0
649.101	1	7
650.288	1	12
651.474	1	6
652.661	1	0
653.847	1	8
655.034	1	11
656.220	1	4
657.406	1	12
658.593	1	14
659.779	1	3
660.965	1	18
662.152	1	7
663.338	1	8
664.524	1	6
665.710	1	8
666.896	1	2
668.082	1	9
669.268	1	5
670.454	1	8
671.640	1	2
672.826	1	10
674.011	1	-6
675.197	1	-10
676.383	1	2
677.569	1	6
678.754	1	1
679.940	1	5
681.125	1	10
682.311	1	12
683.496	1	6
684.682	1	-1
685.867	1	9
687.053	1	4
688.238	1	7
688.746	1	-2