File: Data/GaN_200K_800ms/GaN_sample F_spot 12_UVVIS_200 K_200um_800 ms 2x2mm1_225.txt
340.368	1	16
341.565	1	-17
342.763	1	4
343.960	1	8
345.157	1	-10
346.354	1	-6
347.552	1	-13
348.749	1	-11
349.946	1	-5
351.143	1	1
352.340	1	2
353.537	1	6
354.734	1	6
355.931	1	1
357.127	1	3
358.324	1	7
359.521	1	13
360.718	1	5
361.914	1	6
363.111	1	3
364.308	1	4
365.504	1	26
366.701	1	23
367.897	1	20
369.093	1	21
370.290	1	27
371.486	1	27
372.682	1	12
373.879	1	20
375.075	1	26
376.271	1	16
377.467	1	11
378.663	1	11
379.859	1	7
381.055	1	9
382.251	1	1
383.447	1	0
384.643	1	6
385.839	1	4
387.035	1	5
388.230	1	7
389.426	1	0
390.622	1	3
391.817	1	5
393.013	1	-2
394.208	1	6
395.404	1	-10
396.599	1	2
397.795	1	-4
398.990	1	0
400.186	1	-1
401.381	1	-6
402.576	1	-6
403.771	1	8
404.967	1	-7
406.162	1	0
407.357	1	-5
408.552	1	4
409.747	1	2
410.942	1	7
412.137	1	1
413.332	1	6
414.526	1	2
415.721	1	2
416.916	1	-2
418.111	1	6
419.305	1	-4
420.500	1	-6
421.695	1	-5
422.889	1	-10
424.084	1	0
425.278	1	6
426.472	1	-1
427.667	1	9
428.861	1	0
430.055	1	7
431.250	1	2
432.444	1	-3
433.638	1	-2
434.832	1	7
436.026	1	6
437.220	1	5
438.414	1	-12
439.608	1	-7
440.802	1	0
441.996	1	9
443.190	1	2
444.384	1	1
445.578	1	-3
446.771	1	14
447.965	1	6
449.159	1	-4
450.352	1	1
451.546	1	-3
452.739	1	0
453.933	1	2
455.126	1	0
456.320	1	1
457.513	1	7
458.706	1	8
459.899	1	-2
461.093	1	10
462.286	1	0
463.479	1	1
464.672	1	3
465.865	1	-6
467.058	1	0
468.251	1	0
469.444	1	-1
470.637	1	-2
471.830	1	-9
473.023	1	-4
474.215	1	12
475.408	1	4
476.601	1	1
477.793	1	0
478.986	1	-8
480.179	1	-2
481.371	1	11
482.564	1	4
483.756	1	7
484.948	1	-3
486.141	1	-7
487.333	1	4
488.525	1	0
489.718	1	-1
490.910	1	1
492.102	1	-7
493.294	1	1
494.486	1	2
495.678	1	-8
496.870	1	4
498.062	1	1
499.254	1	4
500.446	1	-7
501.638	1	-1
502.829	1	2
504.021	1	4
505.213	1	13
506.404	1	6
507.596	1	7
508.788	1	13
509.979	1	-2
511.171	1	-7
512.362	1	7
513.553	1	-6
514.745	1	-2
515.936	1	-3
517.127	1	2
518.319	1	-1
519.510	1	-3
520.701	1	3
521.892	1	6
523.083	1	-1
524.274	1	1
525.465	1	9
526.656	1	1
527.847	1	10
529.038	1	3
530.229	1	7
531.419	1	2
532.610	1	-1
533.801	1	12
534.991	1	8
536.182	1	8
537.373	1	7
538.563	1	13
539.754	1	5
540.944	1	1
542.134	1	10
543.325	1	1
544.515	1	3
545.705	1	5
546.896	1	0
548.086	1	0
549.276	1	-4
550.466	1	7
551.656	1	3
552.846	1	9
554.036	1	-1
555.226	1	-5
556.416	1	-8
557.606	1	4
558.796	1	1
559.986	1	2
561.175	1	6
562.365	1	7
563.555	1	2
564.744	1	6
565.934	1	12
567.123	1	8
568.313	1	13
569.502	1	-2
570.692	1	4
571.881	1	13
573.070	1	0
574.260	1	5
575.449	1	-4
576.638	1	1
577.827	1	3
579.016	1	-1
580.205	1	2
581.394	1	0
582.583	1	4
583.772	1	6
584.961	1	14
586.150	1	3
587.339	1	4
588.528	1	-2
589.717	1	2
590.905	1	7
592.094	1	1
593.283	1	-2
594.471	1	9
595.660	1	-1
596.848	1	2
598.037	1	3
599.225	1	-9
600.413	1	9
601.602	1	7
602.790	1	0
603.978	1	-3
605.166	1	-1
606.355	1	5
607.543	1	6
608.731	1	-7
609.919	1	9
611.107	1	2
612.295	1	2
613.483	1	8
614.671	1	11
615.858	1	7
617.046	1	3
618.234	1	-2
619.422	1	-2
620.609	1	6
621.797	1	-3
622.985	1	-1
624.172	1	8
625.360	1	6
626.547	1	-2
627.735	1	10
628.922	1	8
630.109	1	-7
631.297	1	3
632.484	1	-1
633.671	1	-6
634.858	1	5
636.045	1	6
637.232	1	-5
638.419	1	1
639.606	1	4
640.793	1	0
641.980	1	7
643.167	1	-11
644.354	1	-2
645.541	1	7
646.728	1	-3
647.914	1	-5
649.101	1	-12
650.288	1	10
651.474	1	-1
652.661	1	-1
653.847	1	12
655.034	1	1
656.220	1	-8
657.406	1	2
658.593	1	6
659.779	1	6
660.965	1	5
662.152	1	11
663.338	1	13
664.524	1	4
665.710	1	7
666.896	1	7
668.082	1	3
669.268	1	-4
670.454	1	5
671.640	1	0
672.826	1	-2
674.011	1	6
675.197	1	-11
676.383	1	2
677.569	1	-4
678.754	1	0
679.940	1	-2
681.125	1	6
682.311	1	6
683.496	1	-1
684.682	1	-7
685.867	1	-5
687.053	1	-1
688.238	1	0
688.746	1	0