File: Data/GaN_200K_800ms/GaN_sample F_spot 12_UVVIS_200 K_200um_800 ms 2x2mm1_35.txt
340.368	1	18
341.565	1	-1
342.763	1	9
343.960	1	-6
345.157	1	4
346.354	1	2
347.552	1	-5
348.749	1	-7
349.946	1	-3
351.143	1	1
352.340	1	-1
353.537	1	4
354.734	1	1
355.931	1	3
357.127	1	1
358.324	1	1
359.521	1	9
360.718	1	10
361.914	1	2
363.111	1	0
364.308	1	-1
365.504	1	3
366.701	1	6
367.897	1	0
369.093	1	-3
370.290	1	2
371.486	1	2
372.682	1	0
373.879	1	1
375.075	1	6
376.271	1	16
377.467	1	-5
378.663	1	0
379.859	1	-2
381.055	1	10
382.251	1	-4
383.447	1	-10
384.643	1	10
385.839	1	5
387.035	1	-2
388.230	1	4
389.426	1	1
390.622	1	2
391.817	1	3
393.013	1	2
394.208	1	4
395.404	1	-10
396.599	1	0
397.795	1	4
398.990	1	3
400.186	1	5
401.381	1	1
402.576	1	4
403.771	1	1
404.967	1	2
406.162	1	8
407.357	1	6
408.552	1	-4
409.747	1	-4
410.942	1	4
412.137	1	7
413.332	1	4
414.526	1	5
415.721	1	5
416.916	1	0
418.111	1	2
419.305	1	1
420.500	1	0
421.695	1	-1
422.889	1	-8
424.084	1	3
425.278	1	11
426.472	1	0
427.667	1	0
428.861	1	10
430.055	1	2
431.250	1	-1
432.444	1	7
433.638	1	-3
434.832	1	3
436.026	1	11
437.220	1	2
438.414	1	-8
439.608	1	-4
440.802	1	-4
441.996	1	6
443.190	1	-1
444.384	1	-11
445.578	1	-2
446.771	1	12
447.965	1	-3
449.159	1	4
450.352	1	-7
451.546	1	2
452.739	1	7
453.933	1	0
455.126	1	-3
456.320	1	1
457.513	1	-1
458.706	1	6
459.899	1	-1
461.093	1	-1
462.286	1	-3
463.479	1	1
464.672	1	-1
465.865	1	12
467.058	1	-4
468.251	1	-2
469.444	1	4
470.637	1	4
471.830	1	3
473.023	1	10
474.215	1	8
475.408	1	6
476.601	1	-5
477.793	1	2
478.986	1	-5
480.179	1	9
481.371	1	4
482.564	1	-2
483.756	1	11
484.948	1	-6
486.141	1	-5
487.333	1	2
488.525	1	11
489.718	1	0
490.910	1	2
492.102	1	-1
493.294	1	2
494.486	1	1
495.678	1	0
496.870	1	4
498.062	1	3
499.254	1	0
500.446	1	-9
501.638	1	-8
502.829	1	-5
504.021	1	0
505.213	1	5
506.404	1	2
507.596	1	4
508.788	1	8
509.979	1	3
511.171	1	-3
512.362	1	0
513.553	1	-15
514.745	1	2
515.936	1	4
517.127	1	-6
518.319	1	5
519.510	1	3
520.701	1	1
521.892	1	3
523.083	1	-4
524.274	1	2
525.465	1	10
526.656	1	-9
527.847	1	-2
529.038	1	3
530.229	1	8
531.419	1	-5
532.610	1	-8
533.801	1	15
534.991	1	5
536.182	1	2
537.373	1	3
538.563	1	0
539.754	1	2
540.944	1	3
542.134	1	11
543.325	1	-4
544.515	1	1
545.705	1	-5
546.896	1	-5
548.086	1	3
549.276	1	-6
550.466	1	4
551.656	1	3
552.846	1	10
554.036	1	0
555.226	1	-15
556.416	1	-4
557.606	1	-4
558.796	1	0
559.986	1	-5
561.175	1	8
562.365	1	6
563.555	1	-6
564.744	1	2
565.934	1	5
567.123	1	8
568.313	1	13
569.502	1	-3
570.692	1	11
571.881	1	8
573.070	1	4
574.260	1	0
575.449	1	-2
576.638	1	-12
577.827	1	-4
579.016	1	6
580.205	1	-2
581.394	1	5
582.583	1	8
583.772	1	6
584.961	1	3
586.150	1	2
587.339	1	8
588.528	1	1
589.717	1	1
590.905	1	-1
592.094	1	-13
593.283	1	4
594.471	1	16
595.660	1	2
596.848	1	1
598.037	1	1
599.225	1	-6
600.413	1	6
601.602	1	12
602.790	1	4
603.978	1	3
605.166	1	7
606.355	1	-3
607.543	1	-1
608.731	1	0
609.919	1	5
611.107	1	1
612.295	1	-5
613.483	1	1
614.671	1	9
615.858	1	0
617.046	1	3
618.234	1	-11
619.422	1	1
620.609	1	-1
621.797	1	13
622.985	1	3
624.172	1	3
625.360	1	11
626.547	1	-9
627.735	1	6
628.922	1	1
630.109	1	-11
631.297	1	-4
632.484	1	5
633.671	1	-5
634.858	1	-3
636.045	1	14
637.232	1	-2
638.419	1	-4
639.606	1	2
640.793	1	16
641.980	1	4
643.167	1	-3
644.354	1	6
645.541	1	3
646.728	1	3
647.914	1	1
649.101	1	-4
650.288	1	4
651.474	1	-2
652.661	1	-3
653.847	1	12
655.034	1	5
656.220	1	-7
657.406	1	11
658.593	1	2
659.779	1	3
660.965	1	3
662.152	1	7
663.338	1	4
664.524	1	7
665.710	1	10
666.896	1	-5
668.082	1	0
669.268	1	2
670.454	1	1
671.640	1	-2
672.826	1	4
674.011	1	2
675.197	1	-2
676.383	1	8
677.569	1	-7
678.754	1	2
679.940	1	1
681.125	1	1
682.311	1	5
683.496	1	10
684.682	1	-3
685.867	1	-3
687.053	1	-4
688.238	1	6
688.746	1	-3