File: Data/GaN_200K_800ms/GaN_sample F_spot 12_UVVIS_200 K_200um_800 ms 2x2mm1_108.txt
340.368	1	7
341.565	1	-4
342.763	1	2
343.960	1	9
345.157	1	-1
346.354	1	-2
347.552	1	-2
348.749	1	0
349.946	1	0
351.143	1	2
352.340	1	7
353.537	1	0
354.734	1	9
355.931	1	9
357.127	1	8
358.324	1	12
359.521	1	23
360.718	1	22
361.914	1	24
363.111	1	29
364.308	1	39
365.504	1	55
366.701	1	69
367.897	1	84
369.093	1	85
370.290	1	87
371.486	1	87
372.682	1	71
373.879	1	53
375.075	1	50
376.271	1	55
377.467	1	35
378.663	1	28
379.859	1	25
381.055	1	32
382.251	1	18
383.447	1	24
384.643	1	30
385.839	1	10
387.035	1	3
388.230	1	29
389.426	1	12
390.622	1	7
391.817	1	6
393.013	1	6
394.208	1	14
395.404	1	3
396.599	1	-3
397.795	1	9
398.990	1	13
400.186	1	-2
401.381	1	4
402.576	1	0
403.771	1	3
404.967	1	3
406.162	1	15
407.357	1	-1
408.552	1	0
409.747	1	14
410.942	1	6
412.137	1	7
413.332	1	7
414.526	1	12
415.721	1	9
416.916	1	7
418.111	1	0
419.305	1	1
420.500	1	-4
421.695	1	-2
422.889	1	2
424.084	1	9
425.278	1	15
426.472	1	1
427.667	1	18
428.861	1	7
430.055	1	-4
431.250	1	-3
432.444	1	8
433.638	1	-1
434.832	1	1
436.026	1	19
437.220	1	8
438.414	1	-3
439.608	1	-7
440.802	1	0
441.996	1	6
443.190	1	1
444.384	1	-8
445.578	1	-8
446.771	1	16
447.965	1	-9
449.159	1	-9
450.352	1	3
451.546	1	-1
452.739	1	-4
453.933	1	-1
455.126	1	-7
456.320	1	-2
457.513	1	15
458.706	1	2
459.899	1	-1
461.093	1	9
462.286	1	2
463.479	1	-3
464.672	1	4
465.865	1	-1
467.058	1	-3
468.251	1	-3
469.444	1	1
470.637	1	1
471.830	1	-1
473.023	1	5
474.215	1	20
475.408	1	0
476.601	1	6
477.793	1	1
478.986	1	5
480.179	1	5
481.371	1	6
482.564	1	7
483.756	1	11
484.948	1	-3
486.141	1	-1
487.333	1	-3
488.525	1	-3
489.718	1	-2
490.910	1	5
492.102	1	5
493.294	1	2
494.486	1	8
495.678	1	-2
496.870	1	9
498.062	1	2
499.254	1	8
500.446	1	-5
501.638	1	2
502.829	1	1
504.021	1	5
505.213	1	8
506.404	1	6
507.596	1	7
508.788	1	19
509.979	1	5
511.171	1	10
512.362	1	3
513.553	1	-4
514.745	1	-3
515.936	1	6
517.127	1	4
518.319	1	3
519.510	1	12
520.701	1	13
521.892	1	6
523.083	1	9
524.274	1	7
525.465	1	8
526.656	1	6
527.847	1	0
529.038	1	11
530.229	1	8
531.419	1	8
532.610	1	-13
533.801	1	28
534.991	1	11
536.182	1	2
537.373	1	5
538.563	1	11
539.754	1	11
540.944	1	1
542.134	1	15
543.325	1	6
544.515	1	0
545.705	1	8
546.896	1	10
548.086	1	18
549.276	1	-2
550.466	1	17
551.656	1	13
552.846	1	5
554.036	1	8
555.226	1	4
556.416	1	7
557.606	1	8
558.796	1	13
559.986	1	8
561.175	1	6
562.365	1	5
563.555	1	5
564.744	1	13
565.934	1	16
567.123	1	13
568.313	1	13
569.502	1	3
570.692	1	16
571.881	1	17
573.070	1	5
574.260	1	17
575.449	1	10
576.638	1	5
577.827	1	-5
579.016	1	15
580.205	1	2
581.394	1	6
582.583	1	18
583.772	1	12
584.961	1	6
586.150	1	10
587.339	1	9
588.528	1	7
589.717	1	10
590.905	1	0
592.094	1	5
593.283	1	5
594.471	1	1
595.660	1	3
596.848	1	14
598.037	1	-4
599.225	1	-3
600.413	1	19
601.602	1	17
602.790	1	12
603.978	1	4
605.166	1	9
606.355	1	20
607.543	1	8
608.731	1	9
609.919	1	8
611.107	1	9
612.295	1	2
613.483	1	9
614.671	1	11
615.858	1	12
617.046	1	5
618.234	1	7
619.422	1	-7
620.609	1	13
621.797	1	4
622.985	1	3
624.172	1	9
625.360	1	-3
626.547	1	5
627.735	1	7
628.922	1	11
630.109	1	-7
631.297	1	1
632.484	1	-3
633.671	1	4
634.858	1	4
636.045	1	14
637.232	1	3
638.419	1	-2
639.606	1	12
640.793	1	11
641.980	1	5
643.167	1	3
644.354	1	10
645.541	1	16
646.728	1	8
647.914	1	0
649.101	1	4
650.288	1	7
651.474	1	8
652.661	1	9
653.847	1	7
655.034	1	5
656.220	1	-9
657.406	1	13
658.593	1	13
659.779	1	8
660.965	1	11
662.152	1	12
663.338	1	3
664.524	1	6
665.710	1	9
666.896	1	3
668.082	1	12
669.268	1	-7
670.454	1	8
671.640	1	4
672.826	1	3
674.011	1	5
675.197	1	-3
676.383	1	6
677.569	1	9
678.754	1	-8
679.940	1	3
681.125	1	10
682.311	1	4
683.496	1	10
684.682	1	7
685.867	1	-9
687.053	1	1
688.238	1	15
688.746	1	2