File: Data/GaN_200K_800ms/GaN_sample F_spot 12_UVVIS_200 K_200um_800 ms 2x2mm1_115.txt
340.368	1	9
341.565	1	-8
342.763	1	13
343.960	1	-2
345.157	1	-4
346.354	1	3
347.552	1	3
348.749	1	-7
349.946	1	3
351.143	1	8
352.340	1	12
353.537	1	9
354.734	1	5
355.931	1	6
357.127	1	5
358.324	1	6
359.521	1	15
360.718	1	17
361.914	1	19
363.111	1	25
364.308	1	35
365.504	1	58
366.701	1	62
367.897	1	69
369.093	1	84
370.290	1	72
371.486	1	80
372.682	1	66
373.879	1	59
375.075	1	45
376.271	1	41
377.467	1	44
378.663	1	16
379.859	1	34
381.055	1	33
382.251	1	11
383.447	1	24
384.643	1	10
385.839	1	10
387.035	1	19
388.230	1	14
389.426	1	8
390.622	1	14
391.817	1	11
393.013	1	12
394.208	1	5
395.404	1	-8
396.599	1	0
397.795	1	-1
398.990	1	0
400.186	1	-1
401.381	1	-4
402.576	1	2
403.771	1	7
404.967	1	1
406.162	1	6
407.357	1	-7
408.552	1	-1
409.747	1	6
410.942	1	13
412.137	1	3
413.332	1	6
414.526	1	2
415.721	1	7
416.916	1	-5
418.111	1	5
419.305	1	9
420.500	1	-6
421.695	1	-5
422.889	1	0
424.084	1	4
425.278	1	16
426.472	1	4
427.667	1	8
428.861	1	1
430.055	1	4
431.250	1	9
432.444	1	10
433.638	1	-1
434.832	1	7
436.026	1	0
437.220	1	5
438.414	1	-6
439.608	1	-11
440.802	1	-1
441.996	1	6
443.190	1	-6
444.384	1	-2
445.578	1	-7
446.771	1	8
447.965	1	6
449.159	1	-5
450.352	1	-1
451.546	1	5
452.739	1	0
453.933	1	0
455.126	1	-10
456.320	1	-2
457.513	1	10
458.706	1	2
459.899	1	10
461.093	1	-2
462.286	1	5
463.479	1	0
464.672	1	1
465.865	1	7
467.058	1	-5
468.251	1	3
469.444	1	-14
470.637	1	9
471.830	1	-2
473.023	1	10
474.215	1	13
475.408	1	0
476.601	1	12
477.793	1	3
478.986	1	-4
480.179	1	7
481.371	1	5
482.564	1	9
483.756	1	13
484.948	1	-4
486.141	1	0
487.333	1	-3
488.525	1	6
489.718	1	5
490.910	1	3
492.102	1	-1
493.294	1	7
494.486	1	4
495.678	1	5
496.870	1	17
498.062	1	-1
499.254	1	2
500.446	1	-10
501.638	1	-2
502.829	1	8
504.021	1	11
505.213	1	17
506.404	1	7
507.596	1	-7
508.788	1	14
509.979	1	-9
511.171	1	3
512.362	1	3
513.553	1	-5
514.745	1	2
515.936	1	8
517.127	1	13
518.319	1	2
519.510	1	4
520.701	1	8
521.892	1	6
523.083	1	-1
524.274	1	12
525.465	1	13
526.656	1	16
527.847	1	5
529.038	1	22
530.229	1	12
531.419	1	4
532.610	1	2
533.801	1	27
534.991	1	3
536.182	1	12
537.373	1	12
538.563	1	15
539.754	1	14
540.944	1	14
542.134	1	16
543.325	1	6
544.515	1	4
545.705	1	10
546.896	1	2
548.086	1	2
549.276	1	14
550.466	1	8
551.656	1	14
552.846	1	14
554.036	1	11
555.226	1	6
556.416	1	16
557.606	1	19
558.796	1	15
559.986	1	2
561.175	1	7
562.365	1	10
563.555	1	7
564.744	1	11
565.934	1	22
567.123	1	20
568.313	1	14
569.502	1	14
570.692	1	9
571.881	1	24
573.070	1	10
574.260	1	15
575.449	1	6
576.638	1	10
577.827	1	5
579.016	1	15
580.205	1	14
581.394	1	0
582.583	1	24
583.772	1	18
584.961	1	8
586.150	1	13
587.339	1	15
588.528	1	11
589.717	1	15
590.905	1	13
592.094	1	17
593.283	1	8
594.471	1	22
595.660	1	15
596.848	1	8
598.037	1	9
599.225	1	1
600.413	1	7
601.602	1	9
602.790	1	5
603.978	1	8
605.166	1	24
606.355	1	8
607.543	1	8
608.731	1	-1
609.919	1	19
611.107	1	2
612.295	1	9
613.483	1	12
614.671	1	11
615.858	1	8
617.046	1	13
618.234	1	-5
619.422	1	1
620.609	1	11
621.797	1	13
622.985	1	10
624.172	1	6
625.360	1	4
626.547	1	11
627.735	1	13
628.922	1	12
630.109	1	1
631.297	1	5
632.484	1	3
633.671	1	-2
634.858	1	10
636.045	1	13
637.232	1	-2
638.419	1	0
639.606	1	18
640.793	1	15
641.980	1	14
643.167	1	1
644.354	1	3
645.541	1	12
646.728	1	3
647.914	1	7
649.101	1	14
650.288	1	0
651.474	1	0
652.661	1	7
653.847	1	14
655.034	1	18
656.220	1	-3
657.406	1	7
658.593	1	11
659.779	1	5
660.965	1	10
662.152	1	4
663.338	1	10
664.524	1	3
665.710	1	4
666.896	1	-7
668.082	1	2
669.268	1	5
670.454	1	2
671.640	1	14
672.826	1	8
674.011	1	8
675.197	1	-4
676.383	1	2
677.569	1	-5
678.754	1	1
679.940	1	-6
681.125	1	8
682.311	1	13
683.496	1	10
684.682	1	0
685.867	1	9
687.053	1	4
688.238	1	9
688.746	1	7