File: Data/GaN_200K_800ms/GaN_sample F_spot 12_UVVIS_200 K_200um_800 ms 2x2mm1_157.txt
340.368	1	4
341.565	1	-7
342.763	1	8
343.960	1	3
345.157	1	-8
346.354	1	-2
347.552	1	-5
348.749	1	2
349.946	1	-3
351.143	1	-2
352.340	1	6
353.537	1	-3
354.734	1	4
355.931	1	12
357.127	1	11
358.324	1	-1
359.521	1	14
360.718	1	13
361.914	1	15
363.111	1	16
364.308	1	13
365.504	1	32
366.701	1	30
367.897	1	40
369.093	1	41
370.290	1	40
371.486	1	49
372.682	1	44
373.879	1	26
375.075	1	29
376.271	1	35
377.467	1	20
378.663	1	23
379.859	1	14
381.055	1	15
382.251	1	3
383.447	1	3
384.643	1	18
385.839	1	0
387.035	1	10
388.230	1	13
389.426	1	10
390.622	1	7
391.817	1	1
393.013	1	-1
394.208	1	12
395.404	1	11
396.599	1	8
397.795	1	-2
398.990	1	6
400.186	1	0
401.381	1	-2
402.576	1	8
403.771	1	0
404.967	1	-1
406.162	1	3
407.357	1	5
408.552	1	-1
409.747	1	-2
410.942	1	13
412.137	1	4
413.332	1	1
414.526	1	0
415.721	1	3
416.916	1	-2
418.111	1	6
419.305	1	-5
420.500	1	-11
421.695	1	1
422.889	1	-2
424.084	1	-2
425.278	1	11
426.472	1	7
427.667	1	15
428.861	1	-4
430.055	1	4
431.250	1	7
432.444	1	3
433.638	1	1
434.832	1	7
436.026	1	14
437.220	1	3
438.414	1	-3
439.608	1	-9
440.802	1	-2
441.996	1	9
443.190	1	6
444.384	1	-5
445.578	1	1
446.771	1	10
447.965	1	3
449.159	1	-11
450.352	1	-4
451.546	1	-3
452.739	1	0
453.933	1	4
455.126	1	-2
456.320	1	0
457.513	1	8
458.706	1	-5
459.899	1	4
461.093	1	-8
462.286	1	-1
463.479	1	-2
464.672	1	-1
465.865	1	-6
467.058	1	3
468.251	1	3
469.444	1	-6
470.637	1	0
471.830	1	0
473.023	1	-5
474.215	1	8
475.408	1	0
476.601	1	0
477.793	1	0
478.986	1	-4
480.179	1	0
481.371	1	7
482.564	1	4
483.756	1	15
484.948	1	-6
486.141	1	-3
487.333	1	7
488.525	1	-1
489.718	1	6
490.910	1	0
492.102	1	4
493.294	1	-4
494.486	1	9
495.678	1	11
496.870	1	9
498.062	1	6
499.254	1	1
500.446	1	-11
501.638	1	5
502.829	1	-2
504.021	1	-4
505.213	1	9
506.404	1	2
507.596	1	7
508.788	1	23
509.979	1	2
511.171	1	-3
512.362	1	-7
513.553	1	-8
514.745	1	0
515.936	1	9
517.127	1	4
518.319	1	3
519.510	1	-3
520.701	1	13
521.892	1	10
523.083	1	2
524.274	1	3
525.465	1	6
526.656	1	2
527.847	1	7
529.038	1	1
530.229	1	6
531.419	1	9
532.610	1	-4
533.801	1	14
534.991	1	5
536.182	1	-4
537.373	1	3
538.563	1	17
539.754	1	10
540.944	1	0
542.134	1	9
543.325	1	2
544.515	1	1
545.705	1	0
546.896	1	12
548.086	1	2
549.276	1	10
550.466	1	7
551.656	1	3
552.846	1	15
554.036	1	3
555.226	1	-4
556.416	1	5
557.606	1	5
558.796	1	2
559.986	1	0
561.175	1	6
562.365	1	18
563.555	1	2
564.744	1	0
565.934	1	10
567.123	1	9
568.313	1	8
569.502	1	-2
570.692	1	8
571.881	1	10
573.070	1	11
574.260	1	14
575.449	1	1
576.638	1	3
577.827	1	-6
579.016	1	5
580.205	1	0
581.394	1	9
582.583	1	7
583.772	1	4
584.961	1	14
586.150	1	-3
587.339	1	10
588.528	1	13
589.717	1	5
590.905	1	9
592.094	1	5
593.283	1	6
594.471	1	12
595.660	1	6
596.848	1	-3
598.037	1	4
599.225	1	-1
600.413	1	14
601.602	1	9
602.790	1	11
603.978	1	-3
605.166	1	2
606.355	1	5
607.543	1	14
608.731	1	6
609.919	1	8
611.107	1	-4
612.295	1	1
613.483	1	11
614.671	1	5
615.858	1	-1
617.046	1	8
618.234	1	5
619.422	1	-7
620.609	1	5
621.797	1	-2
622.985	1	1
624.172	1	4
625.360	1	5
626.547	1	4
627.735	1	-2
628.922	1	7
630.109	1	-1
631.297	1	11
632.484	1	-5
633.671	1	5
634.858	1	3
636.045	1	15
637.232	1	-10
638.419	1	1
639.606	1	15
640.793	1	11
641.980	1	14
643.167	1	-6
644.354	1	-3
645.541	1	8
646.728	1	-2
647.914	1	1
649.101	1	7
650.288	1	0
651.474	1	4
652.661	1	0
653.847	1	3
655.034	1	-5
656.220	1	0
657.406	1	7
658.593	1	4
659.779	1	5
660.965	1	3
662.152	1	-2
663.338	1	12
664.524	1	0
665.710	1	5
666.896	1	-7
668.082	1	-1
669.268	1	3
670.454	1	3
671.640	1	5
672.826	1	-6
674.011	1	6
675.197	1	-8
676.383	1	1
677.569	1	-2
678.754	1	4
679.940	1	-5
681.125	1	10
682.311	1	8
683.496	1	1
684.682	1	-3
685.867	1	-1
687.053	1	1
688.238	1	4
688.746	1	2