File: Data/GaN_200K_800ms/GaN_sample F_spot 12_UVVIS_200 K_200um_800 ms 2x2mm1_101.txt
340.368	1	11
341.565	1	-5
342.763	1	15
343.960	1	-5
345.157	1	3
346.354	1	7
347.552	1	-2
348.749	1	8
349.946	1	-1
351.143	1	6
352.340	1	9
353.537	1	10
354.734	1	14
355.931	1	14
357.127	1	12
358.324	1	12
359.521	1	13
360.718	1	35
361.914	1	34
363.111	1	33
364.308	1	47
365.504	1	42
366.701	1	76
367.897	1	88
369.093	1	89
370.290	1	83
371.486	1	99
372.682	1	80
373.879	1	69
375.075	1	57
376.271	1	59
377.467	1	49
378.663	1	36
379.859	1	31
381.055	1	31
382.251	1	16
383.447	1	21
384.643	1	23
385.839	1	14
387.035	1	18
388.230	1	28
389.426	1	14
390.622	1	10
391.817	1	6
393.013	1	9
394.208	1	7
395.404	1	4
396.599	1	7
397.795	1	3
398.990	1	3
400.186	1	-5
401.381	1	0
402.576	1	-2
403.771	1	2
404.967	1	2
406.162	1	10
407.357	1	0
408.552	1	7
409.747	1	0
410.942	1	6
412.137	1	11
413.332	1	6
414.526	1	5
415.721	1	9
416.916	1	-4
418.111	1	7
419.305	1	3
420.500	1	1
421.695	1	-3
422.889	1	0
424.084	1	3
425.278	1	17
426.472	1	0
427.667	1	14
428.861	1	4
430.055	1	2
431.250	1	-4
432.444	1	9
433.638	1	5
434.832	1	1
436.026	1	8
437.220	1	6
438.414	1	-8
439.608	1	-14
440.802	1	-7
441.996	1	15
443.190	1	6
444.384	1	-8
445.578	1	3
446.771	1	15
447.965	1	3
449.159	1	-8
450.352	1	5
451.546	1	-3
452.739	1	-5
453.933	1	-6
455.126	1	-1
456.320	1	-7
457.513	1	11
458.706	1	4
459.899	1	7
461.093	1	3
462.286	1	1
463.479	1	3
464.672	1	-4
465.865	1	1
467.058	1	8
468.251	1	11
469.444	1	-3
470.637	1	11
471.830	1	2
473.023	1	8
474.215	1	10
475.408	1	5
476.601	1	-2
477.793	1	-2
478.986	1	0
480.179	1	6
481.371	1	8
482.564	1	1
483.756	1	14
484.948	1	-12
486.141	1	-3
487.333	1	3
488.525	1	6
489.718	1	1
490.910	1	2
492.102	1	-7
493.294	1	-3
494.486	1	3
495.678	1	7
496.870	1	7
498.062	1	-1
499.254	1	8
500.446	1	-10
501.638	1	2
502.829	1	10
504.021	1	1
505.213	1	13
506.404	1	13
507.596	1	9
508.788	1	20
509.979	1	5
511.171	1	7
512.362	1	-3
513.553	1	-2
514.745	1	0
515.936	1	9
517.127	1	12
518.319	1	-2
519.510	1	3
520.701	1	22
521.892	1	11
523.083	1	-2
524.274	1	5
525.465	1	11
526.656	1	12
527.847	1	10
529.038	1	4
530.229	1	9
531.419	1	19
532.610	1	2
533.801	1	26
534.991	1	8
536.182	1	1
537.373	1	18
538.563	1	12
539.754	1	15
540.944	1	4
542.134	1	15
543.325	1	4
544.515	1	10
545.705	1	6
546.896	1	10
548.086	1	9
549.276	1	10
550.466	1	16
551.656	1	11
552.846	1	12
554.036	1	4
555.226	1	-1
556.416	1	8
557.606	1	21
558.796	1	16
559.986	1	11
561.175	1	16
562.365	1	17
563.555	1	17
564.744	1	12
565.934	1	8
567.123	1	9
568.313	1	10
569.502	1	18
570.692	1	17
571.881	1	19
573.070	1	12
574.260	1	11
575.449	1	-5
576.638	1	11
577.827	1	5
579.016	1	20
580.205	1	10
581.394	1	7
582.583	1	14
583.772	1	10
584.961	1	8
586.150	1	6
587.339	1	15
588.528	1	17
589.717	1	9
590.905	1	6
592.094	1	11
593.283	1	6
594.471	1	17
595.660	1	12
596.848	1	9
598.037	1	11
599.225	1	-3
600.413	1	18
601.602	1	27
602.790	1	10
603.978	1	4
605.166	1	16
606.355	1	10
607.543	1	-1
608.731	1	1
609.919	1	18
611.107	1	10
612.295	1	7
613.483	1	14
614.671	1	14
615.858	1	12
617.046	1	16
618.234	1	1
619.422	1	-1
620.609	1	16
621.797	1	7
622.985	1	2
624.172	1	12
625.360	1	9
626.547	1	3
627.735	1	10
628.922	1	10
630.109	1	-4
631.297	1	9
632.484	1	-6
633.671	1	3
634.858	1	0
636.045	1	6
637.232	1	-1
638.419	1	6
639.606	1	10
640.793	1	11
641.980	1	9
643.167	1	3
644.354	1	12
645.541	1	5
646.728	1	0
647.914	1	4
649.101	1	-3
650.288	1	10
651.474	1	2
652.661	1	9
653.847	1	16
655.034	1	-5
656.220	1	2
657.406	1	7
658.593	1	10
659.779	1	-6
660.965	1	11
662.152	1	9
663.338	1	10
664.524	1	8
665.710	1	4
666.896	1	-4
668.082	1	-2
669.268	1	7
670.454	1	2
671.640	1	9
672.826	1	-2
674.011	1	7
675.197	1	2
676.383	1	8
677.569	1	-4
678.754	1	0
679.940	1	3
681.125	1	3
682.311	1	12
683.496	1	9
684.682	1	0
685.867	1	0
687.053	1	3
688.238	1	11
688.746	1	4