File: Data/GaN_200K_800ms/GaN_sample F_spot 12_UVVIS_200 K_200um_800 ms 2x2mm1_87.txt
340.368	1	3
341.565	1	-8
342.763	1	7
343.960	1	5
345.157	1	0
346.354	1	10
347.552	1	7
348.749	1	7
349.946	1	1
351.143	1	-2
352.340	1	11
353.537	1	0
354.734	1	0
355.931	1	18
357.127	1	10
358.324	1	8
359.521	1	29
360.718	1	27
361.914	1	34
363.111	1	42
364.308	1	57
365.504	1	76
366.701	1	92
367.897	1	120
369.093	1	124
370.290	1	124
371.486	1	135
372.682	1	109
373.879	1	88
375.075	1	71
376.271	1	69
377.467	1	58
378.663	1	37
379.859	1	41
381.055	1	47
382.251	1	27
383.447	1	34
384.643	1	31
385.839	1	21
387.035	1	21
388.230	1	25
389.426	1	10
390.622	1	17
391.817	1	8
393.013	1	8
394.208	1	9
395.404	1	-1
396.599	1	12
397.795	1	4
398.990	1	9
400.186	1	8
401.381	1	1
402.576	1	4
403.771	1	8
404.967	1	14
406.162	1	12
407.357	1	7
408.552	1	-1
409.747	1	-6
410.942	1	15
412.137	1	12
413.332	1	6
414.526	1	0
415.721	1	4
416.916	1	-9
418.111	1	10
419.305	1	5
420.500	1	3
421.695	1	-2
422.889	1	-11
424.084	1	8
425.278	1	6
426.472	1	7
427.667	1	9
428.861	1	-2
430.055	1	14
431.250	1	2
432.444	1	8
433.638	1	-2
434.832	1	9
436.026	1	8
437.220	1	9
438.414	1	-2
439.608	1	-3
440.802	1	-4
441.996	1	12
443.190	1	-1
444.384	1	-8
445.578	1	-2
446.771	1	13
447.965	1	3
449.159	1	0
450.352	1	2
451.546	1	6
452.739	1	3
453.933	1	2
455.126	1	0
456.320	1	-4
457.513	1	4
458.706	1	4
459.899	1	0
461.093	1	-4
462.286	1	12
463.479	1	3
464.672	1	2
465.865	1	0
467.058	1	0
468.251	1	-9
469.444	1	-6
470.637	1	6
471.830	1	3
473.023	1	4
474.215	1	15
475.408	1	-1
476.601	1	0
477.793	1	5
478.986	1	-11
480.179	1	5
481.371	1	11
482.564	1	5
483.756	1	11
484.948	1	-6
486.141	1	-1
487.333	1	3
488.525	1	6
489.718	1	-5
490.910	1	4
492.102	1	0
493.294	1	3
494.486	1	4
495.678	1	5
496.870	1	2
498.062	1	-3
499.254	1	7
500.446	1	0
501.638	1	10
502.829	1	1
504.021	1	6
505.213	1	13
506.404	1	7
507.596	1	12
508.788	1	19
509.979	1	7
511.171	1	6
512.362	1	1
513.553	1	-1
514.745	1	1
515.936	1	4
517.127	1	11
518.319	1	11
519.510	1	20
520.701	1	10
521.892	1	18
523.083	1	5
524.274	1	16
525.465	1	13
526.656	1	12
527.847	1	13
529.038	1	6
530.229	1	20
531.419	1	19
532.610	1	13
533.801	1	18
534.991	1	21
536.182	1	6
537.373	1	16
538.563	1	15
539.754	1	13
540.944	1	4
542.134	1	15
543.325	1	13
544.515	1	19
545.705	1	10
546.896	1	17
548.086	1	13
549.276	1	21
550.466	1	18
551.656	1	15
552.846	1	18
554.036	1	16
555.226	1	11
556.416	1	9
557.606	1	23
558.796	1	17
559.986	1	4
561.175	1	28
562.365	1	18
563.555	1	17
564.744	1	12
565.934	1	13
567.123	1	7
568.313	1	22
569.502	1	15
570.692	1	18
571.881	1	34
573.070	1	22
574.260	1	20
575.449	1	12
576.638	1	5
577.827	1	12
579.016	1	19
580.205	1	14
581.394	1	18
582.583	1	18
583.772	1	18
584.961	1	20
586.150	1	5
587.339	1	17
588.528	1	21
589.717	1	13
590.905	1	16
592.094	1	15
593.283	1	13
594.471	1	24
595.660	1	13
596.848	1	15
598.037	1	6
599.225	1	0
600.413	1	17
601.602	1	15
602.790	1	11
603.978	1	7
605.166	1	12
606.355	1	15
607.543	1	3
608.731	1	17
609.919	1	20
611.107	1	9
612.295	1	5
613.483	1	17
614.671	1	10
615.858	1	9
617.046	1	5
618.234	1	8
619.422	1	-2
620.609	1	11
621.797	1	-1
622.985	1	6
624.172	1	4
625.360	1	14
626.547	1	10
627.735	1	6
628.922	1	12
630.109	1	3
631.297	1	13
632.484	1	4
633.671	1	2
634.858	1	13
636.045	1	17
637.232	1	10
638.419	1	-2
639.606	1	7
640.793	1	14
641.980	1	8
643.167	1	-4
644.354	1	9
645.541	1	10
646.728	1	3
647.914	1	11
649.101	1	-1
650.288	1	12
651.474	1	7
652.661	1	9
653.847	1	13
655.034	1	-1
656.220	1	-1
657.406	1	12
658.593	1	22
659.779	1	7
660.965	1	16
662.152	1	12
663.338	1	7
664.524	1	5
665.710	1	1
666.896	1	-4
668.082	1	3
669.268	1	9
670.454	1	9
671.640	1	7
672.826	1	4
674.011	1	8
675.197	1	-5
676.383	1	1
677.569	1	5
678.754	1	0
679.940	1	-1
681.125	1	11
682.311	1	13
683.496	1	8
684.682	1	8
685.867	1	0
687.053	1	4
688.238	1	13
688.746	1	2