File: Data/GaN_200K_800ms/GaN_sample F_spot 12_UVVIS_200 K_200um_800 ms 2x2mm1_276.txt
340.368	1	-3
341.565	1	-14
342.763	1	-5
343.960	1	-4
345.157	1	-6
346.354	1	-6
347.552	1	-12
348.749	1	-3
349.946	1	3
351.143	1	5
352.340	1	-3
353.537	1	4
354.734	1	-2
355.931	1	-1
357.127	1	7
358.324	1	2
359.521	1	10
360.718	1	6
361.914	1	6
363.111	1	3
364.308	1	7
365.504	1	20
366.701	1	21
367.897	1	25
369.093	1	12
370.290	1	11
371.486	1	27
372.682	1	11
373.879	1	12
375.075	1	8
376.271	1	12
377.467	1	16
378.663	1	1
379.859	1	8
381.055	1	11
382.251	1	-2
383.447	1	8
384.643	1	6
385.839	1	6
387.035	1	6
388.230	1	11
389.426	1	-2
390.622	1	-2
391.817	1	-10
393.013	1	-3
394.208	1	2
395.404	1	-1
396.599	1	0
397.795	1	2
398.990	1	-1
400.186	1	2
401.381	1	-6
402.576	1	-6
403.771	1	0
404.967	1	-6
406.162	1	4
407.357	1	-6
408.552	1	-5
409.747	1	9
410.942	1	7
412.137	1	4
413.332	1	6
414.526	1	-5
415.721	1	1
416.916	1	-4
418.111	1	0
419.305	1	-4
420.500	1	-9
421.695	1	-7
422.889	1	-1
424.084	1	4
425.278	1	9
426.472	1	-2
427.667	1	1
428.861	1	-4
430.055	1	6
431.250	1	0
432.444	1	0
433.638	1	-2
434.832	1	9
436.026	1	0
437.220	1	3
438.414	1	-6
439.608	1	-4
440.802	1	0
441.996	1	4
443.190	1	2
444.384	1	-8
445.578	1	-11
446.771	1	10
447.965	1	1
449.159	1	0
450.352	1	-2
451.546	1	4
452.739	1	8
453.933	1	1
455.126	1	-3
456.320	1	-3
457.513	1	7
458.706	1	0
459.899	1	1
461.093	1	9
462.286	1	4
463.479	1	3
464.672	1	-1
465.865	1	3
467.058	1	1
468.251	1	-4
469.444	1	-8
470.637	1	-2
471.830	1	-1
473.023	1	-3
474.215	1	8
475.408	1	-7
476.601	1	-6
477.793	1	-8
478.986	1	-2
480.179	1	1
481.371	1	-7
482.564	1	3
483.756	1	4
484.948	1	-5
486.141	1	-8
487.333	1	-3
488.525	1	-1
489.718	1	-11
490.910	1	3
492.102	1	-8
493.294	1	1
494.486	1	8
495.678	1	0
496.870	1	1
498.062	1	7
499.254	1	-2
500.446	1	-10
501.638	1	-3
502.829	1	-5
504.021	1	7
505.213	1	2
506.404	1	6
507.596	1	7
508.788	1	17
509.979	1	-3
511.171	1	-4
512.362	1	-1
513.553	1	-5
514.745	1	-2
515.936	1	0
517.127	1	-5
518.319	1	-2
519.510	1	-1
520.701	1	-2
521.892	1	-6
523.083	1	-3
524.274	1	3
525.465	1	11
526.656	1	4
527.847	1	1
529.038	1	0
530.229	1	0
531.419	1	10
532.610	1	-6
533.801	1	7
534.991	1	3
536.182	1	-2
537.373	1	3
538.563	1	7
539.754	1	9
540.944	1	-4
542.134	1	-2
543.325	1	-1
544.515	1	-7
545.705	1	6
546.896	1	-4
548.086	1	2
549.276	1	-3
550.466	1	-5
551.656	1	12
552.846	1	-4
554.036	1	-11
555.226	1	-9
556.416	1	-7
557.606	1	4
558.796	1	-5
559.986	1	4
561.175	1	11
562.365	1	6
563.555	1	-5
564.744	1	1
565.934	1	12
567.123	1	-5
568.313	1	0
569.502	1	5
570.692	1	-1
571.881	1	13
573.070	1	5
574.260	1	7
575.449	1	-3
576.638	1	0
577.827	1	-11
579.016	1	6
580.205	1	-4
581.394	1	2
582.583	1	9
583.772	1	8
584.961	1	8
586.150	1	-1
587.339	1	2
588.528	1	1
589.717	1	7
590.905	1	-3
592.094	1	-1
593.283	1	6
594.471	1	10
595.660	1	3
596.848	1	9
598.037	1	-4
599.225	1	-8
600.413	1	7
601.602	1	15
602.790	1	0
603.978	1	-8
605.166	1	2
606.355	1	6
607.543	1	-4
608.731	1	1
609.919	1	-3
611.107	1	-3
612.295	1	-6
613.483	1	4
614.671	1	3
615.858	1	1
617.046	1	5
618.234	1	-2
619.422	1	-5
620.609	1	1
621.797	1	-10
622.985	1	-5
624.172	1	-3
625.360	1	-3
626.547	1	-4
627.735	1	5
628.922	1	4
630.109	1	-8
631.297	1	0
632.484	1	-4
633.671	1	-6
634.858	1	-4
636.045	1	9
637.232	1	-8
638.419	1	-3
639.606	1	2
640.793	1	8
641.980	1	5
643.167	1	0
644.354	1	-2
645.541	1	4
646.728	1	-6
647.914	1	-7
649.101	1	-2
650.288	1	4
651.474	1	2
652.661	1	-3
653.847	1	-7
655.034	1	3
656.220	1	-6
657.406	1	3
658.593	1	5
659.779	1	1
660.965	1	-4
662.152	1	1
663.338	1	5
664.524	1	0
665.710	1	-4
666.896	1	0
668.082	1	6
669.268	1	0
670.454	1	5
671.640	1	-2
672.826	1	4
674.011	1	0
675.197	1	-10
676.383	1	-4
677.569	1	-3
678.754	1	1
679.940	1	0
681.125	1	4
682.311	1	2
683.496	1	16
684.682	1	-5
685.867	1	-4
687.053	1	1
688.238	1	-2
688.746	1	2