File: Data/GaN_200K_800ms/GaN_sample F_spot 12_UVVIS_200 K_200um_800 ms 2x2mm1_226.txt
340.368	1	4
341.565	1	-5
342.763	1	-2
343.960	1	8
345.157	1	-3
346.354	1	3
347.552	1	-7
348.749	1	-7
349.946	1	-1
351.143	1	-1
352.340	1	5
353.537	1	9
354.734	1	7
355.931	1	2
357.127	1	2
358.324	1	8
359.521	1	12
360.718	1	7
361.914	1	9
363.111	1	10
364.308	1	4
365.504	1	18
366.701	1	11
367.897	1	29
369.093	1	29
370.290	1	23
371.486	1	35
372.682	1	24
373.879	1	16
375.075	1	8
376.271	1	15
377.467	1	9
378.663	1	7
379.859	1	11
381.055	1	15
382.251	1	4
383.447	1	3
384.643	1	19
385.839	1	-3
387.035	1	2
388.230	1	13
389.426	1	5
390.622	1	-4
391.817	1	10
393.013	1	4
394.208	1	4
395.404	1	1
396.599	1	-4
397.795	1	2
398.990	1	2
400.186	1	-5
401.381	1	-6
402.576	1	-3
403.771	1	1
404.967	1	1
406.162	1	15
407.357	1	1
408.552	1	-6
409.747	1	-3
410.942	1	12
412.137	1	7
413.332	1	8
414.526	1	-1
415.721	1	-5
416.916	1	-4
418.111	1	-5
419.305	1	3
420.500	1	3
421.695	1	0
422.889	1	-13
424.084	1	-1
425.278	1	4
426.472	1	-2
427.667	1	8
428.861	1	-7
430.055	1	5
431.250	1	-4
432.444	1	0
433.638	1	-2
434.832	1	-1
436.026	1	9
437.220	1	6
438.414	1	-9
439.608	1	-8
440.802	1	-4
441.996	1	-5
443.190	1	4
444.384	1	-1
445.578	1	-6
446.771	1	8
447.965	1	-1
449.159	1	0
450.352	1	10
451.546	1	7
452.739	1	6
453.933	1	-7
455.126	1	-5
456.320	1	4
457.513	1	4
458.706	1	-2
459.899	1	-11
461.093	1	-4
462.286	1	2
463.479	1	-2
464.672	1	-2
465.865	1	-5
467.058	1	0
468.251	1	0
469.444	1	-9
470.637	1	4
471.830	1	-10
473.023	1	0
474.215	1	17
475.408	1	-9
476.601	1	6
477.793	1	1
478.986	1	-3
480.179	1	5
481.371	1	6
482.564	1	1
483.756	1	9
484.948	1	-1
486.141	1	-6
487.333	1	-1
488.525	1	0
489.718	1	3
490.910	1	2
492.102	1	-4
493.294	1	-8
494.486	1	8
495.678	1	-3
496.870	1	-2
498.062	1	3
499.254	1	-13
500.446	1	-8
501.638	1	-3
502.829	1	8
504.021	1	-2
505.213	1	7
506.404	1	1
507.596	1	6
508.788	1	9
509.979	1	8
511.171	1	-5
512.362	1	-5
513.553	1	-8
514.745	1	-6
515.936	1	-1
517.127	1	-2
518.319	1	-10
519.510	1	7
520.701	1	-1
521.892	1	-1
523.083	1	2
524.274	1	2
525.465	1	4
526.656	1	1
527.847	1	10
529.038	1	6
530.229	1	4
531.419	1	9
532.610	1	-3
533.801	1	15
534.991	1	0
536.182	1	3
537.373	1	-2
538.563	1	13
539.754	1	10
540.944	1	4
542.134	1	7
543.325	1	-1
544.515	1	5
545.705	1	-9
546.896	1	-4
548.086	1	7
549.276	1	5
550.466	1	7
551.656	1	6
552.846	1	7
554.036	1	1
555.226	1	-2
556.416	1	-3
557.606	1	4
558.796	1	9
559.986	1	2
561.175	1	1
562.365	1	1
563.555	1	6
564.744	1	10
565.934	1	10
567.123	1	10
568.313	1	8
569.502	1	9
570.692	1	6
571.881	1	18
573.070	1	0
574.260	1	9
575.449	1	-7
576.638	1	-6
577.827	1	-3
579.016	1	11
580.205	1	5
581.394	1	4
582.583	1	20
583.772	1	12
584.961	1	-1
586.150	1	9
587.339	1	12
588.528	1	10
589.717	1	5
590.905	1	-2
592.094	1	1
593.283	1	6
594.471	1	10
595.660	1	2
596.848	1	-1
598.037	1	7
599.225	1	5
600.413	1	11
601.602	1	16
602.790	1	9
603.978	1	1
605.166	1	2
606.355	1	5
607.543	1	-1
608.731	1	-4
609.919	1	13
611.107	1	1
612.295	1	-3
613.483	1	0
614.671	1	5
615.858	1	7
617.046	1	2
618.234	1	6
619.422	1	-5
620.609	1	2
621.797	1	-2
622.985	1	7
624.172	1	-6
625.360	1	8
626.547	1	4
627.735	1	-2
628.922	1	-1
630.109	1	-4
631.297	1	-1
632.484	1	-6
633.671	1	0
634.858	1	2
636.045	1	8
637.232	1	1
638.419	1	3
639.606	1	4
640.793	1	11
641.980	1	5
643.167	1	-8
644.354	1	10
645.541	1	0
646.728	1	2
647.914	1	2
649.101	1	2
650.288	1	10
651.474	1	-1
652.661	1	-5
653.847	1	5
655.034	1	6
656.220	1	-5
657.406	1	9
658.593	1	15
659.779	1	9
660.965	1	10
662.152	1	-1
663.338	1	15
664.524	1	-5
665.710	1	8
666.896	1	1
668.082	1	6
669.268	1	0
670.454	1	0
671.640	1	-1
672.826	1	8
674.011	1	-5
675.197	1	-8
676.383	1	4
677.569	1	0
678.754	1	-2
679.940	1	5
681.125	1	3
682.311	1	8
683.496	1	3
684.682	1	0
685.867	1	5
687.053	1	3
688.238	1	5
688.746	1	0