File: Data/GaN_200K_800ms/GaN_sample F_spot 12_UVVIS_200 K_200um_800 ms 2x2mm1_74.txt
340.368	1	10
341.565	1	-3
342.763	1	11
343.960	1	9
345.157	1	2
346.354	1	4
347.552	1	-1
348.749	1	4
349.946	1	3
351.143	1	12
352.340	1	13
353.537	1	12
354.734	1	24
355.931	1	8
357.127	1	7
358.324	1	17
359.521	1	37
360.718	1	36
361.914	1	46
363.111	1	51
364.308	1	68
365.504	1	110
366.701	1	128
367.897	1	157
369.093	1	170
370.290	1	177
371.486	1	154
372.682	1	142
373.879	1	117
375.075	1	100
376.271	1	98
377.467	1	76
378.663	1	60
379.859	1	46
381.055	1	61
382.251	1	37
383.447	1	42
384.643	1	43
385.839	1	30
387.035	1	28
388.230	1	32
389.426	1	19
390.622	1	21
391.817	1	20
393.013	1	25
394.208	1	13
395.404	1	7
396.599	1	7
397.795	1	13
398.990	1	-1
400.186	1	12
401.381	1	9
402.576	1	4
403.771	1	5
404.967	1	2
406.162	1	4
407.357	1	0
408.552	1	2
409.747	1	1
410.942	1	8
412.137	1	7
413.332	1	14
414.526	1	8
415.721	1	4
416.916	1	-1
418.111	1	5
419.305	1	10
420.500	1	1
421.695	1	6
422.889	1	0
424.084	1	2
425.278	1	8
426.472	1	1
427.667	1	10
428.861	1	-3
430.055	1	6
431.250	1	5
432.444	1	14
433.638	1	7
434.832	1	11
436.026	1	5
437.220	1	7
438.414	1	-4
439.608	1	-4
440.802	1	6
441.996	1	5
443.190	1	6
444.384	1	-4
445.578	1	-4
446.771	1	12
447.965	1	7
449.159	1	-2
450.352	1	1
451.546	1	-1
452.739	1	2
453.933	1	3
455.126	1	0
456.320	1	4
457.513	1	13
458.706	1	2
459.899	1	-5
461.093	1	4
462.286	1	2
463.479	1	5
464.672	1	-8
465.865	1	4
467.058	1	0
468.251	1	4
469.444	1	-2
470.637	1	-2
471.830	1	2
473.023	1	1
474.215	1	9
475.408	1	4
476.601	1	1
477.793	1	8
478.986	1	-1
480.179	1	9
481.371	1	9
482.564	1	13
483.756	1	4
484.948	1	-2
486.141	1	-1
487.333	1	10
488.525	1	-1
489.718	1	13
490.910	1	11
492.102	1	11
493.294	1	4
494.486	1	11
495.678	1	8
496.870	1	6
498.062	1	-1
499.254	1	5
500.446	1	0
501.638	1	6
502.829	1	2
504.021	1	15
505.213	1	14
506.404	1	15
507.596	1	13
508.788	1	29
509.979	1	4
511.171	1	1
512.362	1	12
513.553	1	1
514.745	1	5
515.936	1	11
517.127	1	20
518.319	1	19
519.510	1	10
520.701	1	18
521.892	1	10
523.083	1	18
524.274	1	12
525.465	1	20
526.656	1	9
527.847	1	16
529.038	1	22
530.229	1	17
531.419	1	18
532.610	1	6
533.801	1	26
534.991	1	20
536.182	1	18
537.373	1	20
538.563	1	13
539.754	1	25
540.944	1	14
542.134	1	14
543.325	1	19
544.515	1	16
545.705	1	9
546.896	1	13
548.086	1	15
549.276	1	19
550.466	1	17
551.656	1	29
552.846	1	23
554.036	1	22
555.226	1	13
556.416	1	12
557.606	1	20
558.796	1	21
559.986	1	16
561.175	1	15
562.365	1	25
563.555	1	17
564.744	1	9
565.934	1	19
567.123	1	27
568.313	1	20
569.502	1	20
570.692	1	22
571.881	1	31
573.070	1	15
574.260	1	26
575.449	1	14
576.638	1	-2
577.827	1	21
579.016	1	23
580.205	1	28
581.394	1	10
582.583	1	27
583.772	1	24
584.961	1	19
586.150	1	18
587.339	1	22
588.528	1	19
589.717	1	17
590.905	1	17
592.094	1	6
593.283	1	12
594.471	1	29
595.660	1	12
596.848	1	11
598.037	1	13
599.225	1	0
600.413	1	30
601.602	1	22
602.790	1	1
603.978	1	21
605.166	1	15
606.355	1	15
607.543	1	11
608.731	1	17
609.919	1	15
611.107	1	6
612.295	1	11
613.483	1	15
614.671	1	15
615.858	1	23
617.046	1	11
618.234	1	1
619.422	1	8
620.609	1	15
621.797	1	8
622.985	1	7
624.172	1	13
625.360	1	16
626.547	1	10
627.735	1	19
628.922	1	12
630.109	1	3
631.297	1	12
632.484	1	10
633.671	1	5
634.858	1	3
636.045	1	14
637.232	1	2
638.419	1	-2
639.606	1	13
640.793	1	12
641.980	1	15
643.167	1	0
644.354	1	8
645.541	1	6
646.728	1	11
647.914	1	5
649.101	1	8
650.288	1	13
651.474	1	6
652.661	1	0
653.847	1	8
655.034	1	6
656.220	1	-4
657.406	1	15
658.593	1	13
659.779	1	11
660.965	1	14
662.152	1	11
663.338	1	14
664.524	1	10
665.710	1	9
666.896	1	-4
668.082	1	-1
669.268	1	7
670.454	1	3
671.640	1	7
672.826	1	13
674.011	1	4
675.197	1	-1
676.383	1	11
677.569	1	1
678.754	1	11
679.940	1	7
681.125	1	8
682.311	1	12
683.496	1	7
684.682	1	4
685.867	1	10
687.053	1	18
688.238	1	12
688.746	1	5