File: Data/GaN_200K_800ms/GaN_sample F_spot 12_UVVIS_200 K_200um_800 ms 2x2mm1_486.txt
340.368	1	4
341.565	1	-15
342.763	1	0
343.960	1	2
345.157	1	-12
346.354	1	-2
347.552	1	-5
348.749	1	-11
349.946	1	-4
351.143	1	1
352.340	1	2
353.537	1	1
354.734	1	4
355.931	1	2
357.127	1	-4
358.324	1	-14
359.521	1	0
360.718	1	1
361.914	1	-3
363.111	1	7
364.308	1	-2
365.504	1	7
366.701	1	4
367.897	1	3
369.093	1	0
370.290	1	10
371.486	1	6
372.682	1	9
373.879	1	-1
375.075	1	0
376.271	1	1
377.467	1	8
378.663	1	3
379.859	1	-1
381.055	1	6
382.251	1	-6
383.447	1	-9
384.643	1	9
385.839	1	0
387.035	1	-9
388.230	1	2
389.426	1	-4
390.622	1	2
391.817	1	-7
393.013	1	-5
394.208	1	0
395.404	1	-5
396.599	1	0
397.795	1	3
398.990	1	8
400.186	1	-3
401.381	1	-7
402.576	1	-7
403.771	1	1
404.967	1	1
406.162	1	5
407.357	1	-2
408.552	1	4
409.747	1	-5
410.942	1	7
412.137	1	1
413.332	1	-1
414.526	1	-8
415.721	1	10
416.916	1	0
418.111	1	-3
419.305	1	-1
420.500	1	-3
421.695	1	-7
422.889	1	-17
424.084	1	-1
425.278	1	13
426.472	1	-4
427.667	1	0
428.861	1	-5
430.055	1	-1
431.250	1	-8
432.444	1	-1
433.638	1	-10
434.832	1	-3
436.026	1	7
437.220	1	4
438.414	1	-15
439.608	1	-7
440.802	1	-4
441.996	1	-1
443.190	1	5
444.384	1	-7
445.578	1	-8
446.771	1	4
447.965	1	-4
449.159	1	-15
450.352	1	-10
451.546	1	-8
452.739	1	-6
453.933	1	-6
455.126	1	-7
456.320	1	-6
457.513	1	4
458.706	1	7
459.899	1	-9
461.093	1	-6
462.286	1	-1
463.479	1	-3
464.672	1	-4
465.865	1	2
467.058	1	-2
468.251	1	-6
469.444	1	-2
470.637	1	10
471.830	1	3
473.023	1	0
474.215	1	7
475.408	1	-1
476.601	1	-1
477.793	1	-1
478.986	1	-1
480.179	1	-2
481.371	1	1
482.564	1	1
483.756	1	8
484.948	1	-11
486.141	1	-5
487.333	1	-2
488.525	1	-1
489.718	1	-3
490.910	1	7
492.102	1	-3
493.294	1	-11
494.486	1	-1
495.678	1	6
496.870	1	1
498.062	1	3
499.254	1	6
500.446	1	-11
501.638	1	-12
502.829	1	1
504.021	1	7
505.213	1	4
506.404	1	-1
507.596	1	2
508.788	1	8
509.979	1	-4
511.171	1	-4
512.362	1	-6
513.553	1	-9
514.745	1	-9
515.936	1	-7
517.127	1	0
518.319	1	-1
519.510	1	-3
520.701	1	1
521.892	1	1
523.083	1	-1
524.274	1	-6
525.465	1	8
526.656	1	-4
527.847	1	6
529.038	1	6
530.229	1	4
531.419	1	7
532.610	1	-3
533.801	1	13
534.991	1	1
536.182	1	-5
537.373	1	10
538.563	1	0
539.754	1	10
540.944	1	-6
542.134	1	4
543.325	1	-4
544.515	1	-2
545.705	1	1
546.896	1	-4
548.086	1	-7
549.276	1	-1
550.466	1	0
551.656	1	6
552.846	1	-4
554.036	1	1
555.226	1	-1
556.416	1	-3
557.606	1	2
558.796	1	-6
559.986	1	-4
561.175	1	8
562.365	1	-6
563.555	1	-4
564.744	1	-1
565.934	1	3
567.123	1	6
568.313	1	4
569.502	1	-5
570.692	1	4
571.881	1	9
573.070	1	3
574.260	1	6
575.449	1	-2
576.638	1	-13
577.827	1	-1
579.016	1	0
580.205	1	2
581.394	1	-2
582.583	1	12
583.772	1	3
584.961	1	3
586.150	1	0
587.339	1	5
588.528	1	-3
589.717	1	-4
590.905	1	-1
592.094	1	0
593.283	1	1
594.471	1	16
595.660	1	-2
596.848	1	-1
598.037	1	-3
599.225	1	-12
600.413	1	7
601.602	1	2
602.790	1	7
603.978	1	-1
605.166	1	-3
606.355	1	0
607.543	1	6
608.731	1	-2
609.919	1	4
611.107	1	3
612.295	1	-14
613.483	1	5
614.671	1	6
615.858	1	9
617.046	1	5
618.234	1	0
619.422	1	-2
620.609	1	5
621.797	1	6
622.985	1	0
624.172	1	-8
625.360	1	4
626.547	1	-2
627.735	1	5
628.922	1	3
630.109	1	-3
631.297	1	-6
632.484	1	3
633.671	1	-4
634.858	1	-7
636.045	1	4
637.232	1	-4
638.419	1	-10
639.606	1	0
640.793	1	8
641.980	1	2
643.167	1	-3
644.354	1	2
645.541	1	5
646.728	1	-2
647.914	1	-7
649.101	1	0
650.288	1	9
651.474	1	-4
652.661	1	4
653.847	1	-1
655.034	1	-4
656.220	1	-6
657.406	1	-3
658.593	1	9
659.779	1	-2
660.965	1	12
662.152	1	6
663.338	1	7
664.524	1	2
665.710	1	0
666.896	1	-4
668.082	1	8
669.268	1	-3
670.454	1	9
671.640	1	-7
672.826	1	1
674.011	1	4
675.197	1	-12
676.383	1	11
677.569	1	-6
678.754	1	-4
679.940	1	-3
681.125	1	4
682.311	1	5
683.496	1	10
684.682	1	-4
685.867	1	-6
687.053	1	-4
688.238	1	1
688.746	1	1