File: Data/GaN_200K_800ms/GaN_sample F_spot 12_UVVIS_200 K_200um_800 ms 2x2mm1_181.txt
340.368	1	3
341.565	1	-8
342.763	1	6
343.960	1	5
345.157	1	4
346.354	1	2
347.552	1	0
348.749	1	-2
349.946	1	-7
351.143	1	-2
352.340	1	7
353.537	1	1
354.734	1	6
355.931	1	5
357.127	1	5
358.324	1	7
359.521	1	6
360.718	1	16
361.914	1	12
363.111	1	9
364.308	1	19
365.504	1	29
366.701	1	20
367.897	1	39
369.093	1	29
370.290	1	31
371.486	1	46
372.682	1	37
373.879	1	27
375.075	1	28
376.271	1	34
377.467	1	22
378.663	1	4
379.859	1	13
381.055	1	8
382.251	1	5
383.447	1	-1
384.643	1	13
385.839	1	7
387.035	1	9
388.230	1	15
389.426	1	1
390.622	1	6
391.817	1	7
393.013	1	-9
394.208	1	6
395.404	1	6
396.599	1	-5
397.795	1	9
398.990	1	11
400.186	1	-3
401.381	1	-4
402.576	1	-6
403.771	1	7
404.967	1	0
406.162	1	8
407.357	1	4
408.552	1	-7
409.747	1	2
410.942	1	8
412.137	1	8
413.332	1	5
414.526	1	2
415.721	1	-4
416.916	1	-6
418.111	1	-3
419.305	1	9
420.500	1	2
421.695	1	-2
422.889	1	-6
424.084	1	6
425.278	1	12
426.472	1	2
427.667	1	-1
428.861	1	-2
430.055	1	1
431.250	1	-2
432.444	1	11
433.638	1	-7
434.832	1	-3
436.026	1	12
437.220	1	8
438.414	1	-4
439.608	1	-11
440.802	1	-3
441.996	1	-5
443.190	1	5
444.384	1	-9
445.578	1	0
446.771	1	20
447.965	1	3
449.159	1	1
450.352	1	-8
451.546	1	-5
452.739	1	9
453.933	1	-5
455.126	1	0
456.320	1	-6
457.513	1	-2
458.706	1	3
459.899	1	-6
461.093	1	7
462.286	1	3
463.479	1	-2
464.672	1	5
465.865	1	6
467.058	1	10
468.251	1	-2
469.444	1	-4
470.637	1	2
471.830	1	-2
473.023	1	6
474.215	1	6
475.408	1	1
476.601	1	3
477.793	1	6
478.986	1	-2
480.179	1	2
481.371	1	11
482.564	1	0
483.756	1	12
484.948	1	-6
486.141	1	-3
487.333	1	9
488.525	1	11
489.718	1	-4
490.910	1	4
492.102	1	-8
493.294	1	0
494.486	1	5
495.678	1	-7
496.870	1	2
498.062	1	-3
499.254	1	4
500.446	1	-15
501.638	1	-4
502.829	1	0
504.021	1	-9
505.213	1	4
506.404	1	1
507.596	1	4
508.788	1	10
509.979	1	0
511.171	1	-2
512.362	1	6
513.553	1	-10
514.745	1	-9
515.936	1	-1
517.127	1	5
518.319	1	-5
519.510	1	1
520.701	1	10
521.892	1	0
523.083	1	7
524.274	1	0
525.465	1	1
526.656	1	11
527.847	1	2
529.038	1	3
530.229	1	7
531.419	1	5
532.610	1	2
533.801	1	7
534.991	1	1
536.182	1	-6
537.373	1	4
538.563	1	18
539.754	1	14
540.944	1	5
542.134	1	11
543.325	1	2
544.515	1	0
545.705	1	4
546.896	1	4
548.086	1	-4
549.276	1	4
550.466	1	5
551.656	1	12
552.846	1	-1
554.036	1	5
555.226	1	-1
556.416	1	7
557.606	1	9
558.796	1	1
559.986	1	0
561.175	1	3
562.365	1	9
563.555	1	5
564.744	1	5
565.934	1	9
567.123	1	3
568.313	1	8
569.502	1	-1
570.692	1	6
571.881	1	10
573.070	1	-1
574.260	1	15
575.449	1	-2
576.638	1	-4
577.827	1	2
579.016	1	9
580.205	1	0
581.394	1	-4
582.583	1	11
583.772	1	14
584.961	1	0
586.150	1	-1
587.339	1	8
588.528	1	6
589.717	1	2
590.905	1	8
592.094	1	2
593.283	1	-2
594.471	1	11
595.660	1	-6
596.848	1	6
598.037	1	9
599.225	1	-1
600.413	1	2
601.602	1	12
602.790	1	2
603.978	1	1
605.166	1	5
606.355	1	5
607.543	1	-3
608.731	1	-1
609.919	1	9
611.107	1	-1
612.295	1	-5
613.483	1	6
614.671	1	9
615.858	1	2
617.046	1	-2
618.234	1	8
619.422	1	-5
620.609	1	2
621.797	1	-8
622.985	1	10
624.172	1	8
625.360	1	-5
626.547	1	-1
627.735	1	0
628.922	1	3
630.109	1	-7
631.297	1	6
632.484	1	-4
633.671	1	6
634.858	1	0
636.045	1	11
637.232	1	-1
638.419	1	3
639.606	1	2
640.793	1	5
641.980	1	7
643.167	1	-11
644.354	1	3
645.541	1	3
646.728	1	1
647.914	1	2
649.101	1	0
650.288	1	12
651.474	1	-4
652.661	1	4
653.847	1	14
655.034	1	0
656.220	1	-19
657.406	1	1
658.593	1	10
659.779	1	-1
660.965	1	10
662.152	1	-3
663.338	1	8
664.524	1	8
665.710	1	-4
666.896	1	-5
668.082	1	-2
669.268	1	0
670.454	1	8
671.640	1	-4
672.826	1	3
674.011	1	4
675.197	1	-8
676.383	1	-2
677.569	1	-3
678.754	1	7
679.940	1	-3
681.125	1	3
682.311	1	7
683.496	1	3
684.682	1	-2
685.867	1	0
687.053	1	-4
688.238	1	3
688.746	1	2