File: Data/GaN_200K_800ms/GaN_sample F_spot 12_UVVIS_200 K_200um_800 ms 2x2mm1_199.txt
340.368	1	5
341.565	1	-11
342.763	1	5
343.960	1	0
345.157	1	1
346.354	1	-4
347.552	1	4
348.749	1	-6
349.946	1	-3
351.143	1	-1
352.340	1	3
353.537	1	9
354.734	1	10
355.931	1	4
357.127	1	3
358.324	1	6
359.521	1	7
360.718	1	9
361.914	1	12
363.111	1	16
364.308	1	13
365.504	1	22
366.701	1	23
367.897	1	24
369.093	1	19
370.290	1	39
371.486	1	29
372.682	1	31
373.879	1	22
375.075	1	18
376.271	1	26
377.467	1	11
378.663	1	5
379.859	1	1
381.055	1	10
382.251	1	5
383.447	1	4
384.643	1	14
385.839	1	6
387.035	1	-4
388.230	1	12
389.426	1	-1
390.622	1	1
391.817	1	8
393.013	1	7
394.208	1	4
395.404	1	-3
396.599	1	-2
397.795	1	7
398.990	1	4
400.186	1	-4
401.381	1	8
402.576	1	2
403.771	1	5
404.967	1	2
406.162	1	2
407.357	1	2
408.552	1	-5
409.747	1	-5
410.942	1	6
412.137	1	4
413.332	1	6
414.526	1	-3
415.721	1	-2
416.916	1	-10
418.111	1	1
419.305	1	2
420.500	1	8
421.695	1	-8
422.889	1	-6
424.084	1	4
425.278	1	6
426.472	1	5
427.667	1	4
428.861	1	2
430.055	1	2
431.250	1	-1
432.444	1	11
433.638	1	2
434.832	1	3
436.026	1	-4
437.220	1	2
438.414	1	-10
439.608	1	-12
440.802	1	3
441.996	1	-3
443.190	1	-2
444.384	1	-9
445.578	1	-10
446.771	1	19
447.965	1	0
449.159	1	-4
450.352	1	2
451.546	1	-2
452.739	1	7
453.933	1	1
455.126	1	-6
456.320	1	-1
457.513	1	2
458.706	1	-2
459.899	1	7
461.093	1	9
462.286	1	-4
463.479	1	3
464.672	1	5
465.865	1	-8
467.058	1	4
468.251	1	-1
469.444	1	-8
470.637	1	5
471.830	1	2
473.023	1	1
474.215	1	5
475.408	1	-2
476.601	1	1
477.793	1	-8
478.986	1	0
480.179	1	-1
481.371	1	2
482.564	1	3
483.756	1	11
484.948	1	3
486.141	1	4
487.333	1	-1
488.525	1	0
489.718	1	-6
490.910	1	1
492.102	1	-4
493.294	1	1
494.486	1	4
495.678	1	1
496.870	1	-3
498.062	1	-1
499.254	1	3
500.446	1	-3
501.638	1	-6
502.829	1	0
504.021	1	-3
505.213	1	-2
506.404	1	4
507.596	1	0
508.788	1	16
509.979	1	-1
511.171	1	3
512.362	1	-6
513.553	1	-17
514.745	1	3
515.936	1	0
517.127	1	-4
518.319	1	2
519.510	1	6
520.701	1	3
521.892	1	1
523.083	1	-5
524.274	1	0
525.465	1	5
526.656	1	1
527.847	1	9
529.038	1	9
530.229	1	8
531.419	1	6
532.610	1	6
533.801	1	10
534.991	1	11
536.182	1	-1
537.373	1	-5
538.563	1	11
539.754	1	10
540.944	1	3
542.134	1	2
543.325	1	6
544.515	1	-6
545.705	1	-1
546.896	1	8
548.086	1	-3
549.276	1	-4
550.466	1	4
551.656	1	11
552.846	1	2
554.036	1	0
555.226	1	-1
556.416	1	4
557.606	1	2
558.796	1	2
559.986	1	3
561.175	1	1
562.365	1	-1
563.555	1	-2
564.744	1	-4
565.934	1	7
567.123	1	6
568.313	1	9
569.502	1	2
570.692	1	2
571.881	1	14
573.070	1	4
574.260	1	11
575.449	1	-3
576.638	1	1
577.827	1	5
579.016	1	-1
580.205	1	-2
581.394	1	-2
582.583	1	11
583.772	1	11
584.961	1	3
586.150	1	0
587.339	1	7
588.528	1	3
589.717	1	9
590.905	1	-1
592.094	1	8
593.283	1	1
594.471	1	9
595.660	1	-3
596.848	1	6
598.037	1	-6
599.225	1	-15
600.413	1	13
601.602	1	11
602.790	1	5
603.978	1	4
605.166	1	12
606.355	1	5
607.543	1	1
608.731	1	-7
609.919	1	11
611.107	1	8
612.295	1	-10
613.483	1	9
614.671	1	-3
615.858	1	7
617.046	1	4
618.234	1	6
619.422	1	-7
620.609	1	9
621.797	1	3
622.985	1	2
624.172	1	-2
625.360	1	2
626.547	1	5
627.735	1	4
628.922	1	13
630.109	1	-10
631.297	1	-4
632.484	1	4
633.671	1	-4
634.858	1	-3
636.045	1	-1
637.232	1	-4
638.419	1	0
639.606	1	8
640.793	1	5
641.980	1	14
643.167	1	-6
644.354	1	0
645.541	1	4
646.728	1	-3
647.914	1	-12
649.101	1	-2
650.288	1	5
651.474	1	1
652.661	1	-1
653.847	1	11
655.034	1	4
656.220	1	-9
657.406	1	7
658.593	1	8
659.779	1	2
660.965	1	4
662.152	1	2
663.338	1	13
664.524	1	-1
665.710	1	3
666.896	1	3
668.082	1	11
669.268	1	-8
670.454	1	1
671.640	1	1
672.826	1	-3
674.011	1	-3
675.197	1	-12
676.383	1	2
677.569	1	-5
678.754	1	0
679.940	1	4
681.125	1	4
682.311	1	3
683.496	1	10
684.682	1	-5
685.867	1	8
687.053	1	1
688.238	1	14
688.746	1	-1