File: Data/GaN_200K_800ms/GaN_sample F_spot 12_UVVIS_200 K_200um_800 ms 2x2mm1_33.txt
340.368	1	4
341.565	1	-3
342.763	1	13
343.960	1	4
345.157	1	2
346.354	1	-4
347.552	1	4
348.749	1	-8
349.946	1	0
351.143	1	-2
352.340	1	1
353.537	1	9
354.734	1	-2
355.931	1	1
357.127	1	2
358.324	1	2
359.521	1	4
360.718	1	0
361.914	1	6
363.111	1	8
364.308	1	-6
365.504	1	4
366.701	1	2
367.897	1	6
369.093	1	1
370.290	1	-3
371.486	1	15
372.682	1	2
373.879	1	-5
375.075	1	0
376.271	1	-3
377.467	1	5
378.663	1	-12
379.859	1	-3
381.055	1	12
382.251	1	-3
383.447	1	-3
384.643	1	4
385.839	1	-3
387.035	1	10
388.230	1	10
389.426	1	2
390.622	1	-5
391.817	1	6
393.013	1	0
394.208	1	5
395.404	1	2
396.599	1	-5
397.795	1	5
398.990	1	2
400.186	1	0
401.381	1	-1
402.576	1	-8
403.771	1	5
404.967	1	2
406.162	1	3
407.357	1	0
408.552	1	-11
409.747	1	7
410.942	1	12
412.137	1	9
413.332	1	-3
414.526	1	-2
415.721	1	4
416.916	1	0
418.111	1	5
419.305	1	1
420.500	1	0
421.695	1	2
422.889	1	-3
424.084	1	-3
425.278	1	12
426.472	1	-3
427.667	1	6
428.861	1	-3
430.055	1	1
431.250	1	-3
432.444	1	12
433.638	1	-7
434.832	1	1
436.026	1	5
437.220	1	4
438.414	1	-5
439.608	1	-14
440.802	1	0
441.996	1	14
443.190	1	6
444.384	1	5
445.578	1	-7
446.771	1	9
447.965	1	2
449.159	1	-6
450.352	1	-5
451.546	1	1
452.739	1	4
453.933	1	-7
455.126	1	-11
456.320	1	-5
457.513	1	0
458.706	1	-2
459.899	1	-2
461.093	1	7
462.286	1	0
463.479	1	-8
464.672	1	4
465.865	1	-2
467.058	1	-9
468.251	1	-5
469.444	1	-7
470.637	1	10
471.830	1	-2
473.023	1	4
474.215	1	4
475.408	1	6
476.601	1	-1
477.793	1	5
478.986	1	1
480.179	1	-5
481.371	1	6
482.564	1	4
483.756	1	9
484.948	1	-1
486.141	1	-5
487.333	1	1
488.525	1	4
489.718	1	-1
490.910	1	4
492.102	1	6
493.294	1	-5
494.486	1	2
495.678	1	6
496.870	1	4
498.062	1	8
499.254	1	3
500.446	1	-4
501.638	1	-6
502.829	1	3
504.021	1	0
505.213	1	10
506.404	1	4
507.596	1	6
508.788	1	13
509.979	1	-2
511.171	1	-8
512.362	1	-9
513.553	1	-15
514.745	1	-4
515.936	1	3
517.127	1	0
518.319	1	5
519.510	1	6
520.701	1	-2
521.892	1	-1
523.083	1	1
524.274	1	-5
525.465	1	2
526.656	1	-6
527.847	1	1
529.038	1	3
530.229	1	4
531.419	1	-1
532.610	1	1
533.801	1	7
534.991	1	-1
536.182	1	-1
537.373	1	1
538.563	1	3
539.754	1	8
540.944	1	2
542.134	1	9
543.325	1	4
544.515	1	-5
545.705	1	0
546.896	1	-9
548.086	1	-2
549.276	1	-8
550.466	1	0
551.656	1	3
552.846	1	-4
554.036	1	4
555.226	1	-5
556.416	1	0
557.606	1	5
558.796	1	-5
559.986	1	-4
561.175	1	7
562.365	1	-5
563.555	1	-1
564.744	1	1
565.934	1	5
567.123	1	8
568.313	1	16
569.502	1	0
570.692	1	1
571.881	1	4
573.070	1	-6
574.260	1	0
575.449	1	-10
576.638	1	-1
577.827	1	-3
579.016	1	10
580.205	1	-10
581.394	1	4
582.583	1	3
583.772	1	6
584.961	1	-3
586.150	1	3
587.339	1	-1
588.528	1	8
589.717	1	-3
590.905	1	5
592.094	1	6
593.283	1	3
594.471	1	7
595.660	1	0
596.848	1	2
598.037	1	6
599.225	1	-8
600.413	1	10
601.602	1	12
602.790	1	-4
603.978	1	0
605.166	1	3
606.355	1	3
607.543	1	-2
608.731	1	3
609.919	1	9
611.107	1	-3
612.295	1	7
613.483	1	5
614.671	1	4
615.858	1	1
617.046	1	7
618.234	1	-3
619.422	1	-5
620.609	1	4
621.797	1	1
622.985	1	7
624.172	1	9
625.360	1	4
626.547	1	6
627.735	1	3
628.922	1	1
630.109	1	-5
631.297	1	1
632.484	1	1
633.671	1	-3
634.858	1	-10
636.045	1	18
637.232	1	-1
638.419	1	-1
639.606	1	3
640.793	1	19
641.980	1	4
643.167	1	-8
644.354	1	2
645.541	1	3
646.728	1	1
647.914	1	5
649.101	1	-4
650.288	1	8
651.474	1	-3
652.661	1	-10
653.847	1	12
655.034	1	-1
656.220	1	-6
657.406	1	2
658.593	1	11
659.779	1	4
660.965	1	6
662.152	1	0
663.338	1	13
664.524	1	7
665.710	1	-1
666.896	1	-5
668.082	1	6
669.268	1	-8
670.454	1	0
671.640	1	3
672.826	1	-2
674.011	1	1
675.197	1	-8
676.383	1	-1
677.569	1	-5
678.754	1	-11
679.940	1	1
681.125	1	1
682.311	1	14
683.496	1	7
684.682	1	-4
685.867	1	-3
687.053	1	6
688.238	1	2
688.746	1	3