File: Data/GaN_200K_800ms/GaN_sample F_spot 12_UVVIS_200 K_200um_800 ms 2x2mm1_542.txt
340.368	1	-2
341.565	1	-5
342.763	1	-7
343.960	1	-2
345.157	1	0
346.354	1	-2
347.552	1	5
348.749	1	-3
349.946	1	-10
351.143	1	-2
352.340	1	-2
353.537	1	-1
354.734	1	10
355.931	1	-6
357.127	1	3
358.324	1	1
359.521	1	4
360.718	1	-6
361.914	1	2
363.111	1	-3
364.308	1	0
365.504	1	3
366.701	1	0
367.897	1	7
369.093	1	-6
370.290	1	13
371.486	1	18
372.682	1	15
373.879	1	-3
375.075	1	-3
376.271	1	9
377.467	1	-2
378.663	1	-4
379.859	1	7
381.055	1	8
382.251	1	-15
383.447	1	-4
384.643	1	9
385.839	1	-2
387.035	1	-1
388.230	1	5
389.426	1	1
390.622	1	-4
391.817	1	3
393.013	1	-11
394.208	1	1
395.404	1	-13
396.599	1	-7
397.795	1	-2
398.990	1	3
400.186	1	-4
401.381	1	-7
402.576	1	6
403.771	1	0
404.967	1	3
406.162	1	14
407.357	1	-5
408.552	1	-7
409.747	1	-7
410.942	1	5
412.137	1	15
413.332	1	-2
414.526	1	0
415.721	1	0
416.916	1	-7
418.111	1	-2
419.305	1	3
420.500	1	-1
421.695	1	-6
422.889	1	-9
424.084	1	4
425.278	1	18
426.472	1	-1
427.667	1	-1
428.861	1	1
430.055	1	0
431.250	1	-2
432.444	1	0
433.638	1	-1
434.832	1	-6
436.026	1	1
437.220	1	-6
438.414	1	-8
439.608	1	-9
440.802	1	-7
441.996	1	6
443.190	1	-5
444.384	1	-13
445.578	1	-5
446.771	1	14
447.965	1	-4
449.159	1	-9
450.352	1	0
451.546	1	-2
452.739	1	-2
453.933	1	-4
455.126	1	-4
456.320	1	2
457.513	1	9
458.706	1	4
459.899	1	11
461.093	1	3
462.286	1	-7
463.479	1	-6
464.672	1	1
465.865	1	1
467.058	1	-6
468.251	1	1
469.444	1	0
470.637	1	2
471.830	1	-2
473.023	1	4
474.215	1	5
475.408	1	0
476.601	1	-4
477.793	1	-9
478.986	1	-9
480.179	1	-7
481.371	1	-1
482.564	1	-5
483.756	1	-7
484.948	1	-6
486.141	1	-7
487.333	1	2
488.525	1	-3
489.718	1	3
490.910	1	-2
492.102	1	-6
493.294	1	-12
494.486	1	6
495.678	1	4
496.870	1	7
498.062	1	4
499.254	1	1
500.446	1	-8
501.638	1	-4
502.829	1	-4
504.021	1	4
505.213	1	-7
506.404	1	1
507.596	1	-1
508.788	1	11
509.979	1	-2
511.171	1	-11
512.362	1	-2
513.553	1	-19
514.745	1	-4
515.936	1	-4
517.127	1	3
518.319	1	-5
519.510	1	1
520.701	1	0
521.892	1	-3
523.083	1	-10
524.274	1	-9
525.465	1	12
526.656	1	-5
527.847	1	3
529.038	1	1
530.229	1	-4
531.419	1	14
532.610	1	-4
533.801	1	5
534.991	1	1
536.182	1	0
537.373	1	4
538.563	1	1
539.754	1	-4
540.944	1	-3
542.134	1	2
543.325	1	-4
544.515	1	-3
545.705	1	-8
546.896	1	-2
548.086	1	4
549.276	1	0
550.466	1	-4
551.656	1	11
552.846	1	6
554.036	1	0
555.226	1	-14
556.416	1	1
557.606	1	-3
558.796	1	4
559.986	1	-11
561.175	1	3
562.365	1	-4
563.555	1	-10
564.744	1	3
565.934	1	9
567.123	1	2
568.313	1	1
569.502	1	-12
570.692	1	3
571.881	1	5
573.070	1	-7
574.260	1	13
575.449	1	-3
576.638	1	-14
577.827	1	-7
579.016	1	10
580.205	1	-4
581.394	1	0
582.583	1	0
583.772	1	4
584.961	1	5
586.150	1	4
587.339	1	8
588.528	1	2
589.717	1	2
590.905	1	4
592.094	1	0
593.283	1	3
594.471	1	9
595.660	1	-7
596.848	1	-3
598.037	1	-2
599.225	1	-10
600.413	1	9
601.602	1	3
602.790	1	-7
603.978	1	4
605.166	1	4
606.355	1	2
607.543	1	-1
608.731	1	3
609.919	1	2
611.107	1	-9
612.295	1	-4
613.483	1	3
614.671	1	2
615.858	1	-3
617.046	1	7
618.234	1	-2
619.422	1	-9
620.609	1	7
621.797	1	-4
622.985	1	-2
624.172	1	-1
625.360	1	1
626.547	1	-5
627.735	1	3
628.922	1	-8
630.109	1	-16
631.297	1	-5
632.484	1	-12
633.671	1	-7
634.858	1	-2
636.045	1	14
637.232	1	-7
638.419	1	-4
639.606	1	2
640.793	1	0
641.980	1	3
643.167	1	0
644.354	1	1
645.541	1	-5
646.728	1	3
647.914	1	5
649.101	1	-2
650.288	1	9
651.474	1	-18
652.661	1	-5
653.847	1	7
655.034	1	0
656.220	1	-18
657.406	1	10
658.593	1	8
659.779	1	4
660.965	1	2
662.152	1	-5
663.338	1	11
664.524	1	3
665.710	1	-3
666.896	1	-10
668.082	1	6
669.268	1	-3
670.454	1	5
671.640	1	3
672.826	1	1
674.011	1	-6
675.197	1	-7
676.383	1	-3
677.569	1	8
678.754	1	-9
679.940	1	-8
681.125	1	11
682.311	1	6
683.496	1	1
684.682	1	-10
685.867	1	-1
687.053	1	-1
688.238	1	5
688.746	1	4