File: Data/GaN_200K_800ms/GaN_sample F_spot 12_UVVIS_200 K_200um_800 ms 2x2mm1_105.txt
340.368	1	7
341.565	1	-4
342.763	1	11
343.960	1	4
345.157	1	-9
346.354	1	4
347.552	1	7
348.749	1	4
349.946	1	-6
351.143	1	3
352.340	1	4
353.537	1	3
354.734	1	10
355.931	1	0
357.127	1	7
358.324	1	17
359.521	1	19
360.718	1	16
361.914	1	37
363.111	1	27
364.308	1	37
365.504	1	57
366.701	1	61
367.897	1	74
369.093	1	79
370.290	1	82
371.486	1	89
372.682	1	80
373.879	1	64
375.075	1	55
376.271	1	50
377.467	1	43
378.663	1	26
379.859	1	38
381.055	1	37
382.251	1	19
383.447	1	27
384.643	1	22
385.839	1	10
387.035	1	17
388.230	1	23
389.426	1	9
390.622	1	3
391.817	1	16
393.013	1	7
394.208	1	7
395.404	1	7
396.599	1	2
397.795	1	4
398.990	1	8
400.186	1	10
401.381	1	0
402.576	1	0
403.771	1	5
404.967	1	8
406.162	1	10
407.357	1	5
408.552	1	1
409.747	1	-2
410.942	1	7
412.137	1	13
413.332	1	9
414.526	1	-3
415.721	1	5
416.916	1	-2
418.111	1	8
419.305	1	1
420.500	1	-1
421.695	1	7
422.889	1	2
424.084	1	10
425.278	1	14
426.472	1	13
427.667	1	10
428.861	1	-2
430.055	1	3
431.250	1	0
432.444	1	9
433.638	1	4
434.832	1	9
436.026	1	14
437.220	1	5
438.414	1	-10
439.608	1	3
440.802	1	-3
441.996	1	14
443.190	1	2
444.384	1	-5
445.578	1	-3
446.771	1	2
447.965	1	8
449.159	1	-5
450.352	1	9
451.546	1	5
452.739	1	11
453.933	1	0
455.126	1	-6
456.320	1	-3
457.513	1	4
458.706	1	-3
459.899	1	4
461.093	1	5
462.286	1	3
463.479	1	7
464.672	1	7
465.865	1	-2
467.058	1	-2
468.251	1	2
469.444	1	0
470.637	1	4
471.830	1	-3
473.023	1	8
474.215	1	5
475.408	1	1
476.601	1	8
477.793	1	0
478.986	1	2
480.179	1	6
481.371	1	5
482.564	1	5
483.756	1	5
484.948	1	-2
486.141	1	-2
487.333	1	4
488.525	1	3
489.718	1	3
490.910	1	8
492.102	1	-2
493.294	1	4
494.486	1	3
495.678	1	5
496.870	1	2
498.062	1	3
499.254	1	3
500.446	1	2
501.638	1	0
502.829	1	5
504.021	1	2
505.213	1	10
506.404	1	8
507.596	1	2
508.788	1	11
509.979	1	7
511.171	1	3
512.362	1	3
513.553	1	-12
514.745	1	4
515.936	1	10
517.127	1	4
518.319	1	10
519.510	1	13
520.701	1	8
521.892	1	6
523.083	1	9
524.274	1	9
525.465	1	8
526.656	1	14
527.847	1	9
529.038	1	5
530.229	1	18
531.419	1	8
532.610	1	9
533.801	1	19
534.991	1	6
536.182	1	4
537.373	1	6
538.563	1	13
539.754	1	9
540.944	1	8
542.134	1	8
543.325	1	13
544.515	1	9
545.705	1	12
546.896	1	7
548.086	1	9
549.276	1	10
550.466	1	13
551.656	1	17
552.846	1	12
554.036	1	18
555.226	1	9
556.416	1	9
557.606	1	12
558.796	1	7
559.986	1	11
561.175	1	5
562.365	1	15
563.555	1	8
564.744	1	17
565.934	1	14
567.123	1	14
568.313	1	22
569.502	1	4
570.692	1	10
571.881	1	20
573.070	1	14
574.260	1	18
575.449	1	8
576.638	1	2
577.827	1	9
579.016	1	18
580.205	1	11
581.394	1	9
582.583	1	19
583.772	1	19
584.961	1	17
586.150	1	18
587.339	1	16
588.528	1	13
589.717	1	10
590.905	1	8
592.094	1	11
593.283	1	12
594.471	1	18
595.660	1	0
596.848	1	12
598.037	1	4
599.225	1	3
600.413	1	26
601.602	1	12
602.790	1	13
603.978	1	5
605.166	1	13
606.355	1	14
607.543	1	10
608.731	1	7
609.919	1	11
611.107	1	7
612.295	1	4
613.483	1	2
614.671	1	10
615.858	1	8
617.046	1	4
618.234	1	3
619.422	1	-3
620.609	1	15
621.797	1	-1
622.985	1	10
624.172	1	10
625.360	1	2
626.547	1	10
627.735	1	13
628.922	1	7
630.109	1	-9
631.297	1	1
632.484	1	10
633.671	1	-2
634.858	1	2
636.045	1	18
637.232	1	-8
638.419	1	10
639.606	1	4
640.793	1	17
641.980	1	16
643.167	1	-5
644.354	1	11
645.541	1	-2
646.728	1	5
647.914	1	7
649.101	1	-1
650.288	1	13
651.474	1	-7
652.661	1	5
653.847	1	11
655.034	1	9
656.220	1	4
657.406	1	11
658.593	1	7
659.779	1	1
660.965	1	8
662.152	1	10
663.338	1	5
664.524	1	0
665.710	1	8
666.896	1	3
668.082	1	-4
669.268	1	4
670.454	1	9
671.640	1	13
672.826	1	11
674.011	1	7
675.197	1	-4
676.383	1	4
677.569	1	4
678.754	1	1
679.940	1	1
681.125	1	15
682.311	1	8
683.496	1	10
684.682	1	-6
685.867	1	2
687.053	1	3
688.238	1	6
688.746	1	3