File: Data/GaN_200K_800ms/GaN_sample F_spot 12_UVVIS_200 K_200um_800 ms 2x2mm1_449.txt
340.368	1	2
341.565	1	-17
342.763	1	4
343.960	1	-2
345.157	1	2
346.354	1	0
347.552	1	-5
348.749	1	-4
349.946	1	-10
351.143	1	-3
352.340	1	3
353.537	1	3
354.734	1	10
355.931	1	-1
357.127	1	1
358.324	1	-5
359.521	1	3
360.718	1	7
361.914	1	11
363.111	1	4
364.308	1	3
365.504	1	11
366.701	1	2
367.897	1	2
369.093	1	5
370.290	1	1
371.486	1	10
372.682	1	2
373.879	1	-1
375.075	1	3
376.271	1	1
377.467	1	2
378.663	1	2
379.859	1	-1
381.055	1	17
382.251	1	-6
383.447	1	-7
384.643	1	14
385.839	1	10
387.035	1	-2
388.230	1	5
389.426	1	1
390.622	1	-1
391.817	1	9
393.013	1	3
394.208	1	3
395.404	1	-5
396.599	1	-3
397.795	1	1
398.990	1	-3
400.186	1	13
401.381	1	-10
402.576	1	-6
403.771	1	3
404.967	1	8
406.162	1	4
407.357	1	1
408.552	1	-9
409.747	1	3
410.942	1	6
412.137	1	6
413.332	1	5
414.526	1	-3
415.721	1	4
416.916	1	-2
418.111	1	1
419.305	1	5
420.500	1	-5
421.695	1	-5
422.889	1	-7
424.084	1	-7
425.278	1	11
426.472	1	-4
427.667	1	0
428.861	1	-5
430.055	1	3
431.250	1	0
432.444	1	2
433.638	1	-8
434.832	1	7
436.026	1	9
437.220	1	5
438.414	1	-11
439.608	1	-10
440.802	1	-5
441.996	1	3
443.190	1	1
444.384	1	-16
445.578	1	-16
446.771	1	17
447.965	1	-6
449.159	1	-4
450.352	1	0
451.546	1	0
452.739	1	2
453.933	1	-7
455.126	1	-6
456.320	1	-1
457.513	1	11
458.706	1	-1
459.899	1	-1
461.093	1	-6
462.286	1	-2
463.479	1	-5
464.672	1	-3
465.865	1	-3
467.058	1	-1
468.251	1	3
469.444	1	-9
470.637	1	1
471.830	1	2
473.023	1	3
474.215	1	-3
475.408	1	1
476.601	1	2
477.793	1	-7
478.986	1	-7
480.179	1	-4
481.371	1	-1
482.564	1	-3
483.756	1	-5
484.948	1	-7
486.141	1	-3
487.333	1	7
488.525	1	-5
489.718	1	3
490.910	1	-13
492.102	1	-6
493.294	1	-6
494.486	1	2
495.678	1	3
496.870	1	7
498.062	1	-7
499.254	1	-5
500.446	1	-9
501.638	1	-2
502.829	1	-11
504.021	1	2
505.213	1	0
506.404	1	2
507.596	1	-1
508.788	1	1
509.979	1	-5
511.171	1	-6
512.362	1	1
513.553	1	-12
514.745	1	-9
515.936	1	-4
517.127	1	4
518.319	1	-3
519.510	1	2
520.701	1	7
521.892	1	0
523.083	1	-4
524.274	1	-1
525.465	1	8
526.656	1	-8
527.847	1	-5
529.038	1	1
530.229	1	9
531.419	1	5
532.610	1	-8
533.801	1	9
534.991	1	-1
536.182	1	-2
537.373	1	1
538.563	1	7
539.754	1	3
540.944	1	-2
542.134	1	2
543.325	1	-5
544.515	1	-2
545.705	1	-2
546.896	1	1
548.086	1	-2
549.276	1	-4
550.466	1	1
551.656	1	-2
552.846	1	-9
554.036	1	3
555.226	1	-8
556.416	1	-7
557.606	1	1
558.796	1	2
559.986	1	-1
561.175	1	4
562.365	1	-3
563.555	1	-1
564.744	1	-1
565.934	1	0
567.123	1	14
568.313	1	9
569.502	1	-8
570.692	1	3
571.881	1	3
573.070	1	-3
574.260	1	4
575.449	1	-4
576.638	1	-8
577.827	1	-8
579.016	1	12
580.205	1	-7
581.394	1	-3
582.583	1	2
583.772	1	4
584.961	1	5
586.150	1	-8
587.339	1	6
588.528	1	-7
589.717	1	2
590.905	1	-8
592.094	1	-4
593.283	1	0
594.471	1	9
595.660	1	-1
596.848	1	6
598.037	1	-1
599.225	1	-10
600.413	1	3
601.602	1	9
602.790	1	-7
603.978	1	-2
605.166	1	-1
606.355	1	-1
607.543	1	-7
608.731	1	1
609.919	1	13
611.107	1	3
612.295	1	-10
613.483	1	3
614.671	1	3
615.858	1	-2
617.046	1	3
618.234	1	-8
619.422	1	-7
620.609	1	0
621.797	1	-5
622.985	1	0
624.172	1	-1
625.360	1	5
626.547	1	4
627.735	1	-5
628.922	1	3
630.109	1	-7
631.297	1	-9
632.484	1	1
633.671	1	0
634.858	1	-1
636.045	1	5
637.232	1	-6
638.419	1	-2
639.606	1	-2
640.793	1	4
641.980	1	2
643.167	1	-2
644.354	1	1
645.541	1	1
646.728	1	6
647.914	1	-4
649.101	1	-3
650.288	1	-2
651.474	1	-3
652.661	1	-3
653.847	1	2
655.034	1	0
656.220	1	-11
657.406	1	1
658.593	1	6
659.779	1	3
660.965	1	5
662.152	1	2
663.338	1	-2
664.524	1	-2
665.710	1	0
666.896	1	-4
668.082	1	-9
669.268	1	-8
670.454	1	1
671.640	1	4
672.826	1	-4
674.011	1	1
675.197	1	-5
676.383	1	7
677.569	1	-2
678.754	1	-6
679.940	1	0
681.125	1	5
682.311	1	-4
683.496	1	2
684.682	1	-5
685.867	1	-7
687.053	1	9
688.238	1	5
688.746	1	-4