File: Data/GaN_200K_800ms/GaN_sample F_spot 12_UVVIS_200 K_200um_800 ms 2x2mm1_71.txt
340.368	1	3
341.565	1	1
342.763	1	7
343.960	1	6
345.157	1	1
346.354	1	5
347.552	1	4
348.749	1	-9
349.946	1	9
351.143	1	2
352.340	1	15
353.537	1	13
354.734	1	15
355.931	1	12
357.127	1	16
358.324	1	29
359.521	1	32
360.718	1	36
361.914	1	41
363.111	1	53
364.308	1	82
365.504	1	97
366.701	1	141
367.897	1	175
369.093	1	170
370.290	1	198
371.486	1	178
372.682	1	150
373.879	1	119
375.075	1	96
376.271	1	91
377.467	1	83
378.663	1	63
379.859	1	61
381.055	1	59
382.251	1	40
383.447	1	36
384.643	1	45
385.839	1	27
387.035	1	35
388.230	1	28
389.426	1	17
390.622	1	26
391.817	1	13
393.013	1	17
394.208	1	12
395.404	1	-8
396.599	1	5
397.795	1	9
398.990	1	14
400.186	1	5
401.381	1	12
402.576	1	6
403.771	1	9
404.967	1	9
406.162	1	13
407.357	1	8
408.552	1	7
409.747	1	-6
410.942	1	14
412.137	1	13
413.332	1	0
414.526	1	2
415.721	1	10
416.916	1	-1
418.111	1	11
419.305	1	2
420.500	1	1
421.695	1	-1
422.889	1	-3
424.084	1	4
425.278	1	15
426.472	1	-3
427.667	1	10
428.861	1	4
430.055	1	4
431.250	1	-4
432.444	1	3
433.638	1	-1
434.832	1	3
436.026	1	5
437.220	1	6
438.414	1	4
439.608	1	-5
440.802	1	-5
441.996	1	8
443.190	1	6
444.384	1	-3
445.578	1	-9
446.771	1	9
447.965	1	-4
449.159	1	-6
450.352	1	-4
451.546	1	0
452.739	1	6
453.933	1	-2
455.126	1	-9
456.320	1	0
457.513	1	13
458.706	1	3
459.899	1	4
461.093	1	0
462.286	1	-2
463.479	1	-2
464.672	1	6
465.865	1	6
467.058	1	7
468.251	1	-2
469.444	1	-8
470.637	1	8
471.830	1	-2
473.023	1	6
474.215	1	9
475.408	1	3
476.601	1	-4
477.793	1	3
478.986	1	0
480.179	1	6
481.371	1	7
482.564	1	3
483.756	1	7
484.948	1	-6
486.141	1	1
487.333	1	7
488.525	1	7
489.718	1	10
490.910	1	9
492.102	1	4
493.294	1	2
494.486	1	12
495.678	1	8
496.870	1	15
498.062	1	1
499.254	1	2
500.446	1	5
501.638	1	14
502.829	1	-1
504.021	1	9
505.213	1	12
506.404	1	17
507.596	1	12
508.788	1	30
509.979	1	6
511.171	1	12
512.362	1	4
513.553	1	-2
514.745	1	13
515.936	1	11
517.127	1	6
518.319	1	22
519.510	1	8
520.701	1	13
521.892	1	14
523.083	1	15
524.274	1	13
525.465	1	25
526.656	1	16
527.847	1	18
529.038	1	18
530.229	1	18
531.419	1	23
532.610	1	10
533.801	1	39
534.991	1	17
536.182	1	15
537.373	1	22
538.563	1	26
539.754	1	27
540.944	1	14
542.134	1	18
543.325	1	20
544.515	1	10
545.705	1	17
546.896	1	14
548.086	1	16
549.276	1	14
550.466	1	25
551.656	1	22
552.846	1	19
554.036	1	20
555.226	1	11
556.416	1	11
557.606	1	25
558.796	1	19
559.986	1	15
561.175	1	26
562.365	1	21
563.555	1	21
564.744	1	21
565.934	1	34
567.123	1	22
568.313	1	16
569.502	1	16
570.692	1	22
571.881	1	36
573.070	1	20
574.260	1	36
575.449	1	23
576.638	1	7
577.827	1	11
579.016	1	30
580.205	1	13
581.394	1	16
582.583	1	33
583.772	1	27
584.961	1	19
586.150	1	14
587.339	1	26
588.528	1	12
589.717	1	16
590.905	1	15
592.094	1	16
593.283	1	12
594.471	1	29
595.660	1	17
596.848	1	12
598.037	1	13
599.225	1	7
600.413	1	21
601.602	1	26
602.790	1	18
603.978	1	14
605.166	1	14
606.355	1	20
607.543	1	1
608.731	1	17
609.919	1	23
611.107	1	18
612.295	1	22
613.483	1	21
614.671	1	20
615.858	1	8
617.046	1	9
618.234	1	3
619.422	1	6
620.609	1	13
621.797	1	11
622.985	1	9
624.172	1	15
625.360	1	9
626.547	1	14
627.735	1	20
628.922	1	17
630.109	1	1
631.297	1	5
632.484	1	4
633.671	1	5
634.858	1	7
636.045	1	18
637.232	1	-2
638.419	1	7
639.606	1	7
640.793	1	16
641.980	1	5
643.167	1	4
644.354	1	11
645.541	1	12
646.728	1	6
647.914	1	7
649.101	1	7
650.288	1	21
651.474	1	10
652.661	1	7
653.847	1	5
655.034	1	10
656.220	1	7
657.406	1	8
658.593	1	13
659.779	1	7
660.965	1	14
662.152	1	7
663.338	1	18
664.524	1	10
665.710	1	4
666.896	1	-1
668.082	1	11
669.268	1	-1
670.454	1	2
671.640	1	10
672.826	1	2
674.011	1	9
675.197	1	-2
676.383	1	16
677.569	1	10
678.754	1	9
679.940	1	7
681.125	1	9
682.311	1	16
683.496	1	16
684.682	1	6
685.867	1	6
687.053	1	11
688.238	1	13
688.746	1	9