File: Data/GaN_200K_800ms/GaN_sample F_spot 12_UVVIS_200 K_200um_800 ms 2x2mm1_62.txt
340.368	1	7
341.565	1	2
342.763	1	5
343.960	1	10
345.157	1	9
346.354	1	-2
347.552	1	9
348.749	1	-1
349.946	1	4
351.143	1	5
352.340	1	12
353.537	1	19
354.734	1	9
355.931	1	13
357.127	1	21
358.324	1	19
359.521	1	44
360.718	1	43
361.914	1	65
363.111	1	78
364.308	1	93
365.504	1	152
366.701	1	197
367.897	1	241
369.093	1	254
370.290	1	262
371.486	1	239
372.682	1	207
373.879	1	172
375.075	1	141
376.271	1	122
377.467	1	102
378.663	1	91
379.859	1	68
381.055	1	71
382.251	1	38
383.447	1	51
384.643	1	66
385.839	1	35
387.035	1	38
388.230	1	42
389.426	1	29
390.622	1	16
391.817	1	34
393.013	1	21
394.208	1	11
395.404	1	8
396.599	1	18
397.795	1	12
398.990	1	15
400.186	1	2
401.381	1	2
402.576	1	13
403.771	1	7
404.967	1	10
406.162	1	15
407.357	1	8
408.552	1	8
409.747	1	6
410.942	1	19
412.137	1	12
413.332	1	10
414.526	1	6
415.721	1	4
416.916	1	-1
418.111	1	11
419.305	1	6
420.500	1	-10
421.695	1	-1
422.889	1	2
424.084	1	11
425.278	1	14
426.472	1	1
427.667	1	7
428.861	1	1
430.055	1	4
431.250	1	5
432.444	1	10
433.638	1	-5
434.832	1	13
436.026	1	6
437.220	1	4
438.414	1	-3
439.608	1	-1
440.802	1	-3
441.996	1	4
443.190	1	4
444.384	1	-4
445.578	1	-12
446.771	1	13
447.965	1	5
449.159	1	-5
450.352	1	2
451.546	1	4
452.739	1	5
453.933	1	-5
455.126	1	-4
456.320	1	-1
457.513	1	10
458.706	1	6
459.899	1	2
461.093	1	5
462.286	1	8
463.479	1	-12
464.672	1	-4
465.865	1	5
467.058	1	5
468.251	1	0
469.444	1	0
470.637	1	1
471.830	1	-7
473.023	1	7
474.215	1	14
475.408	1	6
476.601	1	-2
477.793	1	11
478.986	1	3
480.179	1	5
481.371	1	9
482.564	1	1
483.756	1	11
484.948	1	-12
486.141	1	7
487.333	1	4
488.525	1	7
489.718	1	5
490.910	1	6
492.102	1	-3
493.294	1	0
494.486	1	12
495.678	1	13
496.870	1	6
498.062	1	9
499.254	1	7
500.446	1	8
501.638	1	9
502.829	1	12
504.021	1	16
505.213	1	20
506.404	1	11
507.596	1	17
508.788	1	29
509.979	1	22
511.171	1	14
512.362	1	5
513.553	1	3
514.745	1	13
515.936	1	19
517.127	1	10
518.319	1	15
519.510	1	15
520.701	1	12
521.892	1	22
523.083	1	13
524.274	1	17
525.465	1	16
526.656	1	13
527.847	1	25
529.038	1	15
530.229	1	30
531.419	1	18
532.610	1	11
533.801	1	40
534.991	1	23
536.182	1	26
537.373	1	19
538.563	1	27
539.754	1	22
540.944	1	25
542.134	1	27
543.325	1	11
544.515	1	16
545.705	1	22
546.896	1	20
548.086	1	25
549.276	1	24
550.466	1	31
551.656	1	34
552.846	1	36
554.036	1	28
555.226	1	13
556.416	1	25
557.606	1	29
558.796	1	29
559.986	1	27
561.175	1	30
562.365	1	24
563.555	1	25
564.744	1	27
565.934	1	22
567.123	1	33
568.313	1	23
569.502	1	22
570.692	1	36
571.881	1	28
573.070	1	23
574.260	1	21
575.449	1	16
576.638	1	17
577.827	1	15
579.016	1	25
580.205	1	24
581.394	1	23
582.583	1	30
583.772	1	22
584.961	1	25
586.150	1	26
587.339	1	26
588.528	1	25
589.717	1	24
590.905	1	20
592.094	1	18
593.283	1	35
594.471	1	28
595.660	1	23
596.848	1	10
598.037	1	7
599.225	1	3
600.413	1	14
601.602	1	30
602.790	1	19
603.978	1	13
605.166	1	23
606.355	1	27
607.543	1	11
608.731	1	20
609.919	1	23
611.107	1	22
612.295	1	7
613.483	1	20
614.671	1	27
615.858	1	11
617.046	1	16
618.234	1	8
619.422	1	4
620.609	1	16
621.797	1	10
622.985	1	12
624.172	1	7
625.360	1	13
626.547	1	9
627.735	1	16
628.922	1	15
630.109	1	11
631.297	1	10
632.484	1	12
633.671	1	13
634.858	1	6
636.045	1	22
637.232	1	8
638.419	1	3
639.606	1	14
640.793	1	15
641.980	1	18
643.167	1	9
644.354	1	8
645.541	1	-3
646.728	1	9
647.914	1	4
649.101	1	-6
650.288	1	21
651.474	1	12
652.661	1	6
653.847	1	15
655.034	1	15
656.220	1	3
657.406	1	10
658.593	1	14
659.779	1	8
660.965	1	23
662.152	1	15
663.338	1	8
664.524	1	11
665.710	1	5
666.896	1	2
668.082	1	6
669.268	1	9
670.454	1	16
671.640	1	9
672.826	1	13
674.011	1	9
675.197	1	-1
676.383	1	7
677.569	1	9
678.754	1	3
679.940	1	7
681.125	1	13
682.311	1	10
683.496	1	13
684.682	1	5
685.867	1	1
687.053	1	6
688.238	1	13
688.746	1	11