File: Data/GaN_200K_800ms/GaN_sample F_spot 12_UVVIS_200 K_200um_800 ms 2x2mm1_146.txt
340.368	1	2
341.565	1	-13
342.763	1	6
343.960	1	7
345.157	1	-4
346.354	1	5
347.552	1	-2
348.749	1	-6
349.946	1	-4
351.143	1	8
352.340	1	3
353.537	1	-2
354.734	1	7
355.931	1	0
357.127	1	10
358.324	1	12
359.521	1	11
360.718	1	8
361.914	1	20
363.111	1	8
364.308	1	22
365.504	1	33
366.701	1	40
367.897	1	50
369.093	1	44
370.290	1	51
371.486	1	48
372.682	1	46
373.879	1	30
375.075	1	28
376.271	1	30
377.467	1	24
378.663	1	16
379.859	1	17
381.055	1	21
382.251	1	8
383.447	1	2
384.643	1	12
385.839	1	-1
387.035	1	11
388.230	1	11
389.426	1	5
390.622	1	2
391.817	1	10
393.013	1	4
394.208	1	5
395.404	1	-4
396.599	1	0
397.795	1	12
398.990	1	2
400.186	1	-2
401.381	1	1
402.576	1	2
403.771	1	12
404.967	1	3
406.162	1	5
407.357	1	-5
408.552	1	0
409.747	1	-2
410.942	1	4
412.137	1	6
413.332	1	11
414.526	1	-8
415.721	1	1
416.916	1	-3
418.111	1	-1
419.305	1	2
420.500	1	2
421.695	1	-6
422.889	1	-6
424.084	1	2
425.278	1	10
426.472	1	0
427.667	1	4
428.861	1	-5
430.055	1	10
431.250	1	4
432.444	1	0
433.638	1	-4
434.832	1	-3
436.026	1	4
437.220	1	3
438.414	1	-7
439.608	1	-6
440.802	1	-5
441.996	1	5
443.190	1	2
444.384	1	-6
445.578	1	-6
446.771	1	10
447.965	1	2
449.159	1	-6
450.352	1	4
451.546	1	3
452.739	1	7
453.933	1	-4
455.126	1	-6
456.320	1	-1
457.513	1	7
458.706	1	-2
459.899	1	2
461.093	1	1
462.286	1	-8
463.479	1	-2
464.672	1	-5
465.865	1	-3
467.058	1	5
468.251	1	-3
469.444	1	-8
470.637	1	6
471.830	1	-1
473.023	1	-1
474.215	1	16
475.408	1	-7
476.601	1	0
477.793	1	-1
478.986	1	-6
480.179	1	4
481.371	1	9
482.564	1	1
483.756	1	8
484.948	1	-1
486.141	1	3
487.333	1	0
488.525	1	5
489.718	1	0
490.910	1	0
492.102	1	1
493.294	1	-2
494.486	1	9
495.678	1	8
496.870	1	5
498.062	1	2
499.254	1	1
500.446	1	-1
501.638	1	-1
502.829	1	0
504.021	1	4
505.213	1	6
506.404	1	-1
507.596	1	10
508.788	1	10
509.979	1	-7
511.171	1	2
512.362	1	-7
513.553	1	-8
514.745	1	3
515.936	1	6
517.127	1	2
518.319	1	6
519.510	1	6
520.701	1	9
521.892	1	5
523.083	1	-1
524.274	1	4
525.465	1	10
526.656	1	-2
527.847	1	7
529.038	1	7
530.229	1	3
531.419	1	8
532.610	1	0
533.801	1	16
534.991	1	10
536.182	1	4
537.373	1	6
538.563	1	9
539.754	1	8
540.944	1	2
542.134	1	8
543.325	1	3
544.515	1	-3
545.705	1	-5
546.896	1	-1
548.086	1	4
549.276	1	-2
550.466	1	13
551.656	1	3
552.846	1	4
554.036	1	3
555.226	1	-3
556.416	1	4
557.606	1	12
558.796	1	10
559.986	1	3
561.175	1	6
562.365	1	5
563.555	1	11
564.744	1	14
565.934	1	18
567.123	1	7
568.313	1	11
569.502	1	5
570.692	1	4
571.881	1	19
573.070	1	3
574.260	1	11
575.449	1	7
576.638	1	1
577.827	1	2
579.016	1	8
580.205	1	1
581.394	1	4
582.583	1	16
583.772	1	14
584.961	1	7
586.150	1	4
587.339	1	14
588.528	1	7
589.717	1	0
590.905	1	7
592.094	1	4
593.283	1	5
594.471	1	11
595.660	1	11
596.848	1	7
598.037	1	0
599.225	1	-1
600.413	1	9
601.602	1	8
602.790	1	3
603.978	1	0
605.166	1	11
606.355	1	7
607.543	1	-5
608.731	1	3
609.919	1	14
611.107	1	0
612.295	1	-3
613.483	1	8
614.671	1	4
615.858	1	0
617.046	1	5
618.234	1	10
619.422	1	1
620.609	1	14
621.797	1	-2
622.985	1	4
624.172	1	8
625.360	1	8
626.547	1	9
627.735	1	2
628.922	1	7
630.109	1	-11
631.297	1	-2
632.484	1	3
633.671	1	0
634.858	1	0
636.045	1	10
637.232	1	5
638.419	1	-1
639.606	1	4
640.793	1	19
641.980	1	12
643.167	1	-5
644.354	1	10
645.541	1	3
646.728	1	1
647.914	1	2
649.101	1	-3
650.288	1	6
651.474	1	1
652.661	1	-1
653.847	1	10
655.034	1	2
656.220	1	-6
657.406	1	-2
658.593	1	2
659.779	1	1
660.965	1	10
662.152	1	8
663.338	1	9
664.524	1	-2
665.710	1	4
666.896	1	3
668.082	1	12
669.268	1	-9
670.454	1	1
671.640	1	5
672.826	1	-1
674.011	1	3
675.197	1	-8
676.383	1	4
677.569	1	8
678.754	1	1
679.940	1	3
681.125	1	-2
682.311	1	12
683.496	1	5
684.682	1	4
685.867	1	7
687.053	1	3
688.238	1	2
688.746	1	3