File: Data/GaN_200K_800ms/GaN_sample F_spot 12_UVVIS_200 K_200um_800 ms 2x2mm1_469.txt
340.368	1	4
341.565	1	-13
342.763	1	1
343.960	1	4
345.157	1	-8
346.354	1	0
347.552	1	-10
348.749	1	-1
349.946	1	-17
351.143	1	5
352.340	1	-4
353.537	1	-8
354.734	1	2
355.931	1	1
357.127	1	-1
358.324	1	1
359.521	1	6
360.718	1	3
361.914	1	10
363.111	1	1
364.308	1	-3
365.504	1	-1
366.701	1	-1
367.897	1	7
369.093	1	7
370.290	1	10
371.486	1	13
372.682	1	6
373.879	1	-1
375.075	1	-1
376.271	1	7
377.467	1	11
378.663	1	-1
379.859	1	-4
381.055	1	4
382.251	1	-5
383.447	1	-8
384.643	1	19
385.839	1	-3
387.035	1	3
388.230	1	3
389.426	1	-3
390.622	1	-4
391.817	1	-3
393.013	1	1
394.208	1	-2
395.404	1	-10
396.599	1	-6
397.795	1	4
398.990	1	0
400.186	1	-1
401.381	1	-4
402.576	1	-5
403.771	1	2
404.967	1	8
406.162	1	10
407.357	1	-3
408.552	1	-5
409.747	1	-1
410.942	1	3
412.137	1	7
413.332	1	-4
414.526	1	1
415.721	1	1
416.916	1	-1
418.111	1	-3
419.305	1	7
420.500	1	-2
421.695	1	-14
422.889	1	-7
424.084	1	-3
425.278	1	7
426.472	1	-3
427.667	1	12
428.861	1	-4
430.055	1	11
431.250	1	-5
432.444	1	5
433.638	1	1
434.832	1	7
436.026	1	1
437.220	1	1
438.414	1	-8
439.608	1	-5
440.802	1	-7
441.996	1	0
443.190	1	-7
444.384	1	1
445.578	1	-4
446.771	1	13
447.965	1	6
449.159	1	-10
450.352	1	-5
451.546	1	-6
452.739	1	-1
453.933	1	-7
455.126	1	-3
456.320	1	-13
457.513	1	-4
458.706	1	8
459.899	1	1
461.093	1	-1
462.286	1	-3
463.479	1	-10
464.672	1	-7
465.865	1	1
467.058	1	-5
468.251	1	-2
469.444	1	-8
470.637	1	-2
471.830	1	-3
473.023	1	-1
474.215	1	0
475.408	1	4
476.601	1	0
477.793	1	0
478.986	1	-6
480.179	1	2
481.371	1	5
482.564	1	-3
483.756	1	6
484.948	1	-8
486.141	1	2
487.333	1	-1
488.525	1	-6
489.718	1	-4
490.910	1	3
492.102	1	-2
493.294	1	-1
494.486	1	8
495.678	1	4
496.870	1	0
498.062	1	5
499.254	1	-6
500.446	1	-12
501.638	1	-13
502.829	1	-6
504.021	1	-7
505.213	1	7
506.404	1	-2
507.596	1	1
508.788	1	1
509.979	1	-3
511.171	1	-11
512.362	1	-6
513.553	1	-8
514.745	1	-3
515.936	1	-9
517.127	1	-7
518.319	1	-11
519.510	1	8
520.701	1	1
521.892	1	2
523.083	1	-8
524.274	1	0
525.465	1	7
526.656	1	-15
527.847	1	2
529.038	1	-3
530.229	1	5
531.419	1	8
532.610	1	-4
533.801	1	10
534.991	1	-4
536.182	1	4
537.373	1	-1
538.563	1	-4
539.754	1	6
540.944	1	-14
542.134	1	8
543.325	1	-7
544.515	1	-8
545.705	1	-7
546.896	1	-15
548.086	1	-3
549.276	1	2
550.466	1	9
551.656	1	15
552.846	1	3
554.036	1	-11
555.226	1	-3
556.416	1	-7
557.606	1	0
558.796	1	0
559.986	1	-8
561.175	1	0
562.365	1	-4
563.555	1	-7
564.744	1	2
565.934	1	2
567.123	1	5
568.313	1	9
569.502	1	3
570.692	1	2
571.881	1	6
573.070	1	0
574.260	1	9
575.449	1	0
576.638	1	-4
577.827	1	-13
579.016	1	16
580.205	1	-7
581.394	1	1
582.583	1	12
583.772	1	1
584.961	1	1
586.150	1	-6
587.339	1	2
588.528	1	1
589.717	1	4
590.905	1	7
592.094	1	-6
593.283	1	-3
594.471	1	5
595.660	1	0
596.848	1	3
598.037	1	5
599.225	1	-4
600.413	1	1
601.602	1	10
602.790	1	-5
603.978	1	-1
605.166	1	5
606.355	1	-3
607.543	1	2
608.731	1	3
609.919	1	5
611.107	1	2
612.295	1	2
613.483	1	5
614.671	1	-1
615.858	1	2
617.046	1	1
618.234	1	-10
619.422	1	-7
620.609	1	-5
621.797	1	-10
622.985	1	-3
624.172	1	-2
625.360	1	-1
626.547	1	-5
627.735	1	-3
628.922	1	2
630.109	1	-9
631.297	1	-2
632.484	1	-11
633.671	1	4
634.858	1	-7
636.045	1	5
637.232	1	0
638.419	1	-3
639.606	1	3
640.793	1	8
641.980	1	-1
643.167	1	1
644.354	1	3
645.541	1	4
646.728	1	2
647.914	1	-5
649.101	1	-1
650.288	1	4
651.474	1	-8
652.661	1	-5
653.847	1	-3
655.034	1	-2
656.220	1	-11
657.406	1	7
658.593	1	3
659.779	1	-2
660.965	1	3
662.152	1	1
663.338	1	1
664.524	1	-4
665.710	1	0
666.896	1	3
668.082	1	-8
669.268	1	3
670.454	1	-6
671.640	1	1
672.826	1	-3
674.011	1	-1
675.197	1	-9
676.383	1	-3
677.569	1	-3
678.754	1	-8
679.940	1	-7
681.125	1	4
682.311	1	4
683.496	1	-3
684.682	1	-4
685.867	1	-2
687.053	1	-7
688.238	1	1
688.746	1	4