File: Data/GaN_200K_800ms/GaN_sample F_spot 12_UVVIS_200 K_200um_800 ms 2x2mm1_147.txt
340.368	1	3
341.565	1	-16
342.763	1	6
343.960	1	1
345.157	1	-3
346.354	1	2
347.552	1	-7
348.749	1	2
349.946	1	-4
351.143	1	0
352.340	1	3
353.537	1	1
354.734	1	9
355.931	1	7
357.127	1	5
358.324	1	5
359.521	1	15
360.718	1	8
361.914	1	8
363.111	1	15
364.308	1	28
365.504	1	39
366.701	1	40
367.897	1	46
369.093	1	42
370.290	1	51
371.486	1	55
372.682	1	45
373.879	1	32
375.075	1	30
376.271	1	44
377.467	1	32
378.663	1	23
379.859	1	17
381.055	1	17
382.251	1	3
383.447	1	13
384.643	1	16
385.839	1	3
387.035	1	18
388.230	1	12
389.426	1	8
390.622	1	8
391.817	1	11
393.013	1	-3
394.208	1	8
395.404	1	3
396.599	1	5
397.795	1	2
398.990	1	3
400.186	1	7
401.381	1	1
402.576	1	4
403.771	1	-1
404.967	1	9
406.162	1	14
407.357	1	-5
408.552	1	-4
409.747	1	5
410.942	1	11
412.137	1	7
413.332	1	8
414.526	1	3
415.721	1	11
416.916	1	-5
418.111	1	0
419.305	1	2
420.500	1	-5
421.695	1	1
422.889	1	-15
424.084	1	4
425.278	1	8
426.472	1	4
427.667	1	8
428.861	1	-6
430.055	1	0
431.250	1	6
432.444	1	5
433.638	1	2
434.832	1	3
436.026	1	-2
437.220	1	2
438.414	1	-10
439.608	1	-12
440.802	1	0
441.996	1	1
443.190	1	-9
444.384	1	-6
445.578	1	-6
446.771	1	13
447.965	1	0
449.159	1	-4
450.352	1	-5
451.546	1	3
452.739	1	-1
453.933	1	-3
455.126	1	-1
456.320	1	3
457.513	1	1
458.706	1	-2
459.899	1	2
461.093	1	9
462.286	1	1
463.479	1	2
464.672	1	0
465.865	1	-2
467.058	1	-11
468.251	1	-3
469.444	1	-11
470.637	1	0
471.830	1	-1
473.023	1	6
474.215	1	10
475.408	1	-6
476.601	1	0
477.793	1	-2
478.986	1	-5
480.179	1	1
481.371	1	7
482.564	1	8
483.756	1	6
484.948	1	1
486.141	1	-3
487.333	1	0
488.525	1	-6
489.718	1	-6
490.910	1	2
492.102	1	0
493.294	1	1
494.486	1	7
495.678	1	4
496.870	1	7
498.062	1	-3
499.254	1	4
500.446	1	-7
501.638	1	3
502.829	1	0
504.021	1	5
505.213	1	14
506.404	1	-2
507.596	1	14
508.788	1	6
509.979	1	10
511.171	1	1
512.362	1	-2
513.553	1	-2
514.745	1	-5
515.936	1	0
517.127	1	8
518.319	1	-3
519.510	1	7
520.701	1	1
521.892	1	5
523.083	1	7
524.274	1	0
525.465	1	9
526.656	1	7
527.847	1	12
529.038	1	2
530.229	1	7
531.419	1	10
532.610	1	-2
533.801	1	20
534.991	1	10
536.182	1	0
537.373	1	0
538.563	1	11
539.754	1	11
540.944	1	-1
542.134	1	10
543.325	1	3
544.515	1	-3
545.705	1	4
546.896	1	1
548.086	1	7
549.276	1	2
550.466	1	8
551.656	1	20
552.846	1	4
554.036	1	5
555.226	1	-8
556.416	1	2
557.606	1	12
558.796	1	2
559.986	1	-2
561.175	1	11
562.365	1	15
563.555	1	2
564.744	1	-2
565.934	1	17
567.123	1	6
568.313	1	17
569.502	1	8
570.692	1	10
571.881	1	8
573.070	1	1
574.260	1	14
575.449	1	4
576.638	1	-1
577.827	1	1
579.016	1	16
580.205	1	6
581.394	1	3
582.583	1	15
583.772	1	14
584.961	1	6
586.150	1	-2
587.339	1	10
588.528	1	8
589.717	1	3
590.905	1	3
592.094	1	7
593.283	1	8
594.471	1	20
595.660	1	4
596.848	1	11
598.037	1	3
599.225	1	-9
600.413	1	8
601.602	1	9
602.790	1	6
603.978	1	-1
605.166	1	12
606.355	1	11
607.543	1	-10
608.731	1	8
609.919	1	19
611.107	1	-3
612.295	1	9
613.483	1	10
614.671	1	10
615.858	1	10
617.046	1	-2
618.234	1	-7
619.422	1	-8
620.609	1	4
621.797	1	-5
622.985	1	-3
624.172	1	2
625.360	1	1
626.547	1	1
627.735	1	4
628.922	1	4
630.109	1	-5
631.297	1	2
632.484	1	1
633.671	1	-6
634.858	1	-6
636.045	1	11
637.232	1	-4
638.419	1	-3
639.606	1	11
640.793	1	7
641.980	1	4
643.167	1	5
644.354	1	-2
645.541	1	-1
646.728	1	2
647.914	1	-5
649.101	1	2
650.288	1	5
651.474	1	-12
652.661	1	6
653.847	1	11
655.034	1	6
656.220	1	2
657.406	1	7
658.593	1	9
659.779	1	0
660.965	1	12
662.152	1	3
663.338	1	11
664.524	1	7
665.710	1	3
666.896	1	-5
668.082	1	8
669.268	1	6
670.454	1	7
671.640	1	2
672.826	1	-3
674.011	1	7
675.197	1	-3
676.383	1	5
677.569	1	-2
678.754	1	3
679.940	1	-9
681.125	1	9
682.311	1	1
683.496	1	12
684.682	1	-1
685.867	1	2
687.053	1	3
688.238	1	3
688.746	1	-4