File: Data/GaN_200K_800ms/GaN_sample F_spot 12_UVVIS_200 K_200um_800 ms 2x2mm1_348.txt
340.368	1	4
341.565	1	-10
342.763	1	1
343.960	1	-5
345.157	1	-10
346.354	1	2
347.552	1	-7
348.749	1	-6
349.946	1	-8
351.143	1	-3
352.340	1	-1
353.537	1	-1
354.734	1	4
355.931	1	-3
357.127	1	10
358.324	1	-4
359.521	1	10
360.718	1	5
361.914	1	5
363.111	1	-3
364.308	1	-1
365.504	1	12
366.701	1	14
367.897	1	15
369.093	1	4
370.290	1	1
371.486	1	21
372.682	1	17
373.879	1	6
375.075	1	5
376.271	1	17
377.467	1	8
378.663	1	1
379.859	1	2
381.055	1	5
382.251	1	0
383.447	1	12
384.643	1	7
385.839	1	0
387.035	1	-6
388.230	1	10
389.426	1	-7
390.622	1	-8
391.817	1	13
393.013	1	-5
394.208	1	-5
395.404	1	-1
396.599	1	9
397.795	1	-2
398.990	1	-7
400.186	1	3
401.381	1	0
402.576	1	-5
403.771	1	11
404.967	1	-4
406.162	1	2
407.357	1	-1
408.552	1	-3
409.747	1	1
410.942	1	11
412.137	1	10
413.332	1	-3
414.526	1	-1
415.721	1	7
416.916	1	2
418.111	1	-3
419.305	1	0
420.500	1	-4
421.695	1	-12
422.889	1	-7
424.084	1	1
425.278	1	5
426.472	1	-3
427.667	1	1
428.861	1	-3
430.055	1	-7
431.250	1	-6
432.444	1	0
433.638	1	0
434.832	1	7
436.026	1	2
437.220	1	-2
438.414	1	-14
439.608	1	-10
440.802	1	1
441.996	1	-1
443.190	1	-5
444.384	1	-2
445.578	1	-1
446.771	1	7
447.965	1	-1
449.159	1	-3
450.352	1	2
451.546	1	1
452.739	1	5
453.933	1	-9
455.126	1	-16
456.320	1	-3
457.513	1	3
458.706	1	1
459.899	1	-5
461.093	1	4
462.286	1	-11
463.479	1	-4
464.672	1	1
465.865	1	-3
467.058	1	7
468.251	1	6
469.444	1	-8
470.637	1	-1
471.830	1	0
473.023	1	1
474.215	1	14
475.408	1	0
476.601	1	-4
477.793	1	-4
478.986	1	0
480.179	1	-3
481.371	1	2
482.564	1	0
483.756	1	-8
484.948	1	-9
486.141	1	-5
487.333	1	-3
488.525	1	-2
489.718	1	2
490.910	1	5
492.102	1	2
493.294	1	-4
494.486	1	0
495.678	1	-8
496.870	1	8
498.062	1	-3
499.254	1	-3
500.446	1	-2
501.638	1	0
502.829	1	1
504.021	1	3
505.213	1	0
506.404	1	7
507.596	1	5
508.788	1	12
509.979	1	-4
511.171	1	-7
512.362	1	-1
513.553	1	-13
514.745	1	-6
515.936	1	-1
517.127	1	-4
518.319	1	-1
519.510	1	6
520.701	1	6
521.892	1	-3
523.083	1	-5
524.274	1	7
525.465	1	9
526.656	1	-3
527.847	1	-1
529.038	1	2
530.229	1	8
531.419	1	7
532.610	1	-5
533.801	1	8
534.991	1	2
536.182	1	-5
537.373	1	0
538.563	1	2
539.754	1	13
540.944	1	-9
542.134	1	1
543.325	1	0
544.515	1	-1
545.705	1	-13
546.896	1	-8
548.086	1	3
549.276	1	-7
550.466	1	-5
551.656	1	5
552.846	1	2
554.036	1	-4
555.226	1	-8
556.416	1	-6
557.606	1	1
558.796	1	-5
559.986	1	3
561.175	1	5
562.365	1	-2
563.555	1	1
564.744	1	1
565.934	1	8
567.123	1	6
568.313	1	3
569.502	1	0
570.692	1	3
571.881	1	8
573.070	1	2
574.260	1	11
575.449	1	-4
576.638	1	3
577.827	1	-7
579.016	1	7
580.205	1	-1
581.394	1	-8
582.583	1	6
583.772	1	-1
584.961	1	0
586.150	1	-8
587.339	1	4
588.528	1	10
589.717	1	2
590.905	1	6
592.094	1	-3
593.283	1	-2
594.471	1	-1
595.660	1	-5
596.848	1	-2
598.037	1	4
599.225	1	-4
600.413	1	14
601.602	1	10
602.790	1	-4
603.978	1	-2
605.166	1	11
606.355	1	13
607.543	1	2
608.731	1	-7
609.919	1	8
611.107	1	-3
612.295	1	-7
613.483	1	-1
614.671	1	-3
615.858	1	4
617.046	1	-1
618.234	1	-8
619.422	1	-4
620.609	1	5
621.797	1	-5
622.985	1	6
624.172	1	-9
625.360	1	0
626.547	1	-2
627.735	1	9
628.922	1	4
630.109	1	-13
631.297	1	1
632.484	1	-1
633.671	1	-2
634.858	1	-6
636.045	1	7
637.232	1	1
638.419	1	6
639.606	1	1
640.793	1	12
641.980	1	11
643.167	1	-3
644.354	1	-2
645.541	1	-1
646.728	1	-3
647.914	1	-1
649.101	1	-6
650.288	1	7
651.474	1	-1
652.661	1	0
653.847	1	3
655.034	1	-7
656.220	1	-1
657.406	1	1
658.593	1	6
659.779	1	0
660.965	1	4
662.152	1	5
663.338	1	11
664.524	1	1
665.710	1	-4
666.896	1	-6
668.082	1	4
669.268	1	-8
670.454	1	2
671.640	1	-2
672.826	1	3
674.011	1	-6
675.197	1	-9
676.383	1	-1
677.569	1	-6
678.754	1	2
679.940	1	2
681.125	1	-4
682.311	1	6
683.496	1	-1
684.682	1	-12
685.867	1	-5
687.053	1	1
688.238	1	11
688.746	1	5