File: Data/GaN_200K_800ms/GaN_sample F_spot 12_UVVIS_200 K_200um_800 ms 2x2mm1_508.txt
340.368	1	10
341.565	1	-1
342.763	1	1
343.960	1	2
345.157	1	-7
346.354	1	-2
347.552	1	0
348.749	1	-8
349.946	1	3
351.143	1	3
352.340	1	9
353.537	1	-2
354.734	1	9
355.931	1	-3
357.127	1	6
358.324	1	1
359.521	1	3
360.718	1	-6
361.914	1	-2
363.111	1	1
364.308	1	1
365.504	1	21
366.701	1	5
367.897	1	9
369.093	1	0
370.290	1	5
371.486	1	2
372.682	1	5
373.879	1	2
375.075	1	4
376.271	1	8
377.467	1	0
378.663	1	-4
379.859	1	-6
381.055	1	15
382.251	1	-9
383.447	1	-4
384.643	1	11
385.839	1	3
387.035	1	12
388.230	1	12
389.426	1	-4
390.622	1	-8
391.817	1	4
393.013	1	-8
394.208	1	8
395.404	1	-10
396.599	1	-1
397.795	1	2
398.990	1	4
400.186	1	-6
401.381	1	-1
402.576	1	-1
403.771	1	2
404.967	1	-4
406.162	1	3
407.357	1	5
408.552	1	-1
409.747	1	-3
410.942	1	9
412.137	1	6
413.332	1	6
414.526	1	-4
415.721	1	-4
416.916	1	-11
418.111	1	3
419.305	1	5
420.500	1	-6
421.695	1	-12
422.889	1	-9
424.084	1	-7
425.278	1	10
426.472	1	4
427.667	1	6
428.861	1	-5
430.055	1	7
431.250	1	-8
432.444	1	-3
433.638	1	-2
434.832	1	-7
436.026	1	10
437.220	1	3
438.414	1	-16
439.608	1	-14
440.802	1	-4
441.996	1	-2
443.190	1	7
444.384	1	-6
445.578	1	-16
446.771	1	15
447.965	1	4
449.159	1	-11
450.352	1	1
451.546	1	-7
452.739	1	1
453.933	1	-3
455.126	1	-10
456.320	1	-7
457.513	1	4
458.706	1	-4
459.899	1	3
461.093	1	-4
462.286	1	-2
463.479	1	-7
464.672	1	-4
465.865	1	-5
467.058	1	-6
468.251	1	-6
469.444	1	-8
470.637	1	0
471.830	1	-5
473.023	1	2
474.215	1	11
475.408	1	3
476.601	1	0
477.793	1	-6
478.986	1	-9
480.179	1	10
481.371	1	4
482.564	1	8
483.756	1	4
484.948	1	-10
486.141	1	-6
487.333	1	1
488.525	1	1
489.718	1	-3
490.910	1	2
492.102	1	-9
493.294	1	-6
494.486	1	0
495.678	1	-1
496.870	1	4
498.062	1	-2
499.254	1	-6
500.446	1	-10
501.638	1	-9
502.829	1	-4
504.021	1	-3
505.213	1	1
506.404	1	-3
507.596	1	4
508.788	1	2
509.979	1	-5
511.171	1	3
512.362	1	-19
513.553	1	2
514.745	1	-7
515.936	1	-2
517.127	1	-5
518.319	1	-5
519.510	1	-2
520.701	1	1
521.892	1	0
523.083	1	-4
524.274	1	-2
525.465	1	4
526.656	1	-6
527.847	1	-2
529.038	1	4
530.229	1	-1
531.419	1	-5
532.610	1	-7
533.801	1	12
534.991	1	-2
536.182	1	-8
537.373	1	-7
538.563	1	8
539.754	1	2
540.944	1	1
542.134	1	12
543.325	1	-1
544.515	1	-5
545.705	1	-6
546.896	1	-9
548.086	1	5
549.276	1	-7
550.466	1	-4
551.656	1	0
552.846	1	-4
554.036	1	-6
555.226	1	-10
556.416	1	-9
557.606	1	6
558.796	1	1
559.986	1	-8
561.175	1	-1
562.365	1	4
563.555	1	-11
564.744	1	-1
565.934	1	7
567.123	1	-5
568.313	1	8
569.502	1	-2
570.692	1	6
571.881	1	16
573.070	1	2
574.260	1	9
575.449	1	0
576.638	1	-6
577.827	1	-11
579.016	1	13
580.205	1	3
581.394	1	3
582.583	1	20
583.772	1	5
584.961	1	4
586.150	1	-3
587.339	1	-6
588.528	1	4
589.717	1	-1
590.905	1	-8
592.094	1	-5
593.283	1	-2
594.471	1	7
595.660	1	4
596.848	1	-6
598.037	1	-7
599.225	1	-17
600.413	1	5
601.602	1	7
602.790	1	-8
603.978	1	2
605.166	1	9
606.355	1	-4
607.543	1	0
608.731	1	5
609.919	1	5
611.107	1	-6
612.295	1	-13
613.483	1	5
614.671	1	3
615.858	1	1
617.046	1	-2
618.234	1	1
619.422	1	-3
620.609	1	1
621.797	1	-5
622.985	1	-3
624.172	1	3
625.360	1	-1
626.547	1	3
627.735	1	0
628.922	1	1
630.109	1	-5
631.297	1	-8
632.484	1	-3
633.671	1	-6
634.858	1	-8
636.045	1	4
637.232	1	-9
638.419	1	-9
639.606	1	5
640.793	1	1
641.980	1	4
643.167	1	-15
644.354	1	-5
645.541	1	-4
646.728	1	3
647.914	1	-4
649.101	1	-4
650.288	1	8
651.474	1	2
652.661	1	-8
653.847	1	6
655.034	1	4
656.220	1	-5
657.406	1	3
658.593	1	2
659.779	1	1
660.965	1	8
662.152	1	0
663.338	1	2
664.524	1	-5
665.710	1	-6
666.896	1	1
668.082	1	3
669.268	1	0
670.454	1	1
671.640	1	5
672.826	1	-2
674.011	1	1
675.197	1	-12
676.383	1	4
677.569	1	-8
678.754	1	-4
679.940	1	-3
681.125	1	7
682.311	1	5
683.496	1	7
684.682	1	-17
685.867	1	-4
687.053	1	-1
688.238	1	2
688.746	1	-2