File: Data/GaN_200K_800ms/GaN_sample F_spot 12_UVVIS_200 K_200um_800 ms 2x2mm1_190.txt
340.368	1	-1
341.565	1	-5
342.763	1	10
343.960	1	5
345.157	1	-11
346.354	1	4
347.552	1	-7
348.749	1	3
349.946	1	-4
351.143	1	-2
352.340	1	5
353.537	1	5
354.734	1	11
355.931	1	5
357.127	1	-1
358.324	1	1
359.521	1	5
360.718	1	9
361.914	1	12
363.111	1	1
364.308	1	12
365.504	1	23
366.701	1	20
367.897	1	28
369.093	1	36
370.290	1	33
371.486	1	47
372.682	1	33
373.879	1	32
375.075	1	17
376.271	1	17
377.467	1	14
378.663	1	9
379.859	1	9
381.055	1	13
382.251	1	10
383.447	1	8
384.643	1	14
385.839	1	6
387.035	1	9
388.230	1	7
389.426	1	-1
390.622	1	2
391.817	1	3
393.013	1	0
394.208	1	5
395.404	1	-9
396.599	1	-4
397.795	1	3
398.990	1	12
400.186	1	1
401.381	1	-7
402.576	1	-2
403.771	1	2
404.967	1	1
406.162	1	3
407.357	1	-4
408.552	1	0
409.747	1	3
410.942	1	3
412.137	1	11
413.332	1	5
414.526	1	1
415.721	1	-5
416.916	1	1
418.111	1	1
419.305	1	11
420.500	1	-2
421.695	1	1
422.889	1	-9
424.084	1	0
425.278	1	17
426.472	1	-8
427.667	1	4
428.861	1	1
430.055	1	2
431.250	1	1
432.444	1	6
433.638	1	0
434.832	1	9
436.026	1	-3
437.220	1	8
438.414	1	-8
439.608	1	-11
440.802	1	-4
441.996	1	-2
443.190	1	7
444.384	1	-9
445.578	1	-2
446.771	1	6
447.965	1	-6
449.159	1	1
450.352	1	-2
451.546	1	2
452.739	1	1
453.933	1	0
455.126	1	6
456.320	1	-2
457.513	1	0
458.706	1	-3
459.899	1	-6
461.093	1	-5
462.286	1	4
463.479	1	-1
464.672	1	2
465.865	1	-6
467.058	1	0
468.251	1	-1
469.444	1	1
470.637	1	9
471.830	1	-1
473.023	1	-1
474.215	1	7
475.408	1	3
476.601	1	2
477.793	1	2
478.986	1	-2
480.179	1	-6
481.371	1	1
482.564	1	4
483.756	1	13
484.948	1	-1
486.141	1	1
487.333	1	2
488.525	1	7
489.718	1	0
490.910	1	-1
492.102	1	-5
493.294	1	0
494.486	1	2
495.678	1	1
496.870	1	8
498.062	1	8
499.254	1	3
500.446	1	-7
501.638	1	-2
502.829	1	0
504.021	1	-3
505.213	1	2
506.404	1	1
507.596	1	1
508.788	1	10
509.979	1	3
511.171	1	-1
512.362	1	-3
513.553	1	-4
514.745	1	0
515.936	1	0
517.127	1	-5
518.319	1	-6
519.510	1	5
520.701	1	6
521.892	1	4
523.083	1	1
524.274	1	-3
525.465	1	2
526.656	1	3
527.847	1	3
529.038	1	1
530.229	1	10
531.419	1	7
532.610	1	-5
533.801	1	14
534.991	1	3
536.182	1	4
537.373	1	6
538.563	1	5
539.754	1	5
540.944	1	-1
542.134	1	8
543.325	1	3
544.515	1	-9
545.705	1	5
546.896	1	14
548.086	1	-1
549.276	1	6
550.466	1	7
551.656	1	3
552.846	1	2
554.036	1	2
555.226	1	1
556.416	1	-7
557.606	1	10
558.796	1	6
559.986	1	1
561.175	1	12
562.365	1	13
563.555	1	-8
564.744	1	3
565.934	1	1
567.123	1	5
568.313	1	7
569.502	1	6
570.692	1	-6
571.881	1	13
573.070	1	-1
574.260	1	10
575.449	1	1
576.638	1	-3
577.827	1	3
579.016	1	4
580.205	1	4
581.394	1	3
582.583	1	13
583.772	1	2
584.961	1	3
586.150	1	3
587.339	1	8
588.528	1	7
589.717	1	2
590.905	1	1
592.094	1	-7
593.283	1	2
594.471	1	18
595.660	1	3
596.848	1	5
598.037	1	1
599.225	1	-5
600.413	1	8
601.602	1	9
602.790	1	6
603.978	1	5
605.166	1	5
606.355	1	13
607.543	1	-3
608.731	1	6
609.919	1	7
611.107	1	0
612.295	1	-3
613.483	1	2
614.671	1	10
615.858	1	5
617.046	1	-5
618.234	1	7
619.422	1	-11
620.609	1	13
621.797	1	3
622.985	1	-4
624.172	1	3
625.360	1	7
626.547	1	3
627.735	1	4
628.922	1	2
630.109	1	-5
631.297	1	2
632.484	1	-1
633.671	1	-8
634.858	1	0
636.045	1	3
637.232	1	3
638.419	1	-6
639.606	1	9
640.793	1	8
641.980	1	6
643.167	1	-5
644.354	1	7
645.541	1	-4
646.728	1	-6
647.914	1	-1
649.101	1	0
650.288	1	3
651.474	1	-4
652.661	1	7
653.847	1	8
655.034	1	7
656.220	1	-7
657.406	1	8
658.593	1	2
659.779	1	5
660.965	1	9
662.152	1	5
663.338	1	17
664.524	1	-4
665.710	1	1
666.896	1	-1
668.082	1	6
669.268	1	-3
670.454	1	-4
671.640	1	7
672.826	1	-3
674.011	1	3
675.197	1	-9
676.383	1	1
677.569	1	0
678.754	1	-8
679.940	1	0
681.125	1	4
682.311	1	10
683.496	1	2
684.682	1	-7
685.867	1	3
687.053	1	11
688.238	1	12
688.746	1	-1