File: Data/GaN_200K_800ms/GaN_sample F_spot 12_UVVIS_200 K_200um_800 ms 2x2mm1_70.txt
340.368	1	9
341.565	1	-6
342.763	1	6
343.960	1	-1
345.157	1	5
346.354	1	1
347.552	1	1
348.749	1	-10
349.946	1	8
351.143	1	8
352.340	1	9
353.537	1	11
354.734	1	19
355.931	1	9
357.127	1	20
358.324	1	20
359.521	1	39
360.718	1	41
361.914	1	56
363.111	1	51
364.308	1	81
365.504	1	114
366.701	1	142
367.897	1	171
369.093	1	192
370.290	1	195
371.486	1	180
372.682	1	167
373.879	1	144
375.075	1	113
376.271	1	105
377.467	1	84
378.663	1	75
379.859	1	52
381.055	1	60
382.251	1	39
383.447	1	39
384.643	1	44
385.839	1	41
387.035	1	27
388.230	1	35
389.426	1	22
390.622	1	22
391.817	1	8
393.013	1	10
394.208	1	14
395.404	1	9
396.599	1	7
397.795	1	17
398.990	1	13
400.186	1	12
401.381	1	3
402.576	1	7
403.771	1	7
404.967	1	15
406.162	1	18
407.357	1	13
408.552	1	-6
409.747	1	6
410.942	1	10
412.137	1	6
413.332	1	7
414.526	1	-4
415.721	1	12
416.916	1	5
418.111	1	4
419.305	1	18
420.500	1	7
421.695	1	4
422.889	1	-4
424.084	1	2
425.278	1	5
426.472	1	12
427.667	1	10
428.861	1	-8
430.055	1	1
431.250	1	3
432.444	1	17
433.638	1	-3
434.832	1	0
436.026	1	8
437.220	1	7
438.414	1	-3
439.608	1	-10
440.802	1	2
441.996	1	2
443.190	1	2
444.384	1	-1
445.578	1	-6
446.771	1	20
447.965	1	-4
449.159	1	5
450.352	1	-2
451.546	1	5
452.739	1	4
453.933	1	5
455.126	1	1
456.320	1	-1
457.513	1	2
458.706	1	3
459.899	1	2
461.093	1	5
462.286	1	12
463.479	1	8
464.672	1	1
465.865	1	9
467.058	1	-2
468.251	1	9
469.444	1	-4
470.637	1	0
471.830	1	2
473.023	1	12
474.215	1	8
475.408	1	3
476.601	1	5
477.793	1	1
478.986	1	7
480.179	1	3
481.371	1	12
482.564	1	12
483.756	1	16
484.948	1	-3
486.141	1	3
487.333	1	3
488.525	1	8
489.718	1	9
490.910	1	8
492.102	1	7
493.294	1	3
494.486	1	5
495.678	1	3
496.870	1	10
498.062	1	9
499.254	1	7
500.446	1	1
501.638	1	8
502.829	1	12
504.021	1	2
505.213	1	18
506.404	1	3
507.596	1	17
508.788	1	30
509.979	1	3
511.171	1	10
512.362	1	10
513.553	1	-6
514.745	1	11
515.936	1	14
517.127	1	11
518.319	1	14
519.510	1	21
520.701	1	22
521.892	1	16
523.083	1	14
524.274	1	21
525.465	1	20
526.656	1	11
527.847	1	21
529.038	1	15
530.229	1	26
531.419	1	28
532.610	1	15
533.801	1	29
534.991	1	8
536.182	1	16
537.373	1	16
538.563	1	27
539.754	1	21
540.944	1	10
542.134	1	17
543.325	1	20
544.515	1	13
545.705	1	15
546.896	1	19
548.086	1	6
549.276	1	23
550.466	1	26
551.656	1	21
552.846	1	18
554.036	1	15
555.226	1	14
556.416	1	17
557.606	1	8
558.796	1	21
559.986	1	11
561.175	1	27
562.365	1	12
563.555	1	21
564.744	1	20
565.934	1	31
567.123	1	18
568.313	1	28
569.502	1	30
570.692	1	29
571.881	1	24
573.070	1	32
574.260	1	30
575.449	1	10
576.638	1	14
577.827	1	9
579.016	1	39
580.205	1	24
581.394	1	12
582.583	1	32
583.772	1	22
584.961	1	24
586.150	1	21
587.339	1	17
588.528	1	25
589.717	1	21
590.905	1	11
592.094	1	14
593.283	1	25
594.471	1	31
595.660	1	12
596.848	1	21
598.037	1	19
599.225	1	3
600.413	1	23
601.602	1	21
602.790	1	7
603.978	1	9
605.166	1	28
606.355	1	15
607.543	1	21
608.731	1	9
609.919	1	15
611.107	1	20
612.295	1	18
613.483	1	7
614.671	1	13
615.858	1	14
617.046	1	12
618.234	1	4
619.422	1	3
620.609	1	17
621.797	1	7
622.985	1	11
624.172	1	7
625.360	1	17
626.547	1	6
627.735	1	13
628.922	1	17
630.109	1	-2
631.297	1	13
632.484	1	2
633.671	1	10
634.858	1	5
636.045	1	17
637.232	1	6
638.419	1	7
639.606	1	8
640.793	1	17
641.980	1	10
643.167	1	7
644.354	1	12
645.541	1	7
646.728	1	6
647.914	1	9
649.101	1	0
650.288	1	13
651.474	1	4
652.661	1	6
653.847	1	19
655.034	1	11
656.220	1	-1
657.406	1	8
658.593	1	8
659.779	1	7
660.965	1	17
662.152	1	7
663.338	1	14
664.524	1	9
665.710	1	1
666.896	1	11
668.082	1	7
669.268	1	3
670.454	1	11
671.640	1	15
672.826	1	1
674.011	1	8
675.197	1	3
676.383	1	11
677.569	1	7
678.754	1	5
679.940	1	9
681.125	1	10
682.311	1	-1
683.496	1	18
684.682	1	-3
685.867	1	4
687.053	1	11
688.238	1	22
688.746	1	2