File: Data/GaN_200K_800ms/GaN_sample F_spot 12_UVVIS_200 K_200um_800 ms 2x2mm1_8.txt
340.368	1	6
341.565	1	-11
342.763	1	7
343.960	1	12
345.157	1	-10
346.354	1	2
347.552	1	-2
348.749	1	-12
349.946	1	-5
351.143	1	-4
352.340	1	4
353.537	1	2
354.734	1	8
355.931	1	-2
357.127	1	-8
358.324	1	-2
359.521	1	11
360.718	1	2
361.914	1	1
363.111	1	1
364.308	1	-4
365.504	1	12
366.701	1	-3
367.897	1	-2
369.093	1	-4
370.290	1	-4
371.486	1	5
372.682	1	-2
373.879	1	0
375.075	1	5
376.271	1	7
377.467	1	2
378.663	1	-1
379.859	1	3
381.055	1	5
382.251	1	-5
383.447	1	-8
384.643	1	2
385.839	1	-1
387.035	1	9
388.230	1	11
389.426	1	-6
390.622	1	0
391.817	1	4
393.013	1	-8
394.208	1	5
395.404	1	3
396.599	1	1
397.795	1	-3
398.990	1	-5
400.186	1	-2
401.381	1	-5
402.576	1	-1
403.771	1	-2
404.967	1	8
406.162	1	1
407.357	1	-11
408.552	1	-5
409.747	1	-1
410.942	1	6
412.137	1	7
413.332	1	-1
414.526	1	-9
415.721	1	-7
416.916	1	-2
418.111	1	-3
419.305	1	1
420.500	1	-2
421.695	1	1
422.889	1	-11
424.084	1	-4
425.278	1	6
426.472	1	0
427.667	1	6
428.861	1	-2
430.055	1	3
431.250	1	-6
432.444	1	11
433.638	1	2
434.832	1	9
436.026	1	3
437.220	1	12
438.414	1	1
439.608	1	-9
440.802	1	-2
441.996	1	-2
443.190	1	2
444.384	1	-12
445.578	1	-9
446.771	1	9
447.965	1	-5
449.159	1	1
450.352	1	0
451.546	1	9
452.739	1	11
453.933	1	-3
455.126	1	-3
456.320	1	-2
457.513	1	10
458.706	1	6
459.899	1	3
461.093	1	-1
462.286	1	4
463.479	1	3
464.672	1	0
465.865	1	-3
467.058	1	-5
468.251	1	0
469.444	1	-9
470.637	1	-5
471.830	1	3
473.023	1	2
474.215	1	7
475.408	1	-7
476.601	1	2
477.793	1	-2
478.986	1	0
480.179	1	-1
481.371	1	1
482.564	1	-2
483.756	1	7
484.948	1	1
486.141	1	-5
487.333	1	0
488.525	1	-2
489.718	1	1
490.910	1	7
492.102	1	-3
493.294	1	-3
494.486	1	8
495.678	1	0
496.870	1	9
498.062	1	1
499.254	1	0
500.446	1	-3
501.638	1	-5
502.829	1	-2
504.021	1	-3
505.213	1	10
506.404	1	-1
507.596	1	1
508.788	1	15
509.979	1	-5
511.171	1	-3
512.362	1	-3
513.553	1	-15
514.745	1	-1
515.936	1	-6
517.127	1	-6
518.319	1	-4
519.510	1	3
520.701	1	1
521.892	1	8
523.083	1	-3
524.274	1	-1
525.465	1	4
526.656	1	-3
527.847	1	5
529.038	1	-5
530.229	1	1
531.419	1	-3
532.610	1	-5
533.801	1	3
534.991	1	5
536.182	1	-7
537.373	1	4
538.563	1	7
539.754	1	2
540.944	1	1
542.134	1	-1
543.325	1	2
544.515	1	-8
545.705	1	0
546.896	1	-1
548.086	1	-5
549.276	1	-1
550.466	1	-2
551.656	1	7
552.846	1	4
554.036	1	4
555.226	1	-12
556.416	1	-6
557.606	1	2
558.796	1	8
559.986	1	-2
561.175	1	4
562.365	1	-1
563.555	1	0
564.744	1	1
565.934	1	-2
567.123	1	5
568.313	1	5
569.502	1	-8
570.692	1	8
571.881	1	12
573.070	1	2
574.260	1	9
575.449	1	-2
576.638	1	5
577.827	1	-2
579.016	1	3
580.205	1	-1
581.394	1	-5
582.583	1	12
583.772	1	7
584.961	1	1
586.150	1	-12
587.339	1	-9
588.528	1	6
589.717	1	4
590.905	1	1
592.094	1	4
593.283	1	-1
594.471	1	5
595.660	1	2
596.848	1	1
598.037	1	0
599.225	1	-10
600.413	1	1
601.602	1	13
602.790	1	8
603.978	1	0
605.166	1	4
606.355	1	8
607.543	1	-1
608.731	1	5
609.919	1	8
611.107	1	-1
612.295	1	-2
613.483	1	4
614.671	1	3
615.858	1	2
617.046	1	-4
618.234	1	-1
619.422	1	-3
620.609	1	3
621.797	1	4
622.985	1	-2
624.172	1	3
625.360	1	-6
626.547	1	-1
627.735	1	6
628.922	1	4
630.109	1	-17
631.297	1	8
632.484	1	-3
633.671	1	0
634.858	1	3
636.045	1	11
637.232	1	-7
638.419	1	-2
639.606	1	3
640.793	1	10
641.980	1	10
643.167	1	-2
644.354	1	4
645.541	1	6
646.728	1	1
647.914	1	-10
649.101	1	-11
650.288	1	3
651.474	1	-5
652.661	1	-4
653.847	1	2
655.034	1	4
656.220	1	-5
657.406	1	4
658.593	1	3
659.779	1	2
660.965	1	7
662.152	1	5
663.338	1	13
664.524	1	4
665.710	1	1
666.896	1	0
668.082	1	0
669.268	1	-3
670.454	1	-1
671.640	1	1
672.826	1	-4
674.011	1	4
675.197	1	-4
676.383	1	3
677.569	1	-8
678.754	1	-6
679.940	1	-1
681.125	1	2
682.311	1	1
683.496	1	2
684.682	1	-6
685.867	1	-2
687.053	1	3
688.238	1	6
688.746	1	-1