File: Data/GaN_200K_800ms/GaN_sample F_spot 12_UVVIS_200 K_200um_800 ms 2x2mm1_193.txt
340.368	1	3
341.565	1	-4
342.763	1	5
343.960	1	5
345.157	1	7
346.354	1	2
347.552	1	5
348.749	1	-2
349.946	1	-6
351.143	1	5
352.340	1	2
353.537	1	2
354.734	1	8
355.931	1	-2
357.127	1	2
358.324	1	-1
359.521	1	11
360.718	1	15
361.914	1	9
363.111	1	10
364.308	1	14
365.504	1	33
366.701	1	29
367.897	1	34
369.093	1	29
370.290	1	34
371.486	1	41
372.682	1	29
373.879	1	22
375.075	1	16
376.271	1	31
377.467	1	15
378.663	1	2
379.859	1	8
381.055	1	17
382.251	1	5
383.447	1	6
384.643	1	18
385.839	1	12
387.035	1	8
388.230	1	11
389.426	1	-7
390.622	1	8
391.817	1	2
393.013	1	1
394.208	1	0
395.404	1	0
396.599	1	0
397.795	1	1
398.990	1	5
400.186	1	4
401.381	1	2
402.576	1	-4
403.771	1	4
404.967	1	11
406.162	1	9
407.357	1	-3
408.552	1	3
409.747	1	-3
410.942	1	-4
412.137	1	2
413.332	1	-5
414.526	1	-3
415.721	1	-12
416.916	1	-6
418.111	1	3
419.305	1	1
420.500	1	6
421.695	1	-5
422.889	1	-2
424.084	1	-5
425.278	1	3
426.472	1	2
427.667	1	7
428.861	1	0
430.055	1	4
431.250	1	-4
432.444	1	1
433.638	1	-5
434.832	1	0
436.026	1	7
437.220	1	9
438.414	1	-9
439.608	1	-13
440.802	1	-3
441.996	1	7
443.190	1	-4
444.384	1	-8
445.578	1	-3
446.771	1	5
447.965	1	6
449.159	1	-9
450.352	1	-5
451.546	1	0
452.739	1	-2
453.933	1	-4
455.126	1	-5
456.320	1	-1
457.513	1	4
458.706	1	8
459.899	1	15
461.093	1	-1
462.286	1	2
463.479	1	5
464.672	1	2
465.865	1	-4
467.058	1	0
468.251	1	6
469.444	1	-4
470.637	1	4
471.830	1	3
473.023	1	3
474.215	1	12
475.408	1	0
476.601	1	9
477.793	1	1
478.986	1	-5
480.179	1	-1
481.371	1	-5
482.564	1	0
483.756	1	8
484.948	1	-7
486.141	1	-4
487.333	1	7
488.525	1	2
489.718	1	1
490.910	1	10
492.102	1	1
493.294	1	-11
494.486	1	7
495.678	1	8
496.870	1	8
498.062	1	-1
499.254	1	7
500.446	1	-7
501.638	1	-6
502.829	1	3
504.021	1	6
505.213	1	7
506.404	1	4
507.596	1	1
508.788	1	15
509.979	1	-4
511.171	1	-7
512.362	1	-3
513.553	1	-8
514.745	1	-10
515.936	1	0
517.127	1	-5
518.319	1	1
519.510	1	-3
520.701	1	0
521.892	1	12
523.083	1	4
524.274	1	2
525.465	1	6
526.656	1	-5
527.847	1	0
529.038	1	11
530.229	1	6
531.419	1	-1
532.610	1	-5
533.801	1	16
534.991	1	6
536.182	1	-4
537.373	1	0
538.563	1	12
539.754	1	12
540.944	1	-3
542.134	1	7
543.325	1	10
544.515	1	2
545.705	1	0
546.896	1	0
548.086	1	-3
549.276	1	1
550.466	1	7
551.656	1	10
552.846	1	11
554.036	1	0
555.226	1	-3
556.416	1	-6
557.606	1	-1
558.796	1	-1
559.986	1	4
561.175	1	9
562.365	1	4
563.555	1	-5
564.744	1	9
565.934	1	7
567.123	1	7
568.313	1	10
569.502	1	1
570.692	1	9
571.881	1	20
573.070	1	-1
574.260	1	6
575.449	1	4
576.638	1	1
577.827	1	0
579.016	1	10
580.205	1	0
581.394	1	3
582.583	1	8
583.772	1	12
584.961	1	8
586.150	1	4
587.339	1	6
588.528	1	7
589.717	1	0
590.905	1	4
592.094	1	-1
593.283	1	6
594.471	1	9
595.660	1	1
596.848	1	0
598.037	1	-3
599.225	1	-2
600.413	1	19
601.602	1	11
602.790	1	8
603.978	1	3
605.166	1	3
606.355	1	2
607.543	1	6
608.731	1	5
609.919	1	10
611.107	1	0
612.295	1	0
613.483	1	2
614.671	1	7
615.858	1	14
617.046	1	-2
618.234	1	5
619.422	1	-12
620.609	1	2
621.797	1	1
622.985	1	2
624.172	1	-1
625.360	1	1
626.547	1	2
627.735	1	11
628.922	1	3
630.109	1	-13
631.297	1	-2
632.484	1	-1
633.671	1	0
634.858	1	0
636.045	1	15
637.232	1	2
638.419	1	-2
639.606	1	3
640.793	1	7
641.980	1	7
643.167	1	-9
644.354	1	0
645.541	1	3
646.728	1	3
647.914	1	-5
649.101	1	-6
650.288	1	7
651.474	1	0
652.661	1	-9
653.847	1	3
655.034	1	-1
656.220	1	-2
657.406	1	2
658.593	1	10
659.779	1	6
660.965	1	1
662.152	1	7
663.338	1	2
664.524	1	4
665.710	1	3
666.896	1	-3
668.082	1	4
669.268	1	1
670.454	1	1
671.640	1	-4
672.826	1	-7
674.011	1	-2
675.197	1	-7
676.383	1	4
677.569	1	-7
678.754	1	-7
679.940	1	-3
681.125	1	6
682.311	1	1
683.496	1	4
684.682	1	-6
685.867	1	5
687.053	1	1
688.238	1	8
688.746	1	2