File: Data/GaN_200K_800ms/GaN_sample F_spot 12_UVVIS_200 K_200um_800 ms 2x2mm1_517.txt
340.368	1	5
341.565	1	-13
342.763	1	3
343.960	1	2
345.157	1	-2
346.354	1	-10
347.552	1	-1
348.749	1	-1
349.946	1	-9
351.143	1	1
352.340	1	-7
353.537	1	0
354.734	1	4
355.931	1	1
357.127	1	-2
358.324	1	4
359.521	1	5
360.718	1	0
361.914	1	5
363.111	1	10
364.308	1	5
365.504	1	4
366.701	1	-3
367.897	1	9
369.093	1	3
370.290	1	0
371.486	1	11
372.682	1	13
373.879	1	-2
375.075	1	-7
376.271	1	2
377.467	1	1
378.663	1	-6
379.859	1	7
381.055	1	1
382.251	1	-1
383.447	1	-1
384.643	1	5
385.839	1	4
387.035	1	-6
388.230	1	3
389.426	1	3
390.622	1	-12
391.817	1	9
393.013	1	-5
394.208	1	-4
395.404	1	-13
396.599	1	-4
397.795	1	-3
398.990	1	11
400.186	1	2
401.381	1	-14
402.576	1	-1
403.771	1	-5
404.967	1	-2
406.162	1	7
407.357	1	-10
408.552	1	-3
409.747	1	1
410.942	1	5
412.137	1	2
413.332	1	-4
414.526	1	-5
415.721	1	-6
416.916	1	0
418.111	1	-3
419.305	1	12
420.500	1	-2
421.695	1	-1
422.889	1	-11
424.084	1	6
425.278	1	10
426.472	1	2
427.667	1	2
428.861	1	-4
430.055	1	9
431.250	1	-3
432.444	1	-1
433.638	1	-11
434.832	1	-7
436.026	1	5
437.220	1	-6
438.414	1	-1
439.608	1	-11
440.802	1	-8
441.996	1	1
443.190	1	-6
444.384	1	-12
445.578	1	-5
446.771	1	16
447.965	1	4
449.159	1	-5
450.352	1	-1
451.546	1	-3
452.739	1	2
453.933	1	1
455.126	1	-4
456.320	1	-7
457.513	1	-1
458.706	1	-3
459.899	1	4
461.093	1	-12
462.286	1	-1
463.479	1	-4
464.672	1	6
465.865	1	-2
467.058	1	0
468.251	1	-4
469.444	1	-14
470.637	1	3
471.830	1	-1
473.023	1	-5
474.215	1	9
475.408	1	-3
476.601	1	4
477.793	1	-7
478.986	1	1
480.179	1	-1
481.371	1	5
482.564	1	4
483.756	1	4
484.948	1	-6
486.141	1	-12
487.333	1	-2
488.525	1	2
489.718	1	0
490.910	1	4
492.102	1	-7
493.294	1	-3
494.486	1	1
495.678	1	1
496.870	1	0
498.062	1	-2
499.254	1	-5
500.446	1	-11
501.638	1	-6
502.829	1	1
504.021	1	1
505.213	1	3
506.404	1	-9
507.596	1	6
508.788	1	13
509.979	1	-1
511.171	1	-1
512.362	1	-11
513.553	1	-8
514.745	1	-2
515.936	1	-8
517.127	1	-6
518.319	1	-4
519.510	1	8
520.701	1	-2
521.892	1	-2
523.083	1	-9
524.274	1	4
525.465	1	6
526.656	1	-6
527.847	1	-6
529.038	1	4
530.229	1	9
531.419	1	-2
532.610	1	-16
533.801	1	13
534.991	1	-4
536.182	1	-10
537.373	1	-2
538.563	1	14
539.754	1	-4
540.944	1	1
542.134	1	0
543.325	1	1
544.515	1	-6
545.705	1	2
546.896	1	-6
548.086	1	0
549.276	1	-3
550.466	1	3
551.656	1	2
552.846	1	-1
554.036	1	-4
555.226	1	-16
556.416	1	-4
557.606	1	0
558.796	1	-2
559.986	1	-8
561.175	1	-6
562.365	1	-3
563.555	1	-3
564.744	1	4
565.934	1	0
567.123	1	4
568.313	1	4
569.502	1	-9
570.692	1	0
571.881	1	10
573.070	1	-3
574.260	1	9
575.449	1	0
576.638	1	-10
577.827	1	-8
579.016	1	-1
580.205	1	-3
581.394	1	-9
582.583	1	5
583.772	1	1
584.961	1	-5
586.150	1	-11
587.339	1	-3
588.528	1	-1
589.717	1	2
590.905	1	-3
592.094	1	-7
593.283	1	7
594.471	1	13
595.660	1	-4
596.848	1	-2
598.037	1	-1
599.225	1	-13
600.413	1	3
601.602	1	12
602.790	1	-5
603.978	1	0
605.166	1	1
606.355	1	-3
607.543	1	-1
608.731	1	-1
609.919	1	12
611.107	1	0
612.295	1	-6
613.483	1	-1
614.671	1	4
615.858	1	0
617.046	1	4
618.234	1	-2
619.422	1	-9
620.609	1	-4
621.797	1	-2
622.985	1	0
624.172	1	5
625.360	1	-2
626.547	1	0
627.735	1	6
628.922	1	0
630.109	1	-10
631.297	1	-6
632.484	1	-11
633.671	1	-5
634.858	1	-2
636.045	1	14
637.232	1	-1
638.419	1	1
639.606	1	0
640.793	1	8
641.980	1	3
643.167	1	-13
644.354	1	1
645.541	1	4
646.728	1	-3
647.914	1	-3
649.101	1	-5
650.288	1	7
651.474	1	-2
652.661	1	-7
653.847	1	10
655.034	1	-5
656.220	1	-13
657.406	1	-1
658.593	1	10
659.779	1	-3
660.965	1	0
662.152	1	3
663.338	1	7
664.524	1	10
665.710	1	-4
666.896	1	-12
668.082	1	4
669.268	1	1
670.454	1	-1
671.640	1	6
672.826	1	4
674.011	1	-4
675.197	1	-11
676.383	1	-1
677.569	1	-2
678.754	1	1
679.940	1	3
681.125	1	10
682.311	1	0
683.496	1	4
684.682	1	-5
685.867	1	1
687.053	1	-5
688.238	1	2
688.746	1	0