File: Data/GaN_200K_800ms/GaN_sample F_spot 12_UVVIS_200 K_200um_800 ms 2x2mm1_196.txt
340.368	1	3
341.565	1	-3
342.763	1	13
343.960	1	-3
345.157	1	-3
346.354	1	-1
347.552	1	5
348.749	1	0
349.946	1	-6
351.143	1	-6
352.340	1	8
353.537	1	-1
354.734	1	7
355.931	1	-4
357.127	1	1
358.324	1	7
359.521	1	10
360.718	1	5
361.914	1	6
363.111	1	16
364.308	1	11
365.504	1	29
366.701	1	21
367.897	1	30
369.093	1	30
370.290	1	36
371.486	1	38
372.682	1	45
373.879	1	24
375.075	1	10
376.271	1	22
377.467	1	20
378.663	1	12
379.859	1	19
381.055	1	13
382.251	1	4
383.447	1	9
384.643	1	19
385.839	1	6
387.035	1	7
388.230	1	14
389.426	1	2
390.622	1	2
391.817	1	5
393.013	1	-2
394.208	1	6
395.404	1	-2
396.599	1	3
397.795	1	1
398.990	1	1
400.186	1	5
401.381	1	5
402.576	1	-3
403.771	1	2
404.967	1	15
406.162	1	8
407.357	1	-6
408.552	1	-2
409.747	1	-4
410.942	1	4
412.137	1	3
413.332	1	9
414.526	1	-3
415.721	1	1
416.916	1	-6
418.111	1	1
419.305	1	8
420.500	1	-12
421.695	1	2
422.889	1	-9
424.084	1	4
425.278	1	10
426.472	1	-1
427.667	1	4
428.861	1	-3
430.055	1	9
431.250	1	4
432.444	1	-3
433.638	1	-6
434.832	1	-6
436.026	1	9
437.220	1	1
438.414	1	-2
439.608	1	-7
440.802	1	-9
441.996	1	8
443.190	1	1
444.384	1	-7
445.578	1	0
446.771	1	9
447.965	1	-10
449.159	1	-10
450.352	1	-1
451.546	1	0
452.739	1	-1
453.933	1	-3
455.126	1	-3
456.320	1	-7
457.513	1	3
458.706	1	-1
459.899	1	4
461.093	1	-1
462.286	1	-15
463.479	1	-14
464.672	1	-2
465.865	1	1
467.058	1	6
468.251	1	1
469.444	1	-3
470.637	1	3
471.830	1	-2
473.023	1	2
474.215	1	13
475.408	1	6
476.601	1	5
477.793	1	11
478.986	1	2
480.179	1	-2
481.371	1	-3
482.564	1	6
483.756	1	10
484.948	1	2
486.141	1	1
487.333	1	14
488.525	1	0
489.718	1	1
490.910	1	1
492.102	1	-9
493.294	1	-9
494.486	1	4
495.678	1	0
496.870	1	5
498.062	1	-4
499.254	1	3
500.446	1	-12
501.638	1	-3
502.829	1	3
504.021	1	4
505.213	1	9
506.404	1	3
507.596	1	-4
508.788	1	18
509.979	1	-8
511.171	1	-2
512.362	1	-6
513.553	1	-6
514.745	1	-8
515.936	1	5
517.127	1	-1
518.319	1	-6
519.510	1	-4
520.701	1	3
521.892	1	1
523.083	1	1
524.274	1	5
525.465	1	9
526.656	1	8
527.847	1	9
529.038	1	3
530.229	1	7
531.419	1	5
532.610	1	-7
533.801	1	14
534.991	1	5
536.182	1	-1
537.373	1	5
538.563	1	9
539.754	1	11
540.944	1	-6
542.134	1	6
543.325	1	-2
544.515	1	0
545.705	1	7
546.896	1	-4
548.086	1	5
549.276	1	2
550.466	1	0
551.656	1	2
552.846	1	-2
554.036	1	0
555.226	1	-6
556.416	1	-5
557.606	1	4
558.796	1	-3
559.986	1	0
561.175	1	-2
562.365	1	5
563.555	1	-9
564.744	1	6
565.934	1	7
567.123	1	3
568.313	1	13
569.502	1	6
570.692	1	6
571.881	1	16
573.070	1	1
574.260	1	9
575.449	1	1
576.638	1	-9
577.827	1	-2
579.016	1	12
580.205	1	3
581.394	1	8
582.583	1	8
583.772	1	14
584.961	1	9
586.150	1	-3
587.339	1	2
588.528	1	11
589.717	1	-2
590.905	1	0
592.094	1	1
593.283	1	1
594.471	1	5
595.660	1	0
596.848	1	4
598.037	1	2
599.225	1	-7
600.413	1	12
601.602	1	5
602.790	1	1
603.978	1	1
605.166	1	7
606.355	1	2
607.543	1	6
608.731	1	-1
609.919	1	9
611.107	1	-3
612.295	1	-5
613.483	1	7
614.671	1	0
615.858	1	7
617.046	1	5
618.234	1	-8
619.422	1	-13
620.609	1	9
621.797	1	3
622.985	1	4
624.172	1	3
625.360	1	5
626.547	1	1
627.735	1	5
628.922	1	4
630.109	1	-9
631.297	1	6
632.484	1	-9
633.671	1	-4
634.858	1	2
636.045	1	7
637.232	1	-4
638.419	1	5
639.606	1	-1
640.793	1	15
641.980	1	4
643.167	1	-2
644.354	1	5
645.541	1	9
646.728	1	8
647.914	1	1
649.101	1	5
650.288	1	5
651.474	1	3
652.661	1	-1
653.847	1	15
655.034	1	5
656.220	1	-2
657.406	1	6
658.593	1	2
659.779	1	4
660.965	1	-3
662.152	1	6
663.338	1	7
664.524	1	2
665.710	1	3
666.896	1	-11
668.082	1	2
669.268	1	-3
670.454	1	0
671.640	1	3
672.826	1	-9
674.011	1	-1
675.197	1	-3
676.383	1	0
677.569	1	-8
678.754	1	-4
679.940	1	-2
681.125	1	-4
682.311	1	4
683.496	1	3
684.682	1	-14
685.867	1	-2
687.053	1	-3
688.238	1	4
688.746	1	3