File: Data/GaN_200K_800ms/GaN_sample F_spot 12_UVVIS_200 K_200um_800 ms 2x2mm1_142.txt
340.368	1	1
341.565	1	-1
342.763	1	6
343.960	1	-8
345.157	1	-2
346.354	1	1
347.552	1	-2
348.749	1	-4
349.946	1	5
351.143	1	-1
352.340	1	0
353.537	1	6
354.734	1	8
355.931	1	8
357.127	1	-5
358.324	1	11
359.521	1	8
360.718	1	8
361.914	1	11
363.111	1	23
364.308	1	24
365.504	1	44
366.701	1	42
367.897	1	51
369.093	1	44
370.290	1	46
371.486	1	52
372.682	1	47
373.879	1	29
375.075	1	32
376.271	1	41
377.467	1	31
378.663	1	11
379.859	1	23
381.055	1	23
382.251	1	13
383.447	1	8
384.643	1	23
385.839	1	13
387.035	1	10
388.230	1	20
389.426	1	4
390.622	1	4
391.817	1	2
393.013	1	9
394.208	1	1
395.404	1	-1
396.599	1	5
397.795	1	6
398.990	1	-3
400.186	1	-3
401.381	1	-6
402.576	1	-1
403.771	1	1
404.967	1	7
406.162	1	8
407.357	1	-2
408.552	1	5
409.747	1	-2
410.942	1	15
412.137	1	2
413.332	1	5
414.526	1	-2
415.721	1	4
416.916	1	-13
418.111	1	-2
419.305	1	3
420.500	1	-5
421.695	1	4
422.889	1	-7
424.084	1	4
425.278	1	16
426.472	1	1
427.667	1	1
428.861	1	1
430.055	1	0
431.250	1	1
432.444	1	9
433.638	1	4
434.832	1	6
436.026	1	-2
437.220	1	12
438.414	1	8
439.608	1	-12
440.802	1	9
441.996	1	7
443.190	1	6
444.384	1	-5
445.578	1	-10
446.771	1	11
447.965	1	7
449.159	1	0
450.352	1	-1
451.546	1	3
452.739	1	3
453.933	1	2
455.126	1	-6
456.320	1	0
457.513	1	1
458.706	1	5
459.899	1	3
461.093	1	-8
462.286	1	-4
463.479	1	1
464.672	1	2
465.865	1	7
467.058	1	-6
468.251	1	-5
469.444	1	-4
470.637	1	3
471.830	1	4
473.023	1	13
474.215	1	11
475.408	1	4
476.601	1	5
477.793	1	4
478.986	1	1
480.179	1	-3
481.371	1	1
482.564	1	5
483.756	1	9
484.948	1	-12
486.141	1	6
487.333	1	6
488.525	1	0
489.718	1	-6
490.910	1	0
492.102	1	0
493.294	1	6
494.486	1	7
495.678	1	5
496.870	1	9
498.062	1	3
499.254	1	7
500.446	1	-7
501.638	1	-3
502.829	1	-3
504.021	1	2
505.213	1	9
506.404	1	0
507.596	1	0
508.788	1	15
509.979	1	1
511.171	1	3
512.362	1	-2
513.553	1	-5
514.745	1	2
515.936	1	6
517.127	1	4
518.319	1	5
519.510	1	7
520.701	1	2
521.892	1	7
523.083	1	3
524.274	1	8
525.465	1	6
526.656	1	-6
527.847	1	-1
529.038	1	2
530.229	1	6
531.419	1	7
532.610	1	-5
533.801	1	14
534.991	1	-1
536.182	1	-5
537.373	1	7
538.563	1	4
539.754	1	6
540.944	1	1
542.134	1	4
543.325	1	-6
544.515	1	3
545.705	1	-3
546.896	1	0
548.086	1	8
549.276	1	-4
550.466	1	5
551.656	1	3
552.846	1	5
554.036	1	7
555.226	1	-4
556.416	1	5
557.606	1	8
558.796	1	12
559.986	1	2
561.175	1	4
562.365	1	9
563.555	1	3
564.744	1	7
565.934	1	1
567.123	1	4
568.313	1	9
569.502	1	7
570.692	1	8
571.881	1	12
573.070	1	10
574.260	1	15
575.449	1	6
576.638	1	-7
577.827	1	7
579.016	1	14
580.205	1	3
581.394	1	11
582.583	1	20
583.772	1	9
584.961	1	12
586.150	1	16
587.339	1	6
588.528	1	9
589.717	1	8
590.905	1	-6
592.094	1	7
593.283	1	5
594.471	1	23
595.660	1	5
596.848	1	1
598.037	1	-1
599.225	1	2
600.413	1	15
601.602	1	19
602.790	1	8
603.978	1	5
605.166	1	7
606.355	1	4
607.543	1	11
608.731	1	7
609.919	1	5
611.107	1	3
612.295	1	-1
613.483	1	9
614.671	1	12
615.858	1	7
617.046	1	7
618.234	1	1
619.422	1	-1
620.609	1	13
621.797	1	4
622.985	1	2
624.172	1	3
625.360	1	4
626.547	1	7
627.735	1	5
628.922	1	2
630.109	1	-5
631.297	1	6
632.484	1	-6
633.671	1	6
634.858	1	-6
636.045	1	8
637.232	1	3
638.419	1	-1
639.606	1	5
640.793	1	11
641.980	1	5
643.167	1	5
644.354	1	3
645.541	1	0
646.728	1	2
647.914	1	1
649.101	1	1
650.288	1	10
651.474	1	3
652.661	1	-5
653.847	1	6
655.034	1	7
656.220	1	-8
657.406	1	-3
658.593	1	7
659.779	1	-4
660.965	1	12
662.152	1	3
663.338	1	14
664.524	1	3
665.710	1	8
666.896	1	-6
668.082	1	8
669.268	1	8
670.454	1	5
671.640	1	10
672.826	1	2
674.011	1	-3
675.197	1	-6
676.383	1	1
677.569	1	5
678.754	1	-2
679.940	1	10
681.125	1	3
682.311	1	6
683.496	1	7
684.682	1	-3
685.867	1	8
687.053	1	0
688.238	1	5
688.746	1	-1