File: Data/GaN_200K_800ms/GaN_sample F_spot 12_UVVIS_200 K_200um_800 ms 2x2mm1_277.txt
340.368	1	3
341.565	1	-7
342.763	1	6
343.960	1	13
345.157	1	-8
346.354	1	-10
347.552	1	9
348.749	1	-7
349.946	1	-6
351.143	1	1
352.340	1	2
353.537	1	2
354.734	1	1
355.931	1	2
357.127	1	1
358.324	1	1
359.521	1	8
360.718	1	7
361.914	1	4
363.111	1	8
364.308	1	12
365.504	1	19
366.701	1	11
367.897	1	17
369.093	1	13
370.290	1	24
371.486	1	21
372.682	1	19
373.879	1	9
375.075	1	6
376.271	1	9
377.467	1	3
378.663	1	2
379.859	1	2
381.055	1	12
382.251	1	-7
383.447	1	-4
384.643	1	9
385.839	1	-5
387.035	1	5
388.230	1	13
389.426	1	3
390.622	1	-3
391.817	1	2
393.013	1	-2
394.208	1	-2
395.404	1	1
396.599	1	-3
397.795	1	-3
398.990	1	3
400.186	1	3
401.381	1	-5
402.576	1	-7
403.771	1	7
404.967	1	5
406.162	1	7
407.357	1	-2
408.552	1	-7
409.747	1	-2
410.942	1	9
412.137	1	9
413.332	1	6
414.526	1	-3
415.721	1	2
416.916	1	-6
418.111	1	-7
419.305	1	3
420.500	1	-3
421.695	1	1
422.889	1	-12
424.084	1	1
425.278	1	10
426.472	1	-1
427.667	1	6
428.861	1	-11
430.055	1	-3
431.250	1	5
432.444	1	7
433.638	1	2
434.832	1	6
436.026	1	10
437.220	1	2
438.414	1	-8
439.608	1	-4
440.802	1	0
441.996	1	2
443.190	1	3
444.384	1	-9
445.578	1	-6
446.771	1	8
447.965	1	1
449.159	1	-7
450.352	1	-9
451.546	1	1
452.739	1	1
453.933	1	6
455.126	1	-8
456.320	1	-5
457.513	1	-2
458.706	1	-2
459.899	1	-5
461.093	1	3
462.286	1	-3
463.479	1	-5
464.672	1	1
465.865	1	-5
467.058	1	1
468.251	1	-2
469.444	1	-3
470.637	1	3
471.830	1	-6
473.023	1	3
474.215	1	7
475.408	1	-6
476.601	1	-2
477.793	1	-2
478.986	1	0
480.179	1	-4
481.371	1	3
482.564	1	-4
483.756	1	4
484.948	1	-4
486.141	1	-9
487.333	1	3
488.525	1	-8
489.718	1	0
490.910	1	0
492.102	1	2
493.294	1	-1
494.486	1	1
495.678	1	-6
496.870	1	11
498.062	1	-5
499.254	1	8
500.446	1	-8
501.638	1	3
502.829	1	6
504.021	1	-2
505.213	1	2
506.404	1	5
507.596	1	0
508.788	1	10
509.979	1	-4
511.171	1	-2
512.362	1	-14
513.553	1	-15
514.745	1	0
515.936	1	1
517.127	1	2
518.319	1	-5
519.510	1	0
520.701	1	3
521.892	1	-2
523.083	1	0
524.274	1	1
525.465	1	6
526.656	1	3
527.847	1	4
529.038	1	1
530.229	1	1
531.419	1	2
532.610	1	0
533.801	1	8
534.991	1	-3
536.182	1	-2
537.373	1	4
538.563	1	1
539.754	1	11
540.944	1	3
542.134	1	1
543.325	1	1
544.515	1	5
545.705	1	-3
546.896	1	-1
548.086	1	2
549.276	1	-2
550.466	1	-2
551.656	1	11
552.846	1	4
554.036	1	1
555.226	1	-5
556.416	1	-9
557.606	1	5
558.796	1	-4
559.986	1	-2
561.175	1	3
562.365	1	1
563.555	1	-4
564.744	1	1
565.934	1	8
567.123	1	4
568.313	1	12
569.502	1	-9
570.692	1	6
571.881	1	11
573.070	1	5
574.260	1	8
575.449	1	5
576.638	1	-5
577.827	1	0
579.016	1	14
580.205	1	9
581.394	1	1
582.583	1	9
583.772	1	11
584.961	1	6
586.150	1	-7
587.339	1	8
588.528	1	5
589.717	1	-3
590.905	1	4
592.094	1	-1
593.283	1	-6
594.471	1	12
595.660	1	5
596.848	1	2
598.037	1	-5
599.225	1	-10
600.413	1	10
601.602	1	5
602.790	1	3
603.978	1	6
605.166	1	-1
606.355	1	1
607.543	1	-2
608.731	1	-1
609.919	1	6
611.107	1	-2
612.295	1	-7
613.483	1	3
614.671	1	7
615.858	1	-4
617.046	1	3
618.234	1	-4
619.422	1	-6
620.609	1	4
621.797	1	-6
622.985	1	3
624.172	1	3
625.360	1	1
626.547	1	1
627.735	1	4
628.922	1	6
630.109	1	-6
631.297	1	-3
632.484	1	10
633.671	1	-9
634.858	1	0
636.045	1	8
637.232	1	-7
638.419	1	-6
639.606	1	3
640.793	1	6
641.980	1	-2
643.167	1	-8
644.354	1	-3
645.541	1	3
646.728	1	2
647.914	1	-8
649.101	1	-1
650.288	1	5
651.474	1	-7
652.661	1	-9
653.847	1	4
655.034	1	8
656.220	1	-9
657.406	1	7
658.593	1	8
659.779	1	4
660.965	1	13
662.152	1	0
663.338	1	11
664.524	1	1
665.710	1	3
666.896	1	-8
668.082	1	2
669.268	1	-1
670.454	1	5
671.640	1	0
672.826	1	-1
674.011	1	3
675.197	1	-6
676.383	1	5
677.569	1	-8
678.754	1	-3
679.940	1	1
681.125	1	-4
682.311	1	0
683.496	1	4
684.682	1	-2
685.867	1	-4
687.053	1	3
688.238	1	5
688.746	1	6