File: Data/GaN_200K_800ms/GaN_sample F_spot 12_UVVIS_200 K_200um_800 ms 2x2mm1_46.txt
340.368	1	7
341.565	1	-4
342.763	1	6
343.960	1	0
345.157	1	1
346.354	1	1
347.552	1	-7
348.749	1	10
349.946	1	2
351.143	1	11
352.340	1	12
353.537	1	23
354.734	1	28
355.931	1	33
357.127	1	27
358.324	1	40
359.521	1	62
360.718	1	79
361.914	1	123
363.111	1	157
364.308	1	216
365.504	1	343
366.701	1	476
367.897	1	595
369.093	1	687
370.290	1	683
371.486	1	617
372.682	1	512
373.879	1	403
375.075	1	357
376.271	1	292
377.467	1	242
378.663	1	199
379.859	1	141
381.055	1	141
382.251	1	108
383.447	1	98
384.643	1	95
385.839	1	87
387.035	1	70
388.230	1	70
389.426	1	47
390.622	1	36
391.817	1	48
393.013	1	36
394.208	1	27
395.404	1	23
396.599	1	30
397.795	1	25
398.990	1	34
400.186	1	23
401.381	1	10
402.576	1	13
403.771	1	20
404.967	1	19
406.162	1	22
407.357	1	10
408.552	1	8
409.747	1	10
410.942	1	18
412.137	1	11
413.332	1	14
414.526	1	11
415.721	1	7
416.916	1	3
418.111	1	9
419.305	1	17
420.500	1	8
421.695	1	-2
422.889	1	-3
424.084	1	14
425.278	1	18
426.472	1	13
427.667	1	20
428.861	1	7
430.055	1	12
431.250	1	7
432.444	1	9
433.638	1	8
434.832	1	7
436.026	1	8
437.220	1	14
438.414	1	-5
439.608	1	7
440.802	1	-5
441.996	1	8
443.190	1	9
444.384	1	-8
445.578	1	-2
446.771	1	18
447.965	1	5
449.159	1	-7
450.352	1	0
451.546	1	7
452.739	1	11
453.933	1	-1
455.126	1	-7
456.320	1	0
457.513	1	13
458.706	1	6
459.899	1	3
461.093	1	15
462.286	1	10
463.479	1	6
464.672	1	7
465.865	1	9
467.058	1	1
468.251	1	9
469.444	1	1
470.637	1	9
471.830	1	3
473.023	1	6
474.215	1	12
475.408	1	9
476.601	1	10
477.793	1	9
478.986	1	12
480.179	1	7
481.371	1	2
482.564	1	10
483.756	1	14
484.948	1	2
486.141	1	3
487.333	1	3
488.525	1	11
489.718	1	10
490.910	1	15
492.102	1	12
493.294	1	11
494.486	1	21
495.678	1	18
496.870	1	20
498.062	1	23
499.254	1	10
500.446	1	15
501.638	1	25
502.829	1	27
504.021	1	33
505.213	1	40
506.404	1	31
507.596	1	33
508.788	1	37
509.979	1	26
511.171	1	28
512.362	1	31
513.553	1	32
514.745	1	38
515.936	1	37
517.127	1	32
518.319	1	39
519.510	1	38
520.701	1	41
521.892	1	42
523.083	1	41
524.274	1	42
525.465	1	43
526.656	1	38
527.847	1	39
529.038	1	51
530.229	1	38
531.419	1	50
532.610	1	43
533.801	1	59
534.991	1	53
536.182	1	47
537.373	1	44
538.563	1	61
539.754	1	54
540.944	1	43
542.134	1	47
543.325	1	42
544.515	1	41
545.705	1	46
546.896	1	54
548.086	1	52
549.276	1	44
550.466	1	53
551.656	1	62
552.846	1	53
554.036	1	52
555.226	1	50
556.416	1	44
557.606	1	63
558.796	1	43
559.986	1	57
561.175	1	53
562.365	1	48
563.555	1	45
564.744	1	54
565.934	1	62
567.123	1	55
568.313	1	60
569.502	1	63
570.692	1	64
571.881	1	64
573.070	1	46
574.260	1	66
575.449	1	54
576.638	1	52
577.827	1	36
579.016	1	62
580.205	1	45
581.394	1	44
582.583	1	65
583.772	1	54
584.961	1	48
586.150	1	46
587.339	1	52
588.528	1	58
589.717	1	48
590.905	1	49
592.094	1	36
593.283	1	46
594.471	1	52
595.660	1	43
596.848	1	40
598.037	1	40
599.225	1	33
600.413	1	46
601.602	1	49
602.790	1	42
603.978	1	36
605.166	1	36
606.355	1	43
607.543	1	44
608.731	1	42
609.919	1	56
611.107	1	33
612.295	1	25
613.483	1	43
614.671	1	36
615.858	1	38
617.046	1	34
618.234	1	34
619.422	1	28
620.609	1	34
621.797	1	24
622.985	1	24
624.172	1	27
625.360	1	24
626.547	1	30
627.735	1	37
628.922	1	32
630.109	1	18
631.297	1	21
632.484	1	16
633.671	1	14
634.858	1	22
636.045	1	32
637.232	1	17
638.419	1	9
639.606	1	30
640.793	1	31
641.980	1	41
643.167	1	12
644.354	1	25
645.541	1	16
646.728	1	10
647.914	1	13
649.101	1	25
650.288	1	26
651.474	1	10
652.661	1	27
653.847	1	31
655.034	1	23
656.220	1	15
657.406	1	17
658.593	1	18
659.779	1	25
660.965	1	24
662.152	1	12
663.338	1	23
664.524	1	15
665.710	1	18
666.896	1	11
668.082	1	22
669.268	1	18
670.454	1	15
671.640	1	14
672.826	1	9
674.011	1	19
675.197	1	15
676.383	1	19
677.569	1	11
678.754	1	9
679.940	1	10
681.125	1	17
682.311	1	14
683.496	1	21
684.682	1	12
685.867	1	17
687.053	1	17
688.238	1	21
688.746	1	7