File: Data/GaN_200K_800ms/GaN_sample F_spot 12_UVVIS_200 K_200um_800 ms 2x2mm1_422.txt
340.368	1	-2
341.565	1	-12
342.763	1	4
343.960	1	5
345.157	1	-10
346.354	1	0
347.552	1	-12
348.749	1	-9
349.946	1	-5
351.143	1	9
352.340	1	-2
353.537	1	-4
354.734	1	3
355.931	1	6
357.127	1	-3
358.324	1	-7
359.521	1	-1
360.718	1	-3
361.914	1	4
363.111	1	-2
364.308	1	0
365.504	1	11
366.701	1	3
367.897	1	10
369.093	1	1
370.290	1	1
371.486	1	6
372.682	1	8
373.879	1	0
375.075	1	2
376.271	1	4
377.467	1	9
378.663	1	0
379.859	1	0
381.055	1	11
382.251	1	-8
383.447	1	4
384.643	1	8
385.839	1	-2
387.035	1	6
388.230	1	7
389.426	1	0
390.622	1	0
391.817	1	0
393.013	1	0
394.208	1	5
395.404	1	1
396.599	1	-10
397.795	1	3
398.990	1	-3
400.186	1	-8
401.381	1	-8
402.576	1	-1
403.771	1	4
404.967	1	-1
406.162	1	8
407.357	1	2
408.552	1	-6
409.747	1	2
410.942	1	1
412.137	1	1
413.332	1	0
414.526	1	-4
415.721	1	-2
416.916	1	-5
418.111	1	0
419.305	1	2
420.500	1	-10
421.695	1	-7
422.889	1	-2
424.084	1	1
425.278	1	10
426.472	1	-5
427.667	1	0
428.861	1	-5
430.055	1	-9
431.250	1	-5
432.444	1	1
433.638	1	-2
434.832	1	-1
436.026	1	9
437.220	1	8
438.414	1	-10
439.608	1	-11
440.802	1	-1
441.996	1	6
443.190	1	1
444.384	1	0
445.578	1	-5
446.771	1	3
447.965	1	3
449.159	1	-6
450.352	1	3
451.546	1	-6
452.739	1	4
453.933	1	3
455.126	1	-10
456.320	1	-9
457.513	1	7
458.706	1	4
459.899	1	2
461.093	1	2
462.286	1	1
463.479	1	2
464.672	1	-6
465.865	1	-6
467.058	1	-13
468.251	1	-6
469.444	1	0
470.637	1	-6
471.830	1	-2
473.023	1	3
474.215	1	11
475.408	1	-4
476.601	1	-10
477.793	1	0
478.986	1	3
480.179	1	5
481.371	1	3
482.564	1	1
483.756	1	-1
484.948	1	-4
486.141	1	1
487.333	1	4
488.525	1	1
489.718	1	-1
490.910	1	5
492.102	1	-4
493.294	1	-5
494.486	1	2
495.678	1	-7
496.870	1	7
498.062	1	3
499.254	1	2
500.446	1	-12
501.638	1	-6
502.829	1	3
504.021	1	-6
505.213	1	1
506.404	1	1
507.596	1	-2
508.788	1	13
509.979	1	0
511.171	1	-1
512.362	1	-12
513.553	1	-15
514.745	1	-3
515.936	1	-2
517.127	1	-1
518.319	1	-3
519.510	1	-2
520.701	1	2
521.892	1	-5
523.083	1	-5
524.274	1	-6
525.465	1	11
526.656	1	-6
527.847	1	2
529.038	1	-1
530.229	1	2
531.419	1	1
532.610	1	-3
533.801	1	7
534.991	1	-2
536.182	1	-4
537.373	1	1
538.563	1	0
539.754	1	-2
540.944	1	1
542.134	1	0
543.325	1	-5
544.515	1	-1
545.705	1	-12
546.896	1	0
548.086	1	2
549.276	1	-2
550.466	1	-1
551.656	1	4
552.846	1	1
554.036	1	-5
555.226	1	-5
556.416	1	-8
557.606	1	4
558.796	1	2
559.986	1	-7
561.175	1	-2
562.365	1	9
563.555	1	-3
564.744	1	0
565.934	1	14
567.123	1	5
568.313	1	8
569.502	1	-8
570.692	1	7
571.881	1	11
573.070	1	2
574.260	1	6
575.449	1	-7
576.638	1	-5
577.827	1	-6
579.016	1	4
580.205	1	2
581.394	1	0
582.583	1	8
583.772	1	7
584.961	1	2
586.150	1	-2
587.339	1	1
588.528	1	-1
589.717	1	-6
590.905	1	-8
592.094	1	-9
593.283	1	-2
594.471	1	7
595.660	1	-5
596.848	1	-4
598.037	1	-4
599.225	1	-10
600.413	1	10
601.602	1	9
602.790	1	-3
603.978	1	-8
605.166	1	6
606.355	1	0
607.543	1	-4
608.731	1	-11
609.919	1	4
611.107	1	4
612.295	1	0
613.483	1	2
614.671	1	10
615.858	1	0
617.046	1	-2
618.234	1	-10
619.422	1	-8
620.609	1	3
621.797	1	0
622.985	1	-2
624.172	1	4
625.360	1	0
626.547	1	-2
627.735	1	-4
628.922	1	4
630.109	1	-12
631.297	1	0
632.484	1	-2
633.671	1	0
634.858	1	-8
636.045	1	8
637.232	1	0
638.419	1	-6
639.606	1	-1
640.793	1	6
641.980	1	4
643.167	1	-2
644.354	1	-3
645.541	1	0
646.728	1	-9
647.914	1	-7
649.101	1	-2
650.288	1	11
651.474	1	-7
652.661	1	-5
653.847	1	3
655.034	1	-2
656.220	1	-9
657.406	1	2
658.593	1	7
659.779	1	-2
660.965	1	2
662.152	1	-6
663.338	1	4
664.524	1	3
665.710	1	0
666.896	1	-6
668.082	1	6
669.268	1	-8
670.454	1	4
671.640	1	-2
672.826	1	-2
674.011	1	1
675.197	1	-7
676.383	1	6
677.569	1	-10
678.754	1	-13
679.940	1	-5
681.125	1	4
682.311	1	6
683.496	1	0
684.682	1	-10
685.867	1	-3
687.053	1	2
688.238	1	-1
688.746	1	-1