File: Data/GaN_200K_800ms/GaN_sample F_spot 12_UVVIS_200 K_200um_800 ms 2x2mm1_26.txt
340.368	1	10
341.565	1	-15
342.763	1	4
343.960	1	0
345.157	1	-3
346.354	1	2
347.552	1	-10
348.749	1	-6
349.946	1	4
351.143	1	6
352.340	1	2
353.537	1	-2
354.734	1	6
355.931	1	-3
357.127	1	8
358.324	1	1
359.521	1	0
360.718	1	4
361.914	1	5
363.111	1	-7
364.308	1	5
365.504	1	7
366.701	1	1
367.897	1	3
369.093	1	-1
370.290	1	-1
371.486	1	1
372.682	1	5
373.879	1	0
375.075	1	4
376.271	1	3
377.467	1	4
378.663	1	2
379.859	1	-3
381.055	1	-1
382.251	1	-1
383.447	1	3
384.643	1	3
385.839	1	8
387.035	1	3
388.230	1	0
389.426	1	2
390.622	1	-2
391.817	1	1
393.013	1	-4
394.208	1	4
395.404	1	-3
396.599	1	2
397.795	1	2
398.990	1	6
400.186	1	1
401.381	1	2
402.576	1	0
403.771	1	10
404.967	1	8
406.162	1	4
407.357	1	-3
408.552	1	2
409.747	1	8
410.942	1	7
412.137	1	11
413.332	1	5
414.526	1	3
415.721	1	-2
416.916	1	-6
418.111	1	-4
419.305	1	7
420.500	1	-2
421.695	1	-1
422.889	1	-7
424.084	1	0
425.278	1	3
426.472	1	5
427.667	1	5
428.861	1	-7
430.055	1	3
431.250	1	-7
432.444	1	7
433.638	1	7
434.832	1	-2
436.026	1	11
437.220	1	5
438.414	1	0
439.608	1	-6
440.802	1	-1
441.996	1	2
443.190	1	-2
444.384	1	-4
445.578	1	-3
446.771	1	9
447.965	1	-4
449.159	1	-4
450.352	1	-5
451.546	1	-7
452.739	1	4
453.933	1	-7
455.126	1	3
456.320	1	-7
457.513	1	9
458.706	1	1
459.899	1	3
461.093	1	7
462.286	1	4
463.479	1	-5
464.672	1	-3
465.865	1	2
467.058	1	0
468.251	1	8
469.444	1	-9
470.637	1	8
471.830	1	3
473.023	1	-1
474.215	1	9
475.408	1	-2
476.601	1	7
477.793	1	-6
478.986	1	-2
480.179	1	-1
481.371	1	3
482.564	1	-6
483.756	1	8
484.948	1	-5
486.141	1	-6
487.333	1	0
488.525	1	-5
489.718	1	2
490.910	1	-3
492.102	1	0
493.294	1	-6
494.486	1	9
495.678	1	-1
496.870	1	1
498.062	1	5
499.254	1	2
500.446	1	-7
501.638	1	-4
502.829	1	1
504.021	1	-1
505.213	1	7
506.404	1	6
507.596	1	4
508.788	1	14
509.979	1	6
511.171	1	-4
512.362	1	-7
513.553	1	-12
514.745	1	0
515.936	1	5
517.127	1	4
518.319	1	5
519.510	1	5
520.701	1	-1
521.892	1	1
523.083	1	0
524.274	1	5
525.465	1	10
526.656	1	-7
527.847	1	4
529.038	1	3
530.229	1	5
531.419	1	9
532.610	1	-4
533.801	1	15
534.991	1	-4
536.182	1	-9
537.373	1	-2
538.563	1	-2
539.754	1	6
540.944	1	-2
542.134	1	7
543.325	1	-2
544.515	1	-4
545.705	1	-3
546.896	1	-5
548.086	1	-3
549.276	1	-1
550.466	1	-1
551.656	1	2
552.846	1	-4
554.036	1	-3
555.226	1	-11
556.416	1	-4
557.606	1	5
558.796	1	3
559.986	1	-2
561.175	1	4
562.365	1	8
563.555	1	-2
564.744	1	1
565.934	1	8
567.123	1	8
568.313	1	7
569.502	1	-6
570.692	1	5
571.881	1	12
573.070	1	3
574.260	1	-1
575.449	1	1
576.638	1	-12
577.827	1	2
579.016	1	1
580.205	1	6
581.394	1	-6
582.583	1	11
583.772	1	2
584.961	1	-2
586.150	1	-3
587.339	1	3
588.528	1	3
589.717	1	2
590.905	1	-3
592.094	1	3
593.283	1	-5
594.471	1	8
595.660	1	-1
596.848	1	4
598.037	1	3
599.225	1	-1
600.413	1	12
601.602	1	8
602.790	1	-4
603.978	1	-1
605.166	1	7
606.355	1	-2
607.543	1	-9
608.731	1	6
609.919	1	4
611.107	1	-7
612.295	1	-8
613.483	1	3
614.671	1	3
615.858	1	5
617.046	1	3
618.234	1	-6
619.422	1	-10
620.609	1	5
621.797	1	2
622.985	1	-6
624.172	1	-8
625.360	1	0
626.547	1	-3
627.735	1	3
628.922	1	0
630.109	1	-6
631.297	1	3
632.484	1	-2
633.671	1	4
634.858	1	-3
636.045	1	13
637.232	1	1
638.419	1	-9
639.606	1	5
640.793	1	3
641.980	1	9
643.167	1	-2
644.354	1	4
645.541	1	11
646.728	1	3
647.914	1	-8
649.101	1	-2
650.288	1	5
651.474	1	4
652.661	1	2
653.847	1	10
655.034	1	7
656.220	1	0
657.406	1	0
658.593	1	9
659.779	1	-5
660.965	1	5
662.152	1	-4
663.338	1	5
664.524	1	8
665.710	1	5
666.896	1	1
668.082	1	-2
669.268	1	1
670.454	1	6
671.640	1	13
672.826	1	-2
674.011	1	2
675.197	1	-1
676.383	1	10
677.569	1	5
678.754	1	-2
679.940	1	-5
681.125	1	1
682.311	1	12
683.496	1	-2
684.682	1	-6
685.867	1	0
687.053	1	5
688.238	1	1
688.746	1	0