File: Data/GaN_200K_800ms/GaN_sample F_spot 12_UVVIS_200 K_200um_800 ms 2x2mm1_113.txt
340.368	1	14
341.565	1	-8
342.763	1	11
343.960	1	3
345.157	1	-7
346.354	1	2
347.552	1	-10
348.749	1	0
349.946	1	1
351.143	1	10
352.340	1	1
353.537	1	8
354.734	1	5
355.931	1	4
357.127	1	6
358.324	1	11
359.521	1	15
360.718	1	16
361.914	1	28
363.111	1	22
364.308	1	28
365.504	1	54
366.701	1	57
367.897	1	62
369.093	1	85
370.290	1	80
371.486	1	77
372.682	1	65
373.879	1	52
375.075	1	55
376.271	1	50
377.467	1	31
378.663	1	28
379.859	1	27
381.055	1	21
382.251	1	5
383.447	1	15
384.643	1	24
385.839	1	19
387.035	1	12
388.230	1	16
389.426	1	9
390.622	1	10
391.817	1	10
393.013	1	5
394.208	1	9
395.404	1	2
396.599	1	2
397.795	1	16
398.990	1	6
400.186	1	10
401.381	1	3
402.576	1	2
403.771	1	10
404.967	1	3
406.162	1	13
407.357	1	1
408.552	1	-10
409.747	1	5
410.942	1	9
412.137	1	9
413.332	1	5
414.526	1	-1
415.721	1	7
416.916	1	-2
418.111	1	6
419.305	1	8
420.500	1	-4
421.695	1	4
422.889	1	2
424.084	1	2
425.278	1	7
426.472	1	-8
427.667	1	10
428.861	1	-1
430.055	1	-1
431.250	1	9
432.444	1	8
433.638	1	-4
434.832	1	0
436.026	1	3
437.220	1	4
438.414	1	-14
439.608	1	-5
440.802	1	-6
441.996	1	2
443.190	1	7
444.384	1	-5
445.578	1	-9
446.771	1	12
447.965	1	-2
449.159	1	-4
450.352	1	1
451.546	1	14
452.739	1	5
453.933	1	-3
455.126	1	1
456.320	1	6
457.513	1	11
458.706	1	0
459.899	1	6
461.093	1	6
462.286	1	1
463.479	1	1
464.672	1	10
465.865	1	1
467.058	1	3
468.251	1	8
469.444	1	-9
470.637	1	-7
471.830	1	4
473.023	1	4
474.215	1	11
475.408	1	3
476.601	1	4
477.793	1	2
478.986	1	-1
480.179	1	1
481.371	1	10
482.564	1	8
483.756	1	13
484.948	1	-2
486.141	1	-1
487.333	1	6
488.525	1	3
489.718	1	-1
490.910	1	2
492.102	1	1
493.294	1	-1
494.486	1	2
495.678	1	11
496.870	1	7
498.062	1	6
499.254	1	4
500.446	1	-5
501.638	1	-8
502.829	1	0
504.021	1	8
505.213	1	16
506.404	1	14
507.596	1	7
508.788	1	14
509.979	1	0
511.171	1	8
512.362	1	-2
513.553	1	-10
514.745	1	0
515.936	1	1
517.127	1	7
518.319	1	13
519.510	1	9
520.701	1	10
521.892	1	8
523.083	1	5
524.274	1	9
525.465	1	13
526.656	1	8
527.847	1	4
529.038	1	5
530.229	1	5
531.419	1	11
532.610	1	11
533.801	1	21
534.991	1	-1
536.182	1	9
537.373	1	12
538.563	1	8
539.754	1	19
540.944	1	4
542.134	1	7
543.325	1	5
544.515	1	2
545.705	1	11
546.896	1	14
548.086	1	16
549.276	1	3
550.466	1	13
551.656	1	23
552.846	1	5
554.036	1	17
555.226	1	4
556.416	1	6
557.606	1	20
558.796	1	18
559.986	1	-7
561.175	1	12
562.365	1	21
563.555	1	13
564.744	1	4
565.934	1	9
567.123	1	12
568.313	1	17
569.502	1	9
570.692	1	11
571.881	1	18
573.070	1	6
574.260	1	15
575.449	1	8
576.638	1	0
577.827	1	1
579.016	1	14
580.205	1	16
581.394	1	14
582.583	1	15
583.772	1	11
584.961	1	13
586.150	1	13
587.339	1	15
588.528	1	9
589.717	1	11
590.905	1	13
592.094	1	8
593.283	1	4
594.471	1	12
595.660	1	6
596.848	1	1
598.037	1	7
599.225	1	3
600.413	1	20
601.602	1	12
602.790	1	11
603.978	1	7
605.166	1	11
606.355	1	9
607.543	1	3
608.731	1	8
609.919	1	19
611.107	1	9
612.295	1	6
613.483	1	4
614.671	1	17
615.858	1	13
617.046	1	11
618.234	1	8
619.422	1	0
620.609	1	9
621.797	1	13
622.985	1	6
624.172	1	-1
625.360	1	1
626.547	1	14
627.735	1	8
628.922	1	8
630.109	1	-8
631.297	1	4
632.484	1	8
633.671	1	-1
634.858	1	3
636.045	1	6
637.232	1	2
638.419	1	3
639.606	1	6
640.793	1	9
641.980	1	6
643.167	1	2
644.354	1	9
645.541	1	12
646.728	1	8
647.914	1	5
649.101	1	3
650.288	1	13
651.474	1	4
652.661	1	1
653.847	1	20
655.034	1	5
656.220	1	-3
657.406	1	5
658.593	1	3
659.779	1	3
660.965	1	8
662.152	1	4
663.338	1	14
664.524	1	1
665.710	1	13
666.896	1	-1
668.082	1	5
669.268	1	11
670.454	1	-3
671.640	1	5
672.826	1	0
674.011	1	3
675.197	1	-12
676.383	1	17
677.569	1	0
678.754	1	1
679.940	1	8
681.125	1	6
682.311	1	13
683.496	1	9
684.682	1	-6
685.867	1	7
687.053	1	6
688.238	1	7
688.746	1	1