File: Data/GaN_200K_800ms/GaN_sample F_spot 12_UVVIS_200 K_200um_800 ms 2x2mm1_260.txt
340.368	1	10
341.565	1	-7
342.763	1	9
343.960	1	1
345.157	1	-1
346.354	1	4
347.552	1	-5
348.749	1	-5
349.946	1	-8
351.143	1	0
352.340	1	0
353.537	1	-7
354.734	1	8
355.931	1	2
357.127	1	6
358.324	1	1
359.521	1	2
360.718	1	0
361.914	1	8
363.111	1	12
364.308	1	5
365.504	1	15
366.701	1	10
367.897	1	16
369.093	1	14
370.290	1	14
371.486	1	21
372.682	1	25
373.879	1	14
375.075	1	15
376.271	1	19
377.467	1	4
378.663	1	4
379.859	1	3
381.055	1	12
382.251	1	-1
383.447	1	5
384.643	1	11
385.839	1	-3
387.035	1	10
388.230	1	10
389.426	1	3
390.622	1	0
391.817	1	-1
393.013	1	-8
394.208	1	2
395.404	1	-3
396.599	1	-6
397.795	1	8
398.990	1	4
400.186	1	6
401.381	1	-4
402.576	1	1
403.771	1	4
404.967	1	2
406.162	1	16
407.357	1	-3
408.552	1	-12
409.747	1	5
410.942	1	3
412.137	1	11
413.332	1	1
414.526	1	-1
415.721	1	-3
416.916	1	-9
418.111	1	-1
419.305	1	-2
420.500	1	-2
421.695	1	-2
422.889	1	-8
424.084	1	2
425.278	1	4
426.472	1	3
427.667	1	7
428.861	1	-5
430.055	1	7
431.250	1	-4
432.444	1	6
433.638	1	6
434.832	1	5
436.026	1	11
437.220	1	6
438.414	1	-18
439.608	1	-13
440.802	1	-2
441.996	1	3
443.190	1	0
444.384	1	-9
445.578	1	-14
446.771	1	16
447.965	1	3
449.159	1	-2
450.352	1	-4
451.546	1	3
452.739	1	9
453.933	1	4
455.126	1	-5
456.320	1	-5
457.513	1	-8
458.706	1	3
459.899	1	0
461.093	1	-5
462.286	1	-7
463.479	1	-4
464.672	1	-4
465.865	1	-9
467.058	1	-7
468.251	1	-5
469.444	1	-8
470.637	1	-3
471.830	1	-1
473.023	1	5
474.215	1	0
475.408	1	7
476.601	1	-10
477.793	1	-2
478.986	1	3
480.179	1	1
481.371	1	-1
482.564	1	1
483.756	1	13
484.948	1	1
486.141	1	-5
487.333	1	5
488.525	1	-6
489.718	1	-6
490.910	1	0
492.102	1	-8
493.294	1	-6
494.486	1	1
495.678	1	-1
496.870	1	5
498.062	1	1
499.254	1	0
500.446	1	-7
501.638	1	-6
502.829	1	3
504.021	1	-5
505.213	1	5
506.404	1	1
507.596	1	2
508.788	1	12
509.979	1	-4
511.171	1	-3
512.362	1	-11
513.553	1	-14
514.745	1	-3
515.936	1	-2
517.127	1	-15
518.319	1	4
519.510	1	2
520.701	1	1
521.892	1	2
523.083	1	3
524.274	1	6
525.465	1	10
526.656	1	-2
527.847	1	4
529.038	1	8
530.229	1	4
531.419	1	11
532.610	1	-6
533.801	1	16
534.991	1	1
536.182	1	-2
537.373	1	4
538.563	1	11
539.754	1	11
540.944	1	-3
542.134	1	11
543.325	1	9
544.515	1	-4
545.705	1	4
546.896	1	-4
548.086	1	9
549.276	1	1
550.466	1	9
551.656	1	5
552.846	1	5
554.036	1	2
555.226	1	-3
556.416	1	-6
557.606	1	1
558.796	1	5
559.986	1	-7
561.175	1	7
562.365	1	8
563.555	1	-2
564.744	1	-1
565.934	1	13
567.123	1	-3
568.313	1	5
569.502	1	-8
570.692	1	8
571.881	1	11
573.070	1	2
574.260	1	12
575.449	1	-7
576.638	1	-12
577.827	1	-1
579.016	1	12
580.205	1	0
581.394	1	-3
582.583	1	6
583.772	1	5
584.961	1	7
586.150	1	3
587.339	1	4
588.528	1	2
589.717	1	-2
590.905	1	-1
592.094	1	-2
593.283	1	6
594.471	1	8
595.660	1	0
596.848	1	-1
598.037	1	5
599.225	1	-8
600.413	1	10
601.602	1	9
602.790	1	-3
603.978	1	3
605.166	1	6
606.355	1	15
607.543	1	-2
608.731	1	8
609.919	1	6
611.107	1	-3
612.295	1	-7
613.483	1	0
614.671	1	9
615.858	1	6
617.046	1	1
618.234	1	-4
619.422	1	-5
620.609	1	2
621.797	1	-12
622.985	1	-6
624.172	1	-8
625.360	1	-1
626.547	1	5
627.735	1	7
628.922	1	3
630.109	1	-9
631.297	1	1
632.484	1	4
633.671	1	1
634.858	1	-2
636.045	1	4
637.232	1	-4
638.419	1	-17
639.606	1	1
640.793	1	9
641.980	1	11
643.167	1	-8
644.354	1	-8
645.541	1	0
646.728	1	-4
647.914	1	2
649.101	1	0
650.288	1	1
651.474	1	6
652.661	1	7
653.847	1	5
655.034	1	9
656.220	1	-7
657.406	1	2
658.593	1	14
659.779	1	-3
660.965	1	1
662.152	1	2
663.338	1	6
664.524	1	-2
665.710	1	-4
666.896	1	1
668.082	1	1
669.268	1	3
670.454	1	3
671.640	1	3
672.826	1	-11
674.011	1	-4
675.197	1	-8
676.383	1	8
677.569	1	0
678.754	1	-4
679.940	1	-1
681.125	1	4
682.311	1	2
683.496	1	2
684.682	1	-3
685.867	1	1
687.053	1	1
688.238	1	0
688.746	1	-1