File: Data/GaN_200K_800ms/GaN_sample F_spot 12_UVVIS_200 K_200um_800 ms 2x2mm1_79.txt
340.368	1	4
341.565	1	-7
342.763	1	8
343.960	1	12
345.157	1	-3
346.354	1	4
347.552	1	3
348.749	1	1
349.946	1	-6
351.143	1	0
352.340	1	6
353.537	1	7
354.734	1	8
355.931	1	14
357.127	1	21
358.324	1	17
359.521	1	32
360.718	1	34
361.914	1	38
363.111	1	51
364.308	1	58
365.504	1	91
366.701	1	105
367.897	1	129
369.093	1	139
370.290	1	132
371.486	1	149
372.682	1	125
373.879	1	108
375.075	1	92
376.271	1	72
377.467	1	70
378.663	1	51
379.859	1	52
381.055	1	49
382.251	1	27
383.447	1	33
384.643	1	34
385.839	1	31
387.035	1	25
388.230	1	22
389.426	1	21
390.622	1	16
391.817	1	11
393.013	1	18
394.208	1	10
395.404	1	3
396.599	1	9
397.795	1	11
398.990	1	14
400.186	1	8
401.381	1	0
402.576	1	-8
403.771	1	11
404.967	1	13
406.162	1	12
407.357	1	4
408.552	1	11
409.747	1	2
410.942	1	5
412.137	1	11
413.332	1	6
414.526	1	3
415.721	1	3
416.916	1	-7
418.111	1	2
419.305	1	11
420.500	1	5
421.695	1	3
422.889	1	-16
424.084	1	4
425.278	1	14
426.472	1	-4
427.667	1	12
428.861	1	-1
430.055	1	8
431.250	1	-1
432.444	1	1
433.638	1	5
434.832	1	9
436.026	1	13
437.220	1	3
438.414	1	4
439.608	1	-5
440.802	1	5
441.996	1	7
443.190	1	2
444.384	1	-4
445.578	1	-4
446.771	1	15
447.965	1	7
449.159	1	-7
450.352	1	1
451.546	1	2
452.739	1	7
453.933	1	3
455.126	1	-9
456.320	1	-1
457.513	1	9
458.706	1	8
459.899	1	7
461.093	1	2
462.286	1	6
463.479	1	-10
464.672	1	4
465.865	1	2
467.058	1	8
468.251	1	-5
469.444	1	3
470.637	1	6
471.830	1	5
473.023	1	6
474.215	1	17
475.408	1	7
476.601	1	4
477.793	1	1
478.986	1	2
480.179	1	1
481.371	1	1
482.564	1	11
483.756	1	13
484.948	1	-6
486.141	1	2
487.333	1	4
488.525	1	3
489.718	1	4
490.910	1	8
492.102	1	-1
493.294	1	3
494.486	1	13
495.678	1	-2
496.870	1	7
498.062	1	10
499.254	1	4
500.446	1	-3
501.638	1	1
502.829	1	6
504.021	1	7
505.213	1	12
506.404	1	16
507.596	1	14
508.788	1	25
509.979	1	2
511.171	1	6
512.362	1	3
513.553	1	-5
514.745	1	0
515.936	1	8
517.127	1	9
518.319	1	15
519.510	1	13
520.701	1	13
521.892	1	4
523.083	1	9
524.274	1	7
525.465	1	14
526.656	1	16
527.847	1	12
529.038	1	16
530.229	1	5
531.419	1	10
532.610	1	0
533.801	1	24
534.991	1	12
536.182	1	9
537.373	1	8
538.563	1	22
539.754	1	7
540.944	1	17
542.134	1	18
543.325	1	7
544.515	1	8
545.705	1	13
546.896	1	12
548.086	1	14
549.276	1	16
550.466	1	10
551.656	1	22
552.846	1	29
554.036	1	18
555.226	1	3
556.416	1	8
557.606	1	18
558.796	1	16
559.986	1	9
561.175	1	12
562.365	1	15
563.555	1	8
564.744	1	13
565.934	1	18
567.123	1	10
568.313	1	22
569.502	1	12
570.692	1	20
571.881	1	15
573.070	1	2
574.260	1	15
575.449	1	4
576.638	1	12
577.827	1	8
579.016	1	17
580.205	1	13
581.394	1	11
582.583	1	16
583.772	1	14
584.961	1	10
586.150	1	9
587.339	1	9
588.528	1	18
589.717	1	15
590.905	1	12
592.094	1	8
593.283	1	12
594.471	1	28
595.660	1	13
596.848	1	8
598.037	1	11
599.225	1	-4
600.413	1	20
601.602	1	17
602.790	1	20
603.978	1	16
605.166	1	26
606.355	1	13
607.543	1	12
608.731	1	17
609.919	1	22
611.107	1	15
612.295	1	7
613.483	1	15
614.671	1	12
615.858	1	11
617.046	1	10
618.234	1	8
619.422	1	11
620.609	1	18
621.797	1	-1
622.985	1	9
624.172	1	15
625.360	1	12
626.547	1	9
627.735	1	21
628.922	1	16
630.109	1	-4
631.297	1	6
632.484	1	5
633.671	1	1
634.858	1	5
636.045	1	24
637.232	1	2
638.419	1	8
639.606	1	10
640.793	1	16
641.980	1	15
643.167	1	-5
644.354	1	7
645.541	1	6
646.728	1	13
647.914	1	3
649.101	1	11
650.288	1	7
651.474	1	1
652.661	1	2
653.847	1	7
655.034	1	7
656.220	1	5
657.406	1	9
658.593	1	13
659.779	1	10
660.965	1	17
662.152	1	6
663.338	1	12
664.524	1	4
665.710	1	5
666.896	1	8
668.082	1	10
669.268	1	10
670.454	1	7
671.640	1	0
672.826	1	12
674.011	1	12
675.197	1	-7
676.383	1	15
677.569	1	0
678.754	1	-2
679.940	1	3
681.125	1	11
682.311	1	10
683.496	1	6
684.682	1	1
685.867	1	2
687.053	1	4
688.238	1	2
688.746	1	6