File: Data/GaN_200K_800ms/GaN_sample F_spot 12_UVVIS_200 K_200um_800 ms 2x2mm1_43.txt
340.368	1	4
341.565	1	-3
342.763	1	9
343.960	1	5
345.157	1	-3
346.354	1	5
347.552	1	6
348.749	1	3
349.946	1	-2
351.143	1	12
352.340	1	22
353.537	1	23
354.734	1	30
355.931	1	37
357.127	1	41
358.324	1	46
359.521	1	77
360.718	1	110
361.914	1	147
363.111	1	200
364.308	1	294
365.504	1	474
366.701	1	621
367.897	1	821
369.093	1	972
370.290	1	946
371.486	1	859
372.682	1	685
373.879	1	558
375.075	1	476
376.271	1	412
377.467	1	323
378.663	1	266
379.859	1	222
381.055	1	172
382.251	1	156
383.447	1	133
384.643	1	122
385.839	1	111
387.035	1	92
388.230	1	85
389.426	1	52
390.622	1	65
391.817	1	66
393.013	1	40
394.208	1	44
395.404	1	34
396.599	1	29
397.795	1	35
398.990	1	29
400.186	1	28
401.381	1	14
402.576	1	22
403.771	1	23
404.967	1	21
406.162	1	20
407.357	1	17
408.552	1	11
409.747	1	8
410.942	1	21
412.137	1	23
413.332	1	9
414.526	1	5
415.721	1	9
416.916	1	7
418.111	1	16
419.305	1	19
420.500	1	11
421.695	1	15
422.889	1	-1
424.084	1	15
425.278	1	20
426.472	1	8
427.667	1	9
428.861	1	5
430.055	1	7
431.250	1	11
432.444	1	16
433.638	1	3
434.832	1	0
436.026	1	9
437.220	1	10
438.414	1	3
439.608	1	-2
440.802	1	4
441.996	1	9
443.190	1	5
444.384	1	5
445.578	1	-2
446.771	1	19
447.965	1	7
449.159	1	6
450.352	1	-1
451.546	1	1
452.739	1	16
453.933	1	8
455.126	1	0
456.320	1	11
457.513	1	11
458.706	1	0
459.899	1	7
461.093	1	4
462.286	1	6
463.479	1	7
464.672	1	-1
465.865	1	1
467.058	1	6
468.251	1	8
469.444	1	1
470.637	1	6
471.830	1	12
473.023	1	18
474.215	1	12
475.408	1	10
476.601	1	12
477.793	1	11
478.986	1	9
480.179	1	27
481.371	1	10
482.564	1	17
483.756	1	19
484.948	1	7
486.141	1	15
487.333	1	13
488.525	1	14
489.718	1	17
490.910	1	23
492.102	1	12
493.294	1	12
494.486	1	29
495.678	1	21
496.870	1	23
498.062	1	21
499.254	1	20
500.446	1	17
501.638	1	24
502.829	1	28
504.021	1	25
505.213	1	43
506.404	1	42
507.596	1	31
508.788	1	57
509.979	1	41
511.171	1	34
512.362	1	35
513.553	1	25
514.745	1	41
515.936	1	50
517.127	1	43
518.319	1	52
519.510	1	45
520.701	1	54
521.892	1	59
523.083	1	47
524.274	1	52
525.465	1	62
526.656	1	64
527.847	1	62
529.038	1	51
530.229	1	55
531.419	1	63
532.610	1	69
533.801	1	78
534.991	1	76
536.182	1	77
537.373	1	72
538.563	1	64
539.754	1	71
540.944	1	56
542.134	1	68
543.325	1	69
544.515	1	64
545.705	1	63
546.896	1	74
548.086	1	77
549.276	1	73
550.466	1	67
551.656	1	81
552.846	1	83
554.036	1	72
555.226	1	68
556.416	1	74
557.606	1	82
558.796	1	77
559.986	1	70
561.175	1	74
562.365	1	75
563.555	1	56
564.744	1	75
565.934	1	81
567.123	1	75
568.313	1	77
569.502	1	68
570.692	1	72
571.881	1	78
573.070	1	77
574.260	1	76
575.449	1	63
576.638	1	65
577.827	1	68
579.016	1	77
580.205	1	63
581.394	1	60
582.583	1	86
583.772	1	75
584.961	1	74
586.150	1	62
587.339	1	60
588.528	1	67
589.717	1	54
590.905	1	67
592.094	1	65
593.283	1	58
594.471	1	65
595.660	1	62
596.848	1	56
598.037	1	61
599.225	1	46
600.413	1	54
601.602	1	54
602.790	1	61
603.978	1	46
605.166	1	65
606.355	1	51
607.543	1	49
608.731	1	60
609.919	1	62
611.107	1	47
612.295	1	54
613.483	1	53
614.671	1	47
615.858	1	38
617.046	1	50
618.234	1	40
619.422	1	27
620.609	1	48
621.797	1	38
622.985	1	43
624.172	1	44
625.360	1	41
626.547	1	43
627.735	1	44
628.922	1	39
630.109	1	24
631.297	1	30
632.484	1	32
633.671	1	45
634.858	1	27
636.045	1	39
637.232	1	30
638.419	1	30
639.606	1	37
640.793	1	41
641.980	1	33
643.167	1	23
644.354	1	29
645.541	1	40
646.728	1	36
647.914	1	25
649.101	1	31
650.288	1	30
651.474	1	25
652.661	1	23
653.847	1	42
655.034	1	34
656.220	1	23
657.406	1	33
658.593	1	27
659.779	1	18
660.965	1	24
662.152	1	18
663.338	1	21
664.524	1	10
665.710	1	29
666.896	1	20
668.082	1	17
669.268	1	18
670.454	1	25
671.640	1	13
672.826	1	13
674.011	1	16
675.197	1	13
676.383	1	20
677.569	1	11
678.754	1	15
679.940	1	19
681.125	1	16
682.311	1	25
683.496	1	27
684.682	1	19
685.867	1	17
687.053	1	19
688.238	1	22
688.746	1	23