File: Data/GaN_200K_800ms/GaN_sample F_spot 12_UVVIS_200 K_200um_800 ms 2x2mm1_509.txt
340.368	1	0
341.565	1	-12
342.763	1	3
343.960	1	3
345.157	1	-8
346.354	1	-3
347.552	1	-8
348.749	1	-11
349.946	1	-5
351.143	1	-6
352.340	1	8
353.537	1	4
354.734	1	6
355.931	1	7
357.127	1	-1
358.324	1	0
359.521	1	7
360.718	1	-3
361.914	1	-5
363.111	1	-6
364.308	1	-6
365.504	1	6
366.701	1	5
367.897	1	5
369.093	1	3
370.290	1	6
371.486	1	12
372.682	1	4
373.879	1	-6
375.075	1	0
376.271	1	13
377.467	1	-1
378.663	1	-2
379.859	1	5
381.055	1	8
382.251	1	-4
383.447	1	-6
384.643	1	10
385.839	1	-2
387.035	1	3
388.230	1	13
389.426	1	6
390.622	1	-14
391.817	1	-1
393.013	1	-7
394.208	1	3
395.404	1	-7
396.599	1	-10
397.795	1	8
398.990	1	-3
400.186	1	-3
401.381	1	-8
402.576	1	-4
403.771	1	-1
404.967	1	2
406.162	1	1
407.357	1	-5
408.552	1	-9
409.747	1	4
410.942	1	8
412.137	1	2
413.332	1	5
414.526	1	0
415.721	1	-9
416.916	1	-12
418.111	1	0
419.305	1	6
420.500	1	-4
421.695	1	-3
422.889	1	-13
424.084	1	-1
425.278	1	11
426.472	1	-2
427.667	1	7
428.861	1	0
430.055	1	-4
431.250	1	-1
432.444	1	-2
433.638	1	-1
434.832	1	-1
436.026	1	8
437.220	1	11
438.414	1	-1
439.608	1	-6
440.802	1	-8
441.996	1	3
443.190	1	-10
444.384	1	-10
445.578	1	-6
446.771	1	5
447.965	1	1
449.159	1	-1
450.352	1	-2
451.546	1	6
452.739	1	0
453.933	1	-6
455.126	1	-11
456.320	1	-6
457.513	1	-3
458.706	1	-2
459.899	1	-8
461.093	1	3
462.286	1	4
463.479	1	-2
464.672	1	-3
465.865	1	-2
467.058	1	2
468.251	1	-1
469.444	1	-12
470.637	1	1
471.830	1	-5
473.023	1	-4
474.215	1	1
475.408	1	-6
476.601	1	-2
477.793	1	-1
478.986	1	-3
480.179	1	-8
481.371	1	1
482.564	1	-1
483.756	1	-1
484.948	1	-5
486.141	1	-8
487.333	1	-3
488.525	1	2
489.718	1	-2
490.910	1	-9
492.102	1	-11
493.294	1	-9
494.486	1	4
495.678	1	-1
496.870	1	-1
498.062	1	-12
499.254	1	2
500.446	1	-8
501.638	1	0
502.829	1	0
504.021	1	-5
505.213	1	8
506.404	1	3
507.596	1	8
508.788	1	13
509.979	1	-2
511.171	1	-8
512.362	1	-18
513.553	1	-11
514.745	1	-5
515.936	1	-6
517.127	1	-2
518.319	1	-2
519.510	1	-4
520.701	1	-3
521.892	1	3
523.083	1	-3
524.274	1	10
525.465	1	-5
526.656	1	-5
527.847	1	-2
529.038	1	0
530.229	1	7
531.419	1	0
532.610	1	-3
533.801	1	11
534.991	1	6
536.182	1	-3
537.373	1	-1
538.563	1	10
539.754	1	8
540.944	1	-4
542.134	1	-1
543.325	1	-9
544.515	1	-1
545.705	1	-2
546.896	1	-7
548.086	1	4
549.276	1	-8
550.466	1	-2
551.656	1	0
552.846	1	-4
554.036	1	0
555.226	1	-5
556.416	1	-6
557.606	1	13
558.796	1	-2
559.986	1	-3
561.175	1	-6
562.365	1	-1
563.555	1	-1
564.744	1	-5
565.934	1	-1
567.123	1	0
568.313	1	8
569.502	1	-1
570.692	1	-5
571.881	1	5
573.070	1	2
574.260	1	7
575.449	1	-4
576.638	1	-12
577.827	1	1
579.016	1	1
580.205	1	1
581.394	1	-2
582.583	1	-1
583.772	1	3
584.961	1	2
586.150	1	-6
587.339	1	3
588.528	1	7
589.717	1	0
590.905	1	-7
592.094	1	-5
593.283	1	2
594.471	1	14
595.660	1	3
596.848	1	-1
598.037	1	-4
599.225	1	-17
600.413	1	4
601.602	1	14
602.790	1	-1
603.978	1	8
605.166	1	6
606.355	1	0
607.543	1	-3
608.731	1	2
609.919	1	8
611.107	1	-5
612.295	1	-9
613.483	1	-1
614.671	1	3
615.858	1	4
617.046	1	-2
618.234	1	-7
619.422	1	-13
620.609	1	1
621.797	1	-10
622.985	1	-4
624.172	1	-3
625.360	1	3
626.547	1	0
627.735	1	1
628.922	1	6
630.109	1	-16
631.297	1	3
632.484	1	0
633.671	1	4
634.858	1	0
636.045	1	11
637.232	1	-2
638.419	1	-4
639.606	1	7
640.793	1	6
641.980	1	7
643.167	1	1
644.354	1	1
645.541	1	-2
646.728	1	-3
647.914	1	-5
649.101	1	5
650.288	1	-2
651.474	1	-7
652.661	1	-2
653.847	1	-1
655.034	1	3
656.220	1	-12
657.406	1	-4
658.593	1	13
659.779	1	-12
660.965	1	12
662.152	1	-1
663.338	1	7
664.524	1	3
665.710	1	-5
666.896	1	-4
668.082	1	1
669.268	1	1
670.454	1	-2
671.640	1	-3
672.826	1	-1
674.011	1	-4
675.197	1	-13
676.383	1	-4
677.569	1	-2
678.754	1	-5
679.940	1	-3
681.125	1	10
682.311	1	-3
683.496	1	-2
684.682	1	-3
685.867	1	4
687.053	1	0
688.238	1	12
688.746	1	-4