File: Data/GaN_200K_800ms/GaN_sample F_spot 12_UVVIS_200 K_200um_800 ms 2x2mm1_246.txt
340.368	1	6
341.565	1	-12
342.763	1	8
343.960	1	-7
345.157	1	-8
346.354	1	0
347.552	1	4
348.749	1	-7
349.946	1	-6
351.143	1	0
352.340	1	-1
353.537	1	-3
354.734	1	5
355.931	1	-1
357.127	1	2
358.324	1	-5
359.521	1	1
360.718	1	4
361.914	1	2
363.111	1	1
364.308	1	12
365.504	1	18
366.701	1	18
367.897	1	21
369.093	1	20
370.290	1	22
371.486	1	16
372.682	1	23
373.879	1	17
375.075	1	8
376.271	1	17
377.467	1	7
378.663	1	3
379.859	1	4
381.055	1	16
382.251	1	1
383.447	1	-3
384.643	1	15
385.839	1	-1
387.035	1	8
388.230	1	14
389.426	1	-4
390.622	1	5
391.817	1	6
393.013	1	3
394.208	1	-1
395.404	1	-1
396.599	1	-3
397.795	1	4
398.990	1	0
400.186	1	-1
401.381	1	9
402.576	1	7
403.771	1	6
404.967	1	7
406.162	1	6
407.357	1	-3
408.552	1	-1
409.747	1	-2
410.942	1	9
412.137	1	0
413.332	1	5
414.526	1	-2
415.721	1	5
416.916	1	-3
418.111	1	-10
419.305	1	-1
420.500	1	-4
421.695	1	-3
422.889	1	-7
424.084	1	-1
425.278	1	17
426.472	1	5
427.667	1	7
428.861	1	-8
430.055	1	-4
431.250	1	-4
432.444	1	10
433.638	1	-7
434.832	1	4
436.026	1	6
437.220	1	9
438.414	1	-1
439.608	1	-3
440.802	1	-3
441.996	1	7
443.190	1	-3
444.384	1	-9
445.578	1	-1
446.771	1	12
447.965	1	14
449.159	1	0
450.352	1	-11
451.546	1	0
452.739	1	-2
453.933	1	1
455.126	1	-2
456.320	1	0
457.513	1	4
458.706	1	-6
459.899	1	-4
461.093	1	-2
462.286	1	0
463.479	1	-4
464.672	1	-6
465.865	1	3
467.058	1	-6
468.251	1	-3
469.444	1	-5
470.637	1	6
471.830	1	3
473.023	1	-3
474.215	1	6
475.408	1	4
476.601	1	-3
477.793	1	-1
478.986	1	-3
480.179	1	-7
481.371	1	4
482.564	1	0
483.756	1	1
484.948	1	-10
486.141	1	-2
487.333	1	-1
488.525	1	4
489.718	1	5
490.910	1	2
492.102	1	-1
493.294	1	6
494.486	1	7
495.678	1	-1
496.870	1	0
498.062	1	2
499.254	1	-7
500.446	1	-7
501.638	1	9
502.829	1	1
504.021	1	-6
505.213	1	4
506.404	1	7
507.596	1	4
508.788	1	10
509.979	1	-1
511.171	1	-4
512.362	1	-6
513.553	1	-12
514.745	1	3
515.936	1	1
517.127	1	3
518.319	1	2
519.510	1	3
520.701	1	4
521.892	1	11
523.083	1	-4
524.274	1	6
525.465	1	2
526.656	1	0
527.847	1	-6
529.038	1	4
530.229	1	6
531.419	1	19
532.610	1	6
533.801	1	6
534.991	1	4
536.182	1	-3
537.373	1	5
538.563	1	6
539.754	1	4
540.944	1	-1
542.134	1	4
543.325	1	-1
544.515	1	0
545.705	1	0
546.896	1	3
548.086	1	-4
549.276	1	3
550.466	1	8
551.656	1	6
552.846	1	6
554.036	1	-1
555.226	1	-10
556.416	1	-3
557.606	1	6
558.796	1	5
559.986	1	-3
561.175	1	-2
562.365	1	5
563.555	1	-11
564.744	1	-1
565.934	1	5
567.123	1	6
568.313	1	5
569.502	1	-5
570.692	1	9
571.881	1	13
573.070	1	7
574.260	1	16
575.449	1	3
576.638	1	0
577.827	1	4
579.016	1	7
580.205	1	-1
581.394	1	-2
582.583	1	13
583.772	1	6
584.961	1	5
586.150	1	-3
587.339	1	-4
588.528	1	-2
589.717	1	3
590.905	1	6
592.094	1	1
593.283	1	-3
594.471	1	9
595.660	1	3
596.848	1	0
598.037	1	-2
599.225	1	-5
600.413	1	10
601.602	1	7
602.790	1	3
603.978	1	-2
605.166	1	5
606.355	1	2
607.543	1	-2
608.731	1	6
609.919	1	-2
611.107	1	1
612.295	1	-9
613.483	1	1
614.671	1	7
615.858	1	-4
617.046	1	-4
618.234	1	-4
619.422	1	0
620.609	1	8
621.797	1	-5
622.985	1	6
624.172	1	-1
625.360	1	1
626.547	1	14
627.735	1	3
628.922	1	7
630.109	1	-9
631.297	1	3
632.484	1	-4
633.671	1	-4
634.858	1	-5
636.045	1	10
637.232	1	-6
638.419	1	-5
639.606	1	-2
640.793	1	5
641.980	1	8
643.167	1	-5
644.354	1	-8
645.541	1	5
646.728	1	-4
647.914	1	-1
649.101	1	-2
650.288	1	-1
651.474	1	-7
652.661	1	-6
653.847	1	12
655.034	1	4
656.220	1	-5
657.406	1	3
658.593	1	6
659.779	1	5
660.965	1	12
662.152	1	5
663.338	1	7
664.524	1	5
665.710	1	3
666.896	1	-14
668.082	1	4
669.268	1	0
670.454	1	1
671.640	1	5
672.826	1	3
674.011	1	7
675.197	1	-3
676.383	1	-5
677.569	1	-4
678.754	1	1
679.940	1	1
681.125	1	-1
682.311	1	-4
683.496	1	-6
684.682	1	-6
685.867	1	-3
687.053	1	0
688.238	1	12
688.746	1	-3