File: Data/GaN_200K_800ms/GaN_sample F_spot 12_UVVIS_200 K_200um_800 ms 2x2mm1_144.txt
340.368	1	4
341.565	1	-5
342.763	1	4
343.960	1	-1
345.157	1	-3
346.354	1	3
347.552	1	-4
348.749	1	-1
349.946	1	-5
351.143	1	-2
352.340	1	2
353.537	1	-2
354.734	1	4
355.931	1	0
357.127	1	7
358.324	1	-1
359.521	1	18
360.718	1	11
361.914	1	13
363.111	1	22
364.308	1	19
365.504	1	30
366.701	1	50
367.897	1	55
369.093	1	50
370.290	1	55
371.486	1	51
372.682	1	47
373.879	1	40
375.075	1	24
376.271	1	36
377.467	1	26
378.663	1	11
379.859	1	25
381.055	1	25
382.251	1	7
383.447	1	6
384.643	1	20
385.839	1	13
387.035	1	6
388.230	1	12
389.426	1	13
390.622	1	10
391.817	1	10
393.013	1	2
394.208	1	1
395.404	1	0
396.599	1	-9
397.795	1	4
398.990	1	2
400.186	1	-5
401.381	1	-3
402.576	1	-5
403.771	1	8
404.967	1	8
406.162	1	4
407.357	1	-2
408.552	1	-4
409.747	1	8
410.942	1	2
412.137	1	9
413.332	1	10
414.526	1	-3
415.721	1	1
416.916	1	-5
418.111	1	0
419.305	1	2
420.500	1	3
421.695	1	-4
422.889	1	-8
424.084	1	-4
425.278	1	4
426.472	1	-4
427.667	1	10
428.861	1	-4
430.055	1	10
431.250	1	-10
432.444	1	10
433.638	1	6
434.832	1	3
436.026	1	6
437.220	1	6
438.414	1	-4
439.608	1	-6
440.802	1	-10
441.996	1	11
443.190	1	3
444.384	1	-3
445.578	1	-3
446.771	1	6
447.965	1	3
449.159	1	-3
450.352	1	5
451.546	1	1
452.739	1	10
453.933	1	-4
455.126	1	-3
456.320	1	-7
457.513	1	11
458.706	1	-5
459.899	1	-2
461.093	1	10
462.286	1	-3
463.479	1	-5
464.672	1	0
465.865	1	-1
467.058	1	1
468.251	1	-4
469.444	1	-8
470.637	1	-7
471.830	1	5
473.023	1	6
474.215	1	13
475.408	1	-1
476.601	1	4
477.793	1	-4
478.986	1	2
480.179	1	5
481.371	1	9
482.564	1	6
483.756	1	7
484.948	1	-7
486.141	1	1
487.333	1	-2
488.525	1	-13
489.718	1	3
490.910	1	-2
492.102	1	-6
493.294	1	2
494.486	1	4
495.678	1	1
496.870	1	14
498.062	1	8
499.254	1	2
500.446	1	-5
501.638	1	-1
502.829	1	4
504.021	1	0
505.213	1	15
506.404	1	1
507.596	1	6
508.788	1	12
509.979	1	1
511.171	1	5
512.362	1	1
513.553	1	-6
514.745	1	-4
515.936	1	-4
517.127	1	1
518.319	1	6
519.510	1	9
520.701	1	5
521.892	1	6
523.083	1	0
524.274	1	7
525.465	1	4
526.656	1	0
527.847	1	2
529.038	1	6
530.229	1	4
531.419	1	14
532.610	1	-2
533.801	1	10
534.991	1	8
536.182	1	17
537.373	1	3
538.563	1	8
539.754	1	23
540.944	1	0
542.134	1	17
543.325	1	9
544.515	1	1
545.705	1	-4
546.896	1	-1
548.086	1	5
549.276	1	-3
550.466	1	7
551.656	1	8
552.846	1	4
554.036	1	13
555.226	1	5
556.416	1	-1
557.606	1	5
558.796	1	4
559.986	1	0
561.175	1	5
562.365	1	2
563.555	1	7
564.744	1	15
565.934	1	18
567.123	1	8
568.313	1	16
569.502	1	5
570.692	1	11
571.881	1	17
573.070	1	5
574.260	1	11
575.449	1	4
576.638	1	8
577.827	1	-3
579.016	1	12
580.205	1	2
581.394	1	4
582.583	1	9
583.772	1	5
584.961	1	5
586.150	1	6
587.339	1	7
588.528	1	7
589.717	1	12
590.905	1	2
592.094	1	-3
593.283	1	-2
594.471	1	11
595.660	1	9
596.848	1	6
598.037	1	-3
599.225	1	-7
600.413	1	15
601.602	1	14
602.790	1	7
603.978	1	8
605.166	1	7
606.355	1	8
607.543	1	-1
608.731	1	6
609.919	1	3
611.107	1	4
612.295	1	-3
613.483	1	8
614.671	1	10
615.858	1	2
617.046	1	-1
618.234	1	4
619.422	1	4
620.609	1	3
621.797	1	-9
622.985	1	8
624.172	1	8
625.360	1	4
626.547	1	11
627.735	1	3
628.922	1	1
630.109	1	1
631.297	1	5
632.484	1	-1
633.671	1	-3
634.858	1	1
636.045	1	16
637.232	1	-5
638.419	1	-3
639.606	1	6
640.793	1	12
641.980	1	11
643.167	1	1
644.354	1	-5
645.541	1	4
646.728	1	-1
647.914	1	5
649.101	1	4
650.288	1	4
651.474	1	-2
652.661	1	4
653.847	1	14
655.034	1	1
656.220	1	-4
657.406	1	7
658.593	1	3
659.779	1	8
660.965	1	9
662.152	1	4
663.338	1	13
664.524	1	8
665.710	1	3
666.896	1	3
668.082	1	3
669.268	1	2
670.454	1	1
671.640	1	10
672.826	1	-2
674.011	1	-2
675.197	1	-5
676.383	1	-4
677.569	1	6
678.754	1	-1
679.940	1	-1
681.125	1	6
682.311	1	12
683.496	1	8
684.682	1	-8
685.867	1	7
687.053	1	9
688.238	1	1
688.746	1	-1