File: Data/GaN_200K_800ms/GaN_sample F_spot 12_UVVIS_200 K_200um_800 ms 2x2mm1_27.txt
340.368	1	8
341.565	1	-15
342.763	1	2
343.960	1	2
345.157	1	-2
346.354	1	10
347.552	1	-1
348.749	1	-3
349.946	1	1
351.143	1	-2
352.340	1	5
353.537	1	12
354.734	1	6
355.931	1	-1
357.127	1	-7
358.324	1	0
359.521	1	11
360.718	1	6
361.914	1	7
363.111	1	-8
364.308	1	2
365.504	1	4
366.701	1	3
367.897	1	2
369.093	1	3
370.290	1	-7
371.486	1	6
372.682	1	1
373.879	1	3
375.075	1	1
376.271	1	9
377.467	1	3
378.663	1	-1
379.859	1	-6
381.055	1	7
382.251	1	-9
383.447	1	4
384.643	1	6
385.839	1	0
387.035	1	7
388.230	1	10
389.426	1	-1
390.622	1	-9
391.817	1	10
393.013	1	0
394.208	1	-2
395.404	1	-12
396.599	1	-1
397.795	1	11
398.990	1	-3
400.186	1	-5
401.381	1	-2
402.576	1	4
403.771	1	-2
404.967	1	4
406.162	1	2
407.357	1	-2
408.552	1	-1
409.747	1	-3
410.942	1	6
412.137	1	10
413.332	1	2
414.526	1	-6
415.721	1	6
416.916	1	-2
418.111	1	-3
419.305	1	6
420.500	1	2
421.695	1	3
422.889	1	-5
424.084	1	3
425.278	1	9
426.472	1	4
427.667	1	7
428.861	1	-3
430.055	1	10
431.250	1	0
432.444	1	10
433.638	1	1
434.832	1	11
436.026	1	10
437.220	1	4
438.414	1	-5
439.608	1	-14
440.802	1	-3
441.996	1	11
443.190	1	-4
444.384	1	-8
445.578	1	-6
446.771	1	10
447.965	1	-9
449.159	1	0
450.352	1	-7
451.546	1	3
452.739	1	7
453.933	1	-4
455.126	1	-6
456.320	1	-7
457.513	1	7
458.706	1	-2
459.899	1	6
461.093	1	6
462.286	1	-11
463.479	1	-5
464.672	1	8
465.865	1	-2
467.058	1	2
468.251	1	-1
469.444	1	-9
470.637	1	1
471.830	1	-2
473.023	1	6
474.215	1	1
475.408	1	7
476.601	1	9
477.793	1	3
478.986	1	4
480.179	1	-6
481.371	1	0
482.564	1	6
483.756	1	18
484.948	1	-5
486.141	1	-1
487.333	1	-8
488.525	1	-1
489.718	1	1
490.910	1	-4
492.102	1	-4
493.294	1	-1
494.486	1	4
495.678	1	5
496.870	1	-3
498.062	1	-11
499.254	1	9
500.446	1	-5
501.638	1	-2
502.829	1	1
504.021	1	5
505.213	1	5
506.404	1	5
507.596	1	-1
508.788	1	18
509.979	1	1
511.171	1	1
512.362	1	-1
513.553	1	-15
514.745	1	-2
515.936	1	3
517.127	1	2
518.319	1	0
519.510	1	2
520.701	1	-4
521.892	1	6
523.083	1	5
524.274	1	-10
525.465	1	7
526.656	1	-2
527.847	1	0
529.038	1	10
530.229	1	3
531.419	1	-4
532.610	1	-10
533.801	1	13
534.991	1	0
536.182	1	-4
537.373	1	1
538.563	1	8
539.754	1	8
540.944	1	0
542.134	1	8
543.325	1	4
544.515	1	4
545.705	1	8
546.896	1	1
548.086	1	4
549.276	1	-2
550.466	1	-1
551.656	1	11
552.846	1	-6
554.036	1	3
555.226	1	-5
556.416	1	-12
557.606	1	6
558.796	1	-1
559.986	1	-6
561.175	1	2
562.365	1	5
563.555	1	-5
564.744	1	3
565.934	1	5
567.123	1	6
568.313	1	0
569.502	1	2
570.692	1	7
571.881	1	15
573.070	1	1
574.260	1	10
575.449	1	-6
576.638	1	-3
577.827	1	-8
579.016	1	15
580.205	1	1
581.394	1	-1
582.583	1	3
583.772	1	2
584.961	1	10
586.150	1	5
587.339	1	0
588.528	1	7
589.717	1	0
590.905	1	-5
592.094	1	-8
593.283	1	3
594.471	1	14
595.660	1	-2
596.848	1	4
598.037	1	2
599.225	1	2
600.413	1	6
601.602	1	12
602.790	1	9
603.978	1	4
605.166	1	0
606.355	1	9
607.543	1	2
608.731	1	-3
609.919	1	6
611.107	1	4
612.295	1	1
613.483	1	2
614.671	1	4
615.858	1	-1
617.046	1	7
618.234	1	-3
619.422	1	-11
620.609	1	1
621.797	1	4
622.985	1	-4
624.172	1	5
625.360	1	5
626.547	1	0
627.735	1	5
628.922	1	4
630.109	1	-7
631.297	1	-8
632.484	1	9
633.671	1	-3
634.858	1	-6
636.045	1	12
637.232	1	-2
638.419	1	-1
639.606	1	7
640.793	1	11
641.980	1	8
643.167	1	-7
644.354	1	8
645.541	1	7
646.728	1	-5
647.914	1	-4
649.101	1	6
650.288	1	2
651.474	1	-1
652.661	1	1
653.847	1	6
655.034	1	5
656.220	1	-1
657.406	1	7
658.593	1	7
659.779	1	1
660.965	1	8
662.152	1	7
663.338	1	13
664.524	1	9
665.710	1	2
666.896	1	-2
668.082	1	8
669.268	1	-4
670.454	1	4
671.640	1	-1
672.826	1	-3
674.011	1	1
675.197	1	-6
676.383	1	8
677.569	1	-3
678.754	1	-5
679.940	1	-7
681.125	1	1
682.311	1	12
683.496	1	4
684.682	1	-11
685.867	1	-5
687.053	1	1
688.238	1	7
688.746	1	-1