File: Data/GaN_200K_800ms/GaN_sample F_spot 12_UVVIS_200 K_200um_800 ms 2x2mm1_66.txt
340.368	1	4
341.565	1	3
342.763	1	7
343.960	1	7
345.157	1	2
346.354	1	13
347.552	1	4
348.749	1	0
349.946	1	0
351.143	1	7
352.340	1	6
353.537	1	17
354.734	1	17
355.931	1	12
357.127	1	23
358.324	1	25
359.521	1	38
360.718	1	39
361.914	1	53
363.111	1	66
364.308	1	81
365.504	1	141
366.701	1	152
367.897	1	197
369.093	1	212
370.290	1	221
371.486	1	204
372.682	1	164
373.879	1	145
375.075	1	122
376.271	1	128
377.467	1	104
378.663	1	73
379.859	1	61
381.055	1	55
382.251	1	49
383.447	1	53
384.643	1	45
385.839	1	38
387.035	1	33
388.230	1	32
389.426	1	19
390.622	1	18
391.817	1	29
393.013	1	18
394.208	1	14
395.404	1	10
396.599	1	9
397.795	1	15
398.990	1	14
400.186	1	12
401.381	1	3
402.576	1	6
403.771	1	16
404.967	1	5
406.162	1	16
407.357	1	2
408.552	1	5
409.747	1	4
410.942	1	23
412.137	1	7
413.332	1	3
414.526	1	1
415.721	1	7
416.916	1	0
418.111	1	0
419.305	1	8
420.500	1	1
421.695	1	-5
422.889	1	5
424.084	1	2
425.278	1	9
426.472	1	-4
427.667	1	8
428.861	1	2
430.055	1	7
431.250	1	-2
432.444	1	10
433.638	1	-1
434.832	1	9
436.026	1	15
437.220	1	5
438.414	1	-7
439.608	1	-1
440.802	1	5
441.996	1	13
443.190	1	3
444.384	1	-8
445.578	1	-1
446.771	1	20
447.965	1	3
449.159	1	0
450.352	1	3
451.546	1	7
452.739	1	-4
453.933	1	3
455.126	1	-3
456.320	1	-1
457.513	1	8
458.706	1	-2
459.899	1	10
461.093	1	4
462.286	1	9
463.479	1	-3
464.672	1	3
465.865	1	1
467.058	1	9
468.251	1	-1
469.444	1	-8
470.637	1	9
471.830	1	-4
473.023	1	8
474.215	1	13
475.408	1	4
476.601	1	5
477.793	1	1
478.986	1	0
480.179	1	2
481.371	1	7
482.564	1	7
483.756	1	6
484.948	1	1
486.141	1	4
487.333	1	3
488.525	1	8
489.718	1	7
490.910	1	10
492.102	1	-1
493.294	1	-1
494.486	1	6
495.678	1	8
496.870	1	9
498.062	1	15
499.254	1	7
500.446	1	4
501.638	1	-1
502.829	1	14
504.021	1	9
505.213	1	11
506.404	1	11
507.596	1	8
508.788	1	25
509.979	1	15
511.171	1	5
512.362	1	4
513.553	1	7
514.745	1	6
515.936	1	7
517.127	1	16
518.319	1	18
519.510	1	14
520.701	1	18
521.892	1	24
523.083	1	12
524.274	1	18
525.465	1	24
526.656	1	17
527.847	1	19
529.038	1	23
530.229	1	24
531.419	1	23
532.610	1	10
533.801	1	26
534.991	1	30
536.182	1	21
537.373	1	28
538.563	1	24
539.754	1	27
540.944	1	10
542.134	1	23
543.325	1	16
544.515	1	16
545.705	1	26
546.896	1	25
548.086	1	27
549.276	1	28
550.466	1	31
551.656	1	34
552.846	1	22
554.036	1	23
555.226	1	10
556.416	1	21
557.606	1	14
558.796	1	27
559.986	1	12
561.175	1	22
562.365	1	27
563.555	1	17
564.744	1	27
565.934	1	41
567.123	1	27
568.313	1	21
569.502	1	24
570.692	1	31
571.881	1	42
573.070	1	17
574.260	1	31
575.449	1	14
576.638	1	10
577.827	1	15
579.016	1	37
580.205	1	16
581.394	1	19
582.583	1	27
583.772	1	19
584.961	1	29
586.150	1	23
587.339	1	13
588.528	1	30
589.717	1	15
590.905	1	22
592.094	1	16
593.283	1	16
594.471	1	16
595.660	1	17
596.848	1	12
598.037	1	17
599.225	1	8
600.413	1	17
601.602	1	23
602.790	1	15
603.978	1	23
605.166	1	22
606.355	1	18
607.543	1	15
608.731	1	21
609.919	1	23
611.107	1	19
612.295	1	16
613.483	1	20
614.671	1	21
615.858	1	14
617.046	1	7
618.234	1	10
619.422	1	0
620.609	1	17
621.797	1	11
622.985	1	9
624.172	1	12
625.360	1	10
626.547	1	16
627.735	1	15
628.922	1	11
630.109	1	3
631.297	1	9
632.484	1	5
633.671	1	-3
634.858	1	14
636.045	1	20
637.232	1	3
638.419	1	5
639.606	1	12
640.793	1	21
641.980	1	15
643.167	1	6
644.354	1	14
645.541	1	14
646.728	1	10
647.914	1	7
649.101	1	16
650.288	1	9
651.474	1	3
652.661	1	1
653.847	1	21
655.034	1	6
656.220	1	-6
657.406	1	13
658.593	1	18
659.779	1	8
660.965	1	13
662.152	1	8
663.338	1	13
664.524	1	11
665.710	1	12
666.896	1	1
668.082	1	14
669.268	1	2
670.454	1	-1
671.640	1	8
672.826	1	11
674.011	1	7
675.197	1	0
676.383	1	11
677.569	1	0
678.754	1	-2
679.940	1	2
681.125	1	14
682.311	1	12
683.496	1	16
684.682	1	11
685.867	1	3
687.053	1	16
688.238	1	20
688.746	1	5