File: Data/GaN_200K_800ms/GaN_sample F_spot 12_UVVIS_200 K_200um_800 ms 2x2mm1_168.txt
340.368	1	6
341.565	1	-1
342.763	1	8
343.960	1	-3
345.157	1	-6
346.354	1	4
347.552	1	-1
348.749	1	2
349.946	1	-1
351.143	1	-2
352.340	1	5
353.537	1	5
354.734	1	0
355.931	1	-11
357.127	1	8
358.324	1	0
359.521	1	9
360.718	1	15
361.914	1	14
363.111	1	21
364.308	1	12
365.504	1	39
366.701	1	33
367.897	1	40
369.093	1	34
370.290	1	50
371.486	1	50
372.682	1	39
373.879	1	26
375.075	1	24
376.271	1	32
377.467	1	19
378.663	1	7
379.859	1	18
381.055	1	21
382.251	1	3
383.447	1	6
384.643	1	14
385.839	1	1
387.035	1	8
388.230	1	17
389.426	1	5
390.622	1	-2
391.817	1	8
393.013	1	-1
394.208	1	7
395.404	1	3
396.599	1	10
397.795	1	4
398.990	1	9
400.186	1	12
401.381	1	-2
402.576	1	-4
403.771	1	16
404.967	1	7
406.162	1	7
407.357	1	3
408.552	1	2
409.747	1	-1
410.942	1	2
412.137	1	4
413.332	1	6
414.526	1	5
415.721	1	9
416.916	1	-3
418.111	1	3
419.305	1	-5
420.500	1	0
421.695	1	-3
422.889	1	-9
424.084	1	3
425.278	1	6
426.472	1	3
427.667	1	9
428.861	1	2
430.055	1	4
431.250	1	1
432.444	1	2
433.638	1	-4
434.832	1	8
436.026	1	3
437.220	1	-6
438.414	1	-7
439.608	1	-3
440.802	1	-5
441.996	1	8
443.190	1	-2
444.384	1	-6
445.578	1	-3
446.771	1	14
447.965	1	0
449.159	1	-5
450.352	1	-1
451.546	1	7
452.739	1	1
453.933	1	-4
455.126	1	-5
456.320	1	-1
457.513	1	0
458.706	1	-2
459.899	1	2
461.093	1	1
462.286	1	2
463.479	1	-4
464.672	1	4
465.865	1	1
467.058	1	0
468.251	1	-1
469.444	1	-10
470.637	1	2
471.830	1	3
473.023	1	7
474.215	1	12
475.408	1	3
476.601	1	7
477.793	1	0
478.986	1	-6
480.179	1	-2
481.371	1	0
482.564	1	6
483.756	1	2
484.948	1	-7
486.141	1	-5
487.333	1	-2
488.525	1	-3
489.718	1	6
490.910	1	2
492.102	1	-2
493.294	1	-4
494.486	1	8
495.678	1	6
496.870	1	6
498.062	1	4
499.254	1	-1
500.446	1	-4
501.638	1	1
502.829	1	3
504.021	1	3
505.213	1	9
506.404	1	0
507.596	1	8
508.788	1	23
509.979	1	7
511.171	1	4
512.362	1	-7
513.553	1	-12
514.745	1	0
515.936	1	9
517.127	1	3
518.319	1	1
519.510	1	2
520.701	1	-3
521.892	1	6
523.083	1	3
524.274	1	12
525.465	1	9
526.656	1	-2
527.847	1	6
529.038	1	4
530.229	1	7
531.419	1	3
532.610	1	-3
533.801	1	22
534.991	1	13
536.182	1	11
537.373	1	11
538.563	1	15
539.754	1	13
540.944	1	-4
542.134	1	13
543.325	1	7
544.515	1	4
545.705	1	9
546.896	1	6
548.086	1	6
549.276	1	3
550.466	1	5
551.656	1	7
552.846	1	2
554.036	1	9
555.226	1	-1
556.416	1	13
557.606	1	8
558.796	1	6
559.986	1	8
561.175	1	8
562.365	1	8
563.555	1	0
564.744	1	0
565.934	1	7
567.123	1	13
568.313	1	8
569.502	1	11
570.692	1	5
571.881	1	14
573.070	1	2
574.260	1	5
575.449	1	-2
576.638	1	4
577.827	1	9
579.016	1	11
580.205	1	1
581.394	1	2
582.583	1	15
583.772	1	8
584.961	1	3
586.150	1	1
587.339	1	2
588.528	1	11
589.717	1	10
590.905	1	5
592.094	1	0
593.283	1	-1
594.471	1	11
595.660	1	10
596.848	1	4
598.037	1	1
599.225	1	-3
600.413	1	13
601.602	1	10
602.790	1	2
603.978	1	-2
605.166	1	11
606.355	1	12
607.543	1	-3
608.731	1	4
609.919	1	8
611.107	1	8
612.295	1	-4
613.483	1	4
614.671	1	4
615.858	1	8
617.046	1	11
618.234	1	5
619.422	1	1
620.609	1	11
621.797	1	-5
622.985	1	8
624.172	1	1
625.360	1	5
626.547	1	6
627.735	1	7
628.922	1	11
630.109	1	-6
631.297	1	5
632.484	1	2
633.671	1	-8
634.858	1	2
636.045	1	13
637.232	1	4
638.419	1	0
639.606	1	9
640.793	1	10
641.980	1	5
643.167	1	-2
644.354	1	3
645.541	1	-4
646.728	1	-8
647.914	1	-2
649.101	1	0
650.288	1	10
651.474	1	0
652.661	1	3
653.847	1	2
655.034	1	6
656.220	1	0
657.406	1	6
658.593	1	6
659.779	1	8
660.965	1	6
662.152	1	1
663.338	1	15
664.524	1	-7
665.710	1	1
666.896	1	-7
668.082	1	2
669.268	1	0
670.454	1	6
671.640	1	3
672.826	1	-8
674.011	1	0
675.197	1	-7
676.383	1	-3
677.569	1	2
678.754	1	-7
679.940	1	-6
681.125	1	9
682.311	1	1
683.496	1	4
684.682	1	-11
685.867	1	0
687.053	1	4
688.238	1	12
688.746	1	2