File: Data/GaN_200K_800ms/GaN_sample F_spot 12_UVVIS_200 K_200um_800 ms 2x2mm1_121.txt
340.368	1	0
341.565	1	-3
342.763	1	4
343.960	1	5
345.157	1	4
346.354	1	5
347.552	1	-1
348.749	1	-7
349.946	1	1
351.143	1	0
352.340	1	6
353.537	1	1
354.734	1	4
355.931	1	6
357.127	1	12
358.324	1	5
359.521	1	19
360.718	1	16
361.914	1	23
363.111	1	30
364.308	1	30
365.504	1	44
366.701	1	53
367.897	1	66
369.093	1	64
370.290	1	61
371.486	1	72
372.682	1	56
373.879	1	48
375.075	1	38
376.271	1	47
377.467	1	30
378.663	1	23
379.859	1	32
381.055	1	35
382.251	1	4
383.447	1	9
384.643	1	22
385.839	1	13
387.035	1	14
388.230	1	8
389.426	1	16
390.622	1	5
391.817	1	13
393.013	1	5
394.208	1	10
395.404	1	1
396.599	1	8
397.795	1	5
398.990	1	8
400.186	1	2
401.381	1	-5
402.576	1	4
403.771	1	10
404.967	1	5
406.162	1	10
407.357	1	-4
408.552	1	-4
409.747	1	3
410.942	1	5
412.137	1	3
413.332	1	6
414.526	1	5
415.721	1	3
416.916	1	-5
418.111	1	6
419.305	1	6
420.500	1	-5
421.695	1	5
422.889	1	-6
424.084	1	-2
425.278	1	9
426.472	1	0
427.667	1	13
428.861	1	-10
430.055	1	1
431.250	1	3
432.444	1	11
433.638	1	-1
434.832	1	6
436.026	1	6
437.220	1	2
438.414	1	-10
439.608	1	-10
440.802	1	2
441.996	1	6
443.190	1	1
444.384	1	-4
445.578	1	-12
446.771	1	18
447.965	1	-4
449.159	1	-4
450.352	1	-2
451.546	1	17
452.739	1	3
453.933	1	-3
455.126	1	-7
456.320	1	3
457.513	1	11
458.706	1	1
459.899	1	2
461.093	1	3
462.286	1	0
463.479	1	1
464.672	1	-5
465.865	1	6
467.058	1	1
468.251	1	0
469.444	1	-1
470.637	1	-2
471.830	1	0
473.023	1	4
474.215	1	13
475.408	1	-1
476.601	1	0
477.793	1	-3
478.986	1	6
480.179	1	12
481.371	1	8
482.564	1	-1
483.756	1	4
484.948	1	-8
486.141	1	10
487.333	1	6
488.525	1	6
489.718	1	11
490.910	1	-2
492.102	1	1
493.294	1	1
494.486	1	10
495.678	1	4
496.870	1	4
498.062	1	8
499.254	1	0
500.446	1	0
501.638	1	4
502.829	1	5
504.021	1	2
505.213	1	6
506.404	1	8
507.596	1	12
508.788	1	16
509.979	1	9
511.171	1	3
512.362	1	3
513.553	1	-2
514.745	1	-1
515.936	1	1
517.127	1	3
518.319	1	6
519.510	1	-2
520.701	1	11
521.892	1	4
523.083	1	11
524.274	1	9
525.465	1	11
526.656	1	8
527.847	1	8
529.038	1	6
530.229	1	0
531.419	1	13
532.610	1	-4
533.801	1	19
534.991	1	4
536.182	1	7
537.373	1	4
538.563	1	16
539.754	1	15
540.944	1	-1
542.134	1	14
543.325	1	14
544.515	1	6
545.705	1	-1
546.896	1	10
548.086	1	10
549.276	1	5
550.466	1	14
551.656	1	6
552.846	1	16
554.036	1	9
555.226	1	3
556.416	1	1
557.606	1	10
558.796	1	9
559.986	1	6
561.175	1	9
562.365	1	0
563.555	1	3
564.744	1	10
565.934	1	15
567.123	1	15
568.313	1	13
569.502	1	12
570.692	1	8
571.881	1	19
573.070	1	4
574.260	1	21
575.449	1	3
576.638	1	7
577.827	1	4
579.016	1	12
580.205	1	6
581.394	1	10
582.583	1	15
583.772	1	17
584.961	1	11
586.150	1	11
587.339	1	7
588.528	1	17
589.717	1	7
590.905	1	13
592.094	1	3
593.283	1	13
594.471	1	19
595.660	1	6
596.848	1	6
598.037	1	6
599.225	1	9
600.413	1	13
601.602	1	16
602.790	1	9
603.978	1	9
605.166	1	9
606.355	1	14
607.543	1	5
608.731	1	11
609.919	1	20
611.107	1	8
612.295	1	0
613.483	1	2
614.671	1	12
615.858	1	6
617.046	1	7
618.234	1	0
619.422	1	-2
620.609	1	3
621.797	1	4
622.985	1	4
624.172	1	-1
625.360	1	4
626.547	1	9
627.735	1	13
628.922	1	17
630.109	1	-3
631.297	1	8
632.484	1	0
633.671	1	5
634.858	1	7
636.045	1	13
637.232	1	1
638.419	1	0
639.606	1	2
640.793	1	20
641.980	1	9
643.167	1	-8
644.354	1	0
645.541	1	-5
646.728	1	9
647.914	1	9
649.101	1	2
650.288	1	8
651.474	1	-6
652.661	1	-3
653.847	1	16
655.034	1	3
656.220	1	-2
657.406	1	12
658.593	1	15
659.779	1	8
660.965	1	17
662.152	1	-5
663.338	1	13
664.524	1	3
665.710	1	5
666.896	1	2
668.082	1	0
669.268	1	-1
670.454	1	4
671.640	1	6
672.826	1	-2
674.011	1	2
675.197	1	4
676.383	1	3
677.569	1	1
678.754	1	2
679.940	1	-1
681.125	1	10
682.311	1	4
683.496	1	3
684.682	1	-4
685.867	1	4
687.053	1	7
688.238	1	11
688.746	1	7