File: Data/GaN_200K_800ms/GaN_sample F_spot 12_UVVIS_200 K_200um_800 ms 2x2mm1_51.txt
340.368	1	3
341.565	1	-10
342.763	1	9
343.960	1	11
345.157	1	4
346.354	1	9
347.552	1	-10
348.749	1	11
349.946	1	0
351.143	1	9
352.340	1	27
353.537	1	15
354.734	1	19
355.931	1	24
357.127	1	23
358.324	1	38
359.521	1	52
360.718	1	61
361.914	1	87
363.111	1	122
364.308	1	161
365.504	1	235
366.701	1	306
367.897	1	410
369.093	1	471
370.290	1	469
371.486	1	424
372.682	1	348
373.879	1	301
375.075	1	257
376.271	1	216
377.467	1	167
378.663	1	137
379.859	1	132
381.055	1	102
382.251	1	71
383.447	1	67
384.643	1	77
385.839	1	60
387.035	1	48
388.230	1	47
389.426	1	42
390.622	1	22
391.817	1	35
393.013	1	33
394.208	1	32
395.404	1	22
396.599	1	29
397.795	1	19
398.990	1	23
400.186	1	17
401.381	1	13
402.576	1	5
403.771	1	13
404.967	1	14
406.162	1	23
407.357	1	8
408.552	1	7
409.747	1	11
410.942	1	19
412.137	1	10
413.332	1	13
414.526	1	9
415.721	1	8
416.916	1	0
418.111	1	6
419.305	1	4
420.500	1	4
421.695	1	1
422.889	1	3
424.084	1	1
425.278	1	20
426.472	1	7
427.667	1	10
428.861	1	5
430.055	1	9
431.250	1	6
432.444	1	7
433.638	1	2
434.832	1	12
436.026	1	3
437.220	1	6
438.414	1	-5
439.608	1	-8
440.802	1	-9
441.996	1	7
443.190	1	9
444.384	1	-2
445.578	1	-6
446.771	1	12
447.965	1	11
449.159	1	-2
450.352	1	0
451.546	1	10
452.739	1	13
453.933	1	3
455.126	1	-4
456.320	1	5
457.513	1	6
458.706	1	5
459.899	1	5
461.093	1	6
462.286	1	3
463.479	1	-2
464.672	1	5
465.865	1	8
467.058	1	8
468.251	1	4
469.444	1	-5
470.637	1	1
471.830	1	5
473.023	1	7
474.215	1	15
475.408	1	10
476.601	1	9
477.793	1	9
478.986	1	3
480.179	1	0
481.371	1	6
482.564	1	9
483.756	1	17
484.948	1	-3
486.141	1	1
487.333	1	15
488.525	1	5
489.718	1	5
490.910	1	8
492.102	1	7
493.294	1	8
494.486	1	10
495.678	1	3
496.870	1	15
498.062	1	14
499.254	1	23
500.446	1	0
501.638	1	13
502.829	1	22
504.021	1	15
505.213	1	29
506.404	1	23
507.596	1	20
508.788	1	42
509.979	1	23
511.171	1	18
512.362	1	23
513.553	1	12
514.745	1	30
515.936	1	24
517.127	1	27
518.319	1	22
519.510	1	28
520.701	1	34
521.892	1	30
523.083	1	30
524.274	1	28
525.465	1	39
526.656	1	35
527.847	1	38
529.038	1	33
530.229	1	34
531.419	1	45
532.610	1	28
533.801	1	62
534.991	1	30
536.182	1	45
537.373	1	44
538.563	1	31
539.754	1	39
540.944	1	30
542.134	1	39
543.325	1	35
544.515	1	33
545.705	1	35
546.896	1	18
548.086	1	39
549.276	1	34
550.466	1	39
551.656	1	43
552.846	1	44
554.036	1	40
555.226	1	40
556.416	1	39
557.606	1	49
558.796	1	38
559.986	1	42
561.175	1	39
562.365	1	45
563.555	1	27
564.744	1	45
565.934	1	40
567.123	1	42
568.313	1	48
569.502	1	44
570.692	1	53
571.881	1	51
573.070	1	35
574.260	1	48
575.449	1	37
576.638	1	32
577.827	1	24
579.016	1	44
580.205	1	43
581.394	1	35
582.583	1	42
583.772	1	42
584.961	1	43
586.150	1	33
587.339	1	30
588.528	1	37
589.717	1	36
590.905	1	31
592.094	1	24
593.283	1	26
594.471	1	41
595.660	1	38
596.848	1	28
598.037	1	31
599.225	1	27
600.413	1	36
601.602	1	38
602.790	1	36
603.978	1	35
605.166	1	36
606.355	1	31
607.543	1	34
608.731	1	19
609.919	1	38
611.107	1	34
612.295	1	29
613.483	1	30
614.671	1	37
615.858	1	17
617.046	1	34
618.234	1	23
619.422	1	19
620.609	1	31
621.797	1	20
622.985	1	26
624.172	1	19
625.360	1	20
626.547	1	21
627.735	1	33
628.922	1	25
630.109	1	17
631.297	1	17
632.484	1	21
633.671	1	8
634.858	1	28
636.045	1	33
637.232	1	13
638.419	1	8
639.606	1	21
640.793	1	12
641.980	1	18
643.167	1	9
644.354	1	11
645.541	1	10
646.728	1	10
647.914	1	9
649.101	1	13
650.288	1	17
651.474	1	14
652.661	1	13
653.847	1	21
655.034	1	11
656.220	1	8
657.406	1	16
658.593	1	17
659.779	1	18
660.965	1	16
662.152	1	14
663.338	1	13
664.524	1	13
665.710	1	13
666.896	1	4
668.082	1	16
669.268	1	0
670.454	1	7
671.640	1	16
672.826	1	11
674.011	1	7
675.197	1	15
676.383	1	12
677.569	1	7
678.754	1	14
679.940	1	10
681.125	1	15
682.311	1	16
683.496	1	10
684.682	1	1
685.867	1	20
687.053	1	15
688.238	1	15
688.746	1	15