File: Data/GaN_200K_800ms/GaN_sample F_spot 12_UVVIS_200 K_200um_800 ms 2x2mm1_263.txt
340.368	1	10
341.565	1	-8
342.763	1	7
343.960	1	-7
345.157	1	-8
346.354	1	-3
347.552	1	-12
348.749	1	-6
349.946	1	-6
351.143	1	-2
352.340	1	2
353.537	1	4
354.734	1	10
355.931	1	-5
357.127	1	-1
358.324	1	-2
359.521	1	12
360.718	1	-2
361.914	1	6
363.111	1	4
364.308	1	10
365.504	1	19
366.701	1	18
367.897	1	19
369.093	1	15
370.290	1	23
371.486	1	21
372.682	1	25
373.879	1	12
375.075	1	5
376.271	1	11
377.467	1	13
378.663	1	6
379.859	1	2
381.055	1	11
382.251	1	2
383.447	1	1
384.643	1	8
385.839	1	2
387.035	1	9
388.230	1	14
389.426	1	0
390.622	1	-3
391.817	1	5
393.013	1	-1
394.208	1	-4
395.404	1	-5
396.599	1	1
397.795	1	4
398.990	1	-2
400.186	1	-2
401.381	1	-8
402.576	1	0
403.771	1	-1
404.967	1	8
406.162	1	8
407.357	1	-6
408.552	1	-8
409.747	1	-5
410.942	1	0
412.137	1	10
413.332	1	1
414.526	1	-4
415.721	1	-1
416.916	1	-8
418.111	1	0
419.305	1	-1
420.500	1	0
421.695	1	-7
422.889	1	-4
424.084	1	6
425.278	1	6
426.472	1	1
427.667	1	8
428.861	1	-2
430.055	1	-3
431.250	1	-1
432.444	1	-4
433.638	1	-2
434.832	1	-2
436.026	1	11
437.220	1	6
438.414	1	-6
439.608	1	-10
440.802	1	-6
441.996	1	-1
443.190	1	4
444.384	1	-2
445.578	1	-9
446.771	1	14
447.965	1	4
449.159	1	1
450.352	1	-3
451.546	1	-3
452.739	1	7
453.933	1	0
455.126	1	-13
456.320	1	-2
457.513	1	-3
458.706	1	1
459.899	1	6
461.093	1	4
462.286	1	-4
463.479	1	4
464.672	1	-7
465.865	1	1
467.058	1	3
468.251	1	2
469.444	1	2
470.637	1	-1
471.830	1	9
473.023	1	4
474.215	1	1
475.408	1	0
476.601	1	-2
477.793	1	-7
478.986	1	-2
480.179	1	6
481.371	1	-1
482.564	1	2
483.756	1	10
484.948	1	-1
486.141	1	-7
487.333	1	-4
488.525	1	-2
489.718	1	2
490.910	1	1
492.102	1	-8
493.294	1	-6
494.486	1	4
495.678	1	2
496.870	1	-3
498.062	1	-3
499.254	1	2
500.446	1	-10
501.638	1	-3
502.829	1	-4
504.021	1	3
505.213	1	4
506.404	1	4
507.596	1	-2
508.788	1	-1
509.979	1	-6
511.171	1	-5
512.362	1	-6
513.553	1	-6
514.745	1	5
515.936	1	7
517.127	1	-5
518.319	1	-4
519.510	1	10
520.701	1	3
521.892	1	2
523.083	1	-7
524.274	1	11
525.465	1	6
526.656	1	-1
527.847	1	10
529.038	1	2
530.229	1	-2
531.419	1	3
532.610	1	-8
533.801	1	14
534.991	1	-2
536.182	1	-5
537.373	1	8
538.563	1	8
539.754	1	2
540.944	1	-1
542.134	1	8
543.325	1	0
544.515	1	-4
545.705	1	-4
546.896	1	4
548.086	1	6
549.276	1	-4
550.466	1	2
551.656	1	2
552.846	1	-2
554.036	1	4
555.226	1	-4
556.416	1	2
557.606	1	-8
558.796	1	-2
559.986	1	-1
561.175	1	-1
562.365	1	1
563.555	1	-2
564.744	1	4
565.934	1	7
567.123	1	6
568.313	1	0
569.502	1	0
570.692	1	9
571.881	1	8
573.070	1	6
574.260	1	6
575.449	1	-1
576.638	1	5
577.827	1	-5
579.016	1	21
580.205	1	-7
581.394	1	13
582.583	1	8
583.772	1	8
584.961	1	3
586.150	1	1
587.339	1	6
588.528	1	-4
589.717	1	0
590.905	1	0
592.094	1	-1
593.283	1	2
594.471	1	5
595.660	1	2
596.848	1	6
598.037	1	-3
599.225	1	2
600.413	1	8
601.602	1	6
602.790	1	2
603.978	1	-2
605.166	1	10
606.355	1	4
607.543	1	4
608.731	1	-5
609.919	1	7
611.107	1	-1
612.295	1	-4
613.483	1	10
614.671	1	3
615.858	1	1
617.046	1	-1
618.234	1	0
619.422	1	-9
620.609	1	11
621.797	1	-6
622.985	1	-2
624.172	1	-4
625.360	1	-3
626.547	1	1
627.735	1	7
628.922	1	0
630.109	1	-4
631.297	1	-1
632.484	1	-1
633.671	1	-3
634.858	1	4
636.045	1	10
637.232	1	-3
638.419	1	5
639.606	1	2
640.793	1	8
641.980	1	6
643.167	1	5
644.354	1	2
645.541	1	6
646.728	1	-5
647.914	1	-3
649.101	1	-4
650.288	1	-3
651.474	1	-14
652.661	1	-4
653.847	1	4
655.034	1	4
656.220	1	-5
657.406	1	15
658.593	1	2
659.779	1	2
660.965	1	12
662.152	1	7
663.338	1	2
664.524	1	4
665.710	1	2
666.896	1	-7
668.082	1	7
669.268	1	-6
670.454	1	6
671.640	1	6
672.826	1	-3
674.011	1	-4
675.197	1	-13
676.383	1	2
677.569	1	-8
678.754	1	-7
679.940	1	-3
681.125	1	9
682.311	1	3
683.496	1	0
684.682	1	-2
685.867	1	-6
687.053	1	-3
688.238	1	4
688.746	1	0