File: Data/GaN_200K_800ms/GaN_sample F_spot 12_UVVIS_200 K_200um_800 ms 2x2mm1_487.txt
340.368	1	-3
341.565	1	-6
342.763	1	12
343.960	1	1
345.157	1	-4
346.354	1	-4
347.552	1	-11
348.749	1	-7
349.946	1	-12
351.143	1	-7
352.340	1	-1
353.537	1	0
354.734	1	2
355.931	1	-4
357.127	1	2
358.324	1	-6
359.521	1	7
360.718	1	-3
361.914	1	5
363.111	1	1
364.308	1	2
365.504	1	7
366.701	1	4
367.897	1	2
369.093	1	5
370.290	1	8
371.486	1	10
372.682	1	12
373.879	1	7
375.075	1	1
376.271	1	15
377.467	1	10
378.663	1	-3
379.859	1	1
381.055	1	0
382.251	1	-5
383.447	1	2
384.643	1	17
385.839	1	-2
387.035	1	4
388.230	1	7
389.426	1	1
390.622	1	3
391.817	1	-1
393.013	1	3
394.208	1	-3
395.404	1	3
396.599	1	1
397.795	1	-6
398.990	1	-6
400.186	1	-1
401.381	1	3
402.576	1	-1
403.771	1	-2
404.967	1	7
406.162	1	4
407.357	1	-8
408.552	1	-7
409.747	1	-4
410.942	1	7
412.137	1	8
413.332	1	-3
414.526	1	-4
415.721	1	3
416.916	1	-7
418.111	1	3
419.305	1	-6
420.500	1	0
421.695	1	0
422.889	1	-18
424.084	1	-1
425.278	1	7
426.472	1	-7
427.667	1	-4
428.861	1	10
430.055	1	3
431.250	1	-3
432.444	1	4
433.638	1	0
434.832	1	-2
436.026	1	2
437.220	1	0
438.414	1	-19
439.608	1	-7
440.802	1	3
441.996	1	6
443.190	1	1
444.384	1	-9
445.578	1	-9
446.771	1	6
447.965	1	0
449.159	1	-7
450.352	1	-4
451.546	1	-3
452.739	1	3
453.933	1	-5
455.126	1	-13
456.320	1	-9
457.513	1	0
458.706	1	3
459.899	1	-5
461.093	1	-6
462.286	1	4
463.479	1	-5
464.672	1	-3
465.865	1	-5
467.058	1	-6
468.251	1	-11
469.444	1	-3
470.637	1	2
471.830	1	3
473.023	1	1
474.215	1	5
475.408	1	-3
476.601	1	-1
477.793	1	2
478.986	1	0
480.179	1	2
481.371	1	-1
482.564	1	-3
483.756	1	12
484.948	1	-7
486.141	1	-6
487.333	1	-2
488.525	1	-1
489.718	1	-9
490.910	1	-9
492.102	1	-4
493.294	1	-2
494.486	1	9
495.678	1	-6
496.870	1	5
498.062	1	3
499.254	1	-5
500.446	1	-9
501.638	1	-8
502.829	1	5
504.021	1	-1
505.213	1	8
506.404	1	0
507.596	1	2
508.788	1	14
509.979	1	-5
511.171	1	-3
512.362	1	0
513.553	1	-19
514.745	1	-3
515.936	1	1
517.127	1	-2
518.319	1	3
519.510	1	-8
520.701	1	3
521.892	1	-3
523.083	1	2
524.274	1	2
525.465	1	4
526.656	1	-8
527.847	1	-2
529.038	1	-6
530.229	1	2
531.419	1	2
532.610	1	1
533.801	1	7
534.991	1	3
536.182	1	-4
537.373	1	-4
538.563	1	4
539.754	1	6
540.944	1	-4
542.134	1	7
543.325	1	2
544.515	1	-2
545.705	1	-5
546.896	1	-7
548.086	1	5
549.276	1	-9
550.466	1	-5
551.656	1	6
552.846	1	5
554.036	1	-4
555.226	1	-11
556.416	1	-3
557.606	1	1
558.796	1	-1
559.986	1	-4
561.175	1	0
562.365	1	2
563.555	1	-8
564.744	1	2
565.934	1	8
567.123	1	-2
568.313	1	-1
569.502	1	-11
570.692	1	2
571.881	1	2
573.070	1	5
574.260	1	15
575.449	1	-10
576.638	1	-7
577.827	1	-1
579.016	1	4
580.205	1	2
581.394	1	-4
582.583	1	7
583.772	1	6
584.961	1	3
586.150	1	-3
587.339	1	2
588.528	1	5
589.717	1	6
590.905	1	-4
592.094	1	6
593.283	1	-3
594.471	1	5
595.660	1	3
596.848	1	-13
598.037	1	2
599.225	1	-6
600.413	1	4
601.602	1	10
602.790	1	-2
603.978	1	-2
605.166	1	5
606.355	1	-2
607.543	1	-9
608.731	1	-4
609.919	1	3
611.107	1	-5
612.295	1	-10
613.483	1	4
614.671	1	-3
615.858	1	-1
617.046	1	2
618.234	1	-5
619.422	1	-6
620.609	1	-1
621.797	1	-8
622.985	1	10
624.172	1	0
625.360	1	4
626.547	1	2
627.735	1	3
628.922	1	0
630.109	1	-3
631.297	1	3
632.484	1	-5
633.671	1	-10
634.858	1	-3
636.045	1	12
637.232	1	-8
638.419	1	-3
639.606	1	5
640.793	1	5
641.980	1	4
643.167	1	-11
644.354	1	-4
645.541	1	-7
646.728	1	-11
647.914	1	6
649.101	1	-3
650.288	1	1
651.474	1	-7
652.661	1	0
653.847	1	9
655.034	1	0
656.220	1	-12
657.406	1	0
658.593	1	0
659.779	1	-2
660.965	1	6
662.152	1	-10
663.338	1	11
664.524	1	-7
665.710	1	2
666.896	1	-4
668.082	1	2
669.268	1	-2
670.454	1	10
671.640	1	0
672.826	1	-3
674.011	1	-13
675.197	1	-15
676.383	1	-2
677.569	1	-5
678.754	1	0
679.940	1	-3
681.125	1	4
682.311	1	7
683.496	1	-2
684.682	1	0
685.867	1	-1
687.053	1	-3
688.238	1	0
688.746	1	1