File: Data/GaN_170K_550ms/GaN_sample D_spot 18_UVVIS_170 K_200um_550 ms 2x2mm1_118.txt
340.368	1	10
341.565	1	6
342.763	1	5
343.960	1	-1
345.157	1	6
346.354	1	-8
347.552	1	10
348.749	1	13
349.946	1	7
351.143	1	5
352.340	1	7
353.537	1	1
354.734	1	10
355.931	1	12
357.127	1	9
358.324	1	12
359.521	1	15
360.718	1	13
361.914	1	17
363.111	1	33
364.308	1	47
365.504	1	51
366.701	1	57
367.897	1	56
369.093	1	57
370.290	1	57
371.486	1	39
372.682	1	42
373.879	1	45
375.075	1	46
376.271	1	38
377.467	1	22
378.663	1	13
379.859	1	13
381.055	1	11
382.251	1	18
383.447	1	13
384.643	1	9
385.839	1	-2
387.035	1	17
388.230	1	-1
389.426	1	7
390.622	1	5
391.817	1	-5
393.013	1	1
394.208	1	13
395.404	1	12
396.599	1	5
397.795	1	3
398.990	1	-11
400.186	1	0
401.381	1	21
402.576	1	3
403.771	1	1
404.967	1	4
406.162	1	8
407.357	1	4
408.552	1	-2
409.747	1	3
410.942	1	0
412.137	1	-10
413.332	1	-9
414.526	1	7
415.721	1	2
416.916	1	4
418.111	1	11
419.305	1	-2
420.500	1	-1
421.695	1	-10
422.889	1	6
424.084	1	9
425.278	1	0
426.472	1	3
427.667	1	2
428.861	1	6
430.055	1	-1
431.250	1	11
432.444	1	3
433.638	1	8
434.832	1	10
436.026	1	5
437.220	1	8
438.414	1	-12
439.608	1	-1
440.802	1	6
441.996	1	1
443.190	1	1
444.384	1	0
445.578	1	11
446.771	1	-11
447.965	1	2
449.159	1	-3
450.352	1	-5
451.546	1	-4
452.739	1	-3
453.933	1	8
455.126	1	6
456.320	1	8
457.513	1	18
458.706	1	4
459.899	1	8
461.093	1	17
462.286	1	-1
463.479	1	2
464.672	1	2
465.865	1	-2
467.058	1	5
468.251	1	8
469.444	1	-3
470.637	1	-1
471.830	1	-8
473.023	1	-2
474.215	1	2
475.408	1	-3
476.601	1	2
477.793	1	6
478.986	1	1
480.179	1	-5
481.371	1	4
482.564	1	-1
483.756	1	5
484.948	1	-7
486.141	1	5
487.333	1	11
488.525	1	16
489.718	1	10
490.910	1	-1
492.102	1	1
493.294	1	1
494.486	1	16
495.678	1	7
496.870	1	5
498.062	1	5
499.254	1	10
500.446	1	11
501.638	1	2
502.829	1	8
504.021	1	10
505.213	1	9
506.404	1	7
507.596	1	7
508.788	1	-2
509.979	1	6
511.171	1	9
512.362	1	6
513.553	1	-1
514.745	1	8
515.936	1	9
517.127	1	8
518.319	1	10
519.510	1	14
520.701	1	17
521.892	1	13
523.083	1	9
524.274	1	4
525.465	1	12
526.656	1	17
527.847	1	9
529.038	1	2
530.229	1	19
531.419	1	11
532.610	1	15
533.801	1	1
534.991	1	11
536.182	1	8
537.373	1	8
538.563	1	8
539.754	1	10
540.944	1	12
542.134	1	13
543.325	1	7
544.515	1	15
545.705	1	7
546.896	1	7
548.086	1	10
549.276	1	10
550.466	1	17
551.656	1	16
552.846	1	8
554.036	1	17
555.226	1	-1
556.416	1	6
557.606	1	2
558.796	1	9
559.986	1	11
561.175	1	3
562.365	1	5
563.555	1	7
564.744	1	2
565.934	1	11
567.123	1	0
568.313	1	6
569.502	1	4
570.692	1	18
571.881	1	-1
573.070	1	8
574.260	1	10
575.449	1	8
576.638	1	13
577.827	1	4
579.016	1	11
580.205	1	3
581.394	1	10
582.583	1	13
583.772	1	-2
584.961	1	2
586.150	1	0
587.339	1	-7
588.528	1	5
589.717	1	11
590.905	1	11
592.094	1	8
593.283	1	11
594.471	1	8
595.660	1	-4
596.848	1	6
598.037	1	5
599.225	1	13
600.413	1	-1
601.602	1	2
602.790	1	7
603.978	1	2
605.166	1	12
606.355	1	15
607.543	1	14
608.731	1	4
609.919	1	11
611.107	1	-7
612.295	1	9
613.483	1	3
614.671	1	13
615.858	1	-2
617.046	1	0
618.234	1	-1
619.422	1	2
620.609	1	4
621.797	1	9
622.985	1	11
624.172	1	6
625.360	1	5
626.547	1	-3
627.735	1	-7
628.922	1	-3
630.109	1	-5
631.297	1	-2
632.484	1	-1
633.671	1	9
634.858	1	7
636.045	1	0
637.232	1	8
638.419	1	-4
639.606	1	-4
640.793	1	-4
641.980	1	2
643.167	1	-3
644.354	1	6
645.541	1	6
646.728	1	1
647.914	1	6
649.101	1	3
650.288	1	-1
651.474	1	14
652.661	1	0
653.847	1	9
655.034	1	-6
656.220	1	9
657.406	1	4
658.593	1	5
659.779	1	6
660.965	1	8
662.152	1	-1
663.338	1	5
664.524	1	-4
665.710	1	6
666.896	1	1
668.082	1	4
669.268	1	12
670.454	1	1
671.640	1	8
672.826	1	3
674.011	1	9
675.197	1	14
676.383	1	0
677.569	1	-6
678.754	1	5
679.940	1	11
681.125	1	-5
682.311	1	2
683.496	1	2
684.682	1	9
685.867	1	4
687.053	1	1
688.238	1	-7
688.746	1	4