File: Data/GaN_170K_550ms/GaN_sample D_spot 18_UVVIS_170 K_200um_550 ms 2x2mm1_39.txt
340.368	1	5
341.565	1	4
342.763	1	-4
343.960	1	-4
345.157	1	-7
346.354	1	-2
347.552	1	13
348.749	1	9
349.946	1	3
351.143	1	7
352.340	1	9
353.537	1	4
354.734	1	2
355.931	1	-1
357.127	1	1
358.324	1	2
359.521	1	9
360.718	1	-2
361.914	1	-5
363.111	1	3
364.308	1	-1
365.504	1	-3
366.701	1	1
367.897	1	-1
369.093	1	1
370.290	1	-1
371.486	1	1
372.682	1	0
373.879	1	-5
375.075	1	1
376.271	1	6
377.467	1	8
378.663	1	-1
379.859	1	0
381.055	1	9
382.251	1	6
383.447	1	10
384.643	1	-1
385.839	1	-5
387.035	1	-1
388.230	1	2
389.426	1	1
390.622	1	1
391.817	1	8
393.013	1	1
394.208	1	1
395.404	1	5
396.599	1	-10
397.795	1	5
398.990	1	-9
400.186	1	-4
401.381	1	10
402.576	1	-2
403.771	1	1
404.967	1	2
406.162	1	9
407.357	1	-1
408.552	1	0
409.747	1	-1
410.942	1	-3
412.137	1	-4
413.332	1	4
414.526	1	2
415.721	1	-10
416.916	1	1
418.111	1	16
419.305	1	-2
420.500	1	2
421.695	1	-7
422.889	1	2
424.084	1	8
425.278	1	4
426.472	1	5
427.667	1	7
428.861	1	-1
430.055	1	-1
431.250	1	10
432.444	1	9
433.638	1	12
434.832	1	1
436.026	1	1
437.220	1	-3
438.414	1	-6
439.608	1	-2
440.802	1	9
441.996	1	-7
443.190	1	-5
444.384	1	6
445.578	1	6
446.771	1	-7
447.965	1	5
449.159	1	2
450.352	1	-6
451.546	1	-4
452.739	1	5
453.933	1	2
455.126	1	6
456.320	1	3
457.513	1	8
458.706	1	3
459.899	1	2
461.093	1	-2
462.286	1	-1
463.479	1	-6
464.672	1	2
465.865	1	6
467.058	1	-1
468.251	1	10
469.444	1	0
470.637	1	-9
471.830	1	2
473.023	1	1
474.215	1	4
475.408	1	-5
476.601	1	4
477.793	1	1
478.986	1	-7
480.179	1	-3
481.371	1	1
482.564	1	3
483.756	1	6
484.948	1	-8
486.141	1	15
487.333	1	-7
488.525	1	7
489.718	1	3
490.910	1	3
492.102	1	3
493.294	1	-4
494.486	1	11
495.678	1	6
496.870	1	2
498.062	1	-2
499.254	1	-1
500.446	1	0
501.638	1	-13
502.829	1	-5
504.021	1	6
505.213	1	-3
506.404	1	5
507.596	1	3
508.788	1	-3
509.979	1	7
511.171	1	8
512.362	1	-5
513.553	1	-3
514.745	1	-4
515.936	1	-1
517.127	1	8
518.319	1	3
519.510	1	3
520.701	1	1
521.892	1	7
523.083	1	-5
524.274	1	3
525.465	1	6
526.656	1	7
527.847	1	-3
529.038	1	1
530.229	1	14
531.419	1	5
532.610	1	4
533.801	1	7
534.991	1	-4
536.182	1	4
537.373	1	-9
538.563	1	5
539.754	1	1
540.944	1	1
542.134	1	1
543.325	1	1
544.515	1	-1
545.705	1	4
546.896	1	-2
548.086	1	-7
549.276	1	7
550.466	1	1
551.656	1	8
552.846	1	0
554.036	1	-6
555.226	1	1
556.416	1	-1
557.606	1	3
558.796	1	2
559.986	1	0
561.175	1	-5
562.365	1	9
563.555	1	2
564.744	1	0
565.934	1	0
567.123	1	1
568.313	1	2
569.502	1	3
570.692	1	10
571.881	1	1
573.070	1	4
574.260	1	-3
575.449	1	-1
576.638	1	0
577.827	1	-9
579.016	1	1
580.205	1	1
581.394	1	0
582.583	1	-2
583.772	1	-9
584.961	1	-1
586.150	1	-1
587.339	1	-4
588.528	1	3
589.717	1	3
590.905	1	12
592.094	1	2
593.283	1	2
594.471	1	5
595.660	1	5
596.848	1	4
598.037	1	-3
599.225	1	4
600.413	1	-6
601.602	1	7
602.790	1	16
603.978	1	1
605.166	1	5
606.355	1	5
607.543	1	11
608.731	1	3
609.919	1	-2
611.107	1	-5
612.295	1	0
613.483	1	-4
614.671	1	19
615.858	1	4
617.046	1	-8
618.234	1	10
619.422	1	-6
620.609	1	6
621.797	1	6
622.985	1	-5
624.172	1	2
625.360	1	2
626.547	1	-2
627.735	1	-14
628.922	1	-1
630.109	1	4
631.297	1	4
632.484	1	3
633.671	1	9
634.858	1	-5
636.045	1	6
637.232	1	1
638.419	1	-8
639.606	1	-8
640.793	1	-6
641.980	1	-3
643.167	1	7
644.354	1	2
645.541	1	-3
646.728	1	2
647.914	1	4
649.101	1	-3
650.288	1	-2
651.474	1	10
652.661	1	4
653.847	1	4
655.034	1	-6
656.220	1	-11
657.406	1	0
658.593	1	0
659.779	1	3
660.965	1	9
662.152	1	4
663.338	1	15
664.524	1	8
665.710	1	7
666.896	1	2
668.082	1	9
669.268	1	-2
670.454	1	-9
671.640	1	15
672.826	1	0
674.011	1	3
675.197	1	4
676.383	1	6
677.569	1	-1
678.754	1	-2
679.940	1	4
681.125	1	11
682.311	1	-8
683.496	1	12
684.682	1	0
685.867	1	4
687.053	1	-7
688.238	1	-2
688.746	1	-12