File: Data/GaN_170K_550ms/GaN_sample D_spot 18_UVVIS_170 K_200um_550 ms 2x2mm1_351.txt
340.368	1	-5
341.565	1	-5
342.763	1	-1
343.960	1	-3
345.157	1	-7
346.354	1	-3
347.552	1	0
348.749	1	8
349.946	1	4
351.143	1	-2
352.340	1	-5
353.537	1	1
354.734	1	2
355.931	1	-1
357.127	1	2
358.324	1	9
359.521	1	2
360.718	1	6
361.914	1	4
363.111	1	8
364.308	1	3
365.504	1	-3
366.701	1	7
367.897	1	6
369.093	1	-4
370.290	1	0
371.486	1	-3
372.682	1	6
373.879	1	7
375.075	1	8
376.271	1	10
377.467	1	4
378.663	1	-4
379.859	1	7
381.055	1	2
382.251	1	-2
383.447	1	9
384.643	1	-6
385.839	1	-2
387.035	1	0
388.230	1	-12
389.426	1	4
390.622	1	0
391.817	1	-4
393.013	1	6
394.208	1	-1
395.404	1	1
396.599	1	-4
397.795	1	-5
398.990	1	-14
400.186	1	-17
401.381	1	12
402.576	1	-2
403.771	1	-3
404.967	1	-3
406.162	1	3
407.357	1	-4
408.552	1	-7
409.747	1	-1
410.942	1	3
412.137	1	-10
413.332	1	-5
414.526	1	7
415.721	1	-4
416.916	1	-7
418.111	1	2
419.305	1	1
420.500	1	0
421.695	1	-11
422.889	1	-5
424.084	1	4
425.278	1	-6
426.472	1	7
427.667	1	0
428.861	1	-1
430.055	1	-2
431.250	1	13
432.444	1	0
433.638	1	8
434.832	1	5
436.026	1	-6
437.220	1	6
438.414	1	-1
439.608	1	-1
440.802	1	11
441.996	1	2
443.190	1	3
444.384	1	2
445.578	1	6
446.771	1	-14
447.965	1	0
449.159	1	-5
450.352	1	1
451.546	1	-9
452.739	1	-4
453.933	1	-5
455.126	1	6
456.320	1	7
457.513	1	7
458.706	1	-6
459.899	1	5
461.093	1	9
462.286	1	-8
463.479	1	3
464.672	1	-6
465.865	1	-2
467.058	1	5
468.251	1	0
469.444	1	2
470.637	1	-8
471.830	1	-3
473.023	1	-2
474.215	1	1
475.408	1	-5
476.601	1	4
477.793	1	5
478.986	1	-9
480.179	1	-6
481.371	1	3
482.564	1	2
483.756	1	-3
484.948	1	0
486.141	1	10
487.333	1	-5
488.525	1	6
489.718	1	9
490.910	1	-2
492.102	1	-8
493.294	1	-2
494.486	1	4
495.678	1	1
496.870	1	-2
498.062	1	-2
499.254	1	8
500.446	1	4
501.638	1	-12
502.829	1	-10
504.021	1	6
505.213	1	-2
506.404	1	0
507.596	1	-7
508.788	1	-7
509.979	1	2
511.171	1	9
512.362	1	3
513.553	1	1
514.745	1	-4
515.936	1	2
517.127	1	9
518.319	1	1
519.510	1	3
520.701	1	-1
521.892	1	9
523.083	1	4
524.274	1	1
525.465	1	4
526.656	1	12
527.847	1	0
529.038	1	-6
530.229	1	3
531.419	1	7
532.610	1	14
533.801	1	6
534.991	1	-4
536.182	1	2
537.373	1	-3
538.563	1	3
539.754	1	0
540.944	1	-6
542.134	1	1
543.325	1	3
544.515	1	4
545.705	1	10
546.896	1	0
548.086	1	-1
549.276	1	1
550.466	1	-3
551.656	1	5
552.846	1	-5
554.036	1	-6
555.226	1	-1
556.416	1	-7
557.606	1	3
558.796	1	4
559.986	1	4
561.175	1	-6
562.365	1	7
563.555	1	1
564.744	1	-4
565.934	1	0
567.123	1	5
568.313	1	-2
569.502	1	1
570.692	1	7
571.881	1	3
573.070	1	-9
574.260	1	3
575.449	1	2
576.638	1	2
577.827	1	-2
579.016	1	-2
580.205	1	-11
581.394	1	3
582.583	1	5
583.772	1	-1
584.961	1	4
586.150	1	0
587.339	1	-1
588.528	1	-3
589.717	1	4
590.905	1	8
592.094	1	5
593.283	1	8
594.471	1	4
595.660	1	5
596.848	1	6
598.037	1	1
599.225	1	5
600.413	1	-1
601.602	1	-3
602.790	1	6
603.978	1	14
605.166	1	12
606.355	1	5
607.543	1	6
608.731	1	-4
609.919	1	2
611.107	1	-13
612.295	1	-4
613.483	1	-5
614.671	1	7
615.858	1	3
617.046	1	3
618.234	1	-2
619.422	1	-6
620.609	1	4
621.797	1	0
622.985	1	10
624.172	1	-5
625.360	1	5
626.547	1	-5
627.735	1	-15
628.922	1	-1
630.109	1	1
631.297	1	-3
632.484	1	2
633.671	1	6
634.858	1	3
636.045	1	9
637.232	1	7
638.419	1	-4
639.606	1	-9
640.793	1	-7
641.980	1	-1
643.167	1	-9
644.354	1	-4
645.541	1	6
646.728	1	2
647.914	1	-3
649.101	1	-5
650.288	1	-4
651.474	1	-2
652.661	1	0
653.847	1	0
655.034	1	-4
656.220	1	0
657.406	1	-3
658.593	1	-4
659.779	1	1
660.965	1	11
662.152	1	-9
663.338	1	7
664.524	1	10
665.710	1	-7
666.896	1	-4
668.082	1	6
669.268	1	2
670.454	1	4
671.640	1	10
672.826	1	5
674.011	1	5
675.197	1	0
676.383	1	5
677.569	1	-1
678.754	1	4
679.940	1	5
681.125	1	6
682.311	1	-7
683.496	1	1
684.682	1	4
685.867	1	-1
687.053	1	-7
688.238	1	5
688.746	1	-10