File: Data/GaN_170K_550ms/GaN_sample D_spot 18_UVVIS_170 K_200um_550 ms 2x2mm1_56.txt
340.368	1	4
341.565	1	5
342.763	1	11
343.960	1	5
345.157	1	8
346.354	1	3
347.552	1	16
348.749	1	14
349.946	1	15
351.143	1	15
352.340	1	18
353.537	1	24
354.734	1	30
355.931	1	35
357.127	1	42
358.324	1	66
359.521	1	82
360.718	1	118
361.914	1	179
363.111	1	298
364.308	1	472
365.504	1	750
366.701	1	1143
367.897	1	1457
369.093	1	1566
370.290	1	1326
371.486	1	1018
372.682	1	788
373.879	1	646
375.075	1	523
376.271	1	429
377.467	1	343
378.663	1	277
379.859	1	227
381.055	1	201
382.251	1	157
383.447	1	173
384.643	1	155
385.839	1	132
387.035	1	132
388.230	1	94
389.426	1	100
390.622	1	91
391.817	1	75
393.013	1	72
394.208	1	73
395.404	1	69
396.599	1	58
397.795	1	62
398.990	1	56
400.186	1	55
401.381	1	52
402.576	1	48
403.771	1	42
404.967	1	40
406.162	1	52
407.357	1	36
408.552	1	29
409.747	1	30
410.942	1	29
412.137	1	29
413.332	1	41
414.526	1	28
415.721	1	21
416.916	1	21
418.111	1	29
419.305	1	23
420.500	1	23
421.695	1	13
422.889	1	12
424.084	1	32
425.278	1	26
426.472	1	22
427.667	1	24
428.861	1	14
430.055	1	29
431.250	1	42
432.444	1	15
433.638	1	21
434.832	1	14
436.026	1	19
437.220	1	7
438.414	1	18
439.608	1	14
440.802	1	20
441.996	1	6
443.190	1	9
444.384	1	23
445.578	1	23
446.771	1	4
447.965	1	21
449.159	1	17
450.352	1	5
451.546	1	14
452.739	1	13
453.933	1	18
455.126	1	26
456.320	1	11
457.513	1	25
458.706	1	33
459.899	1	13
461.093	1	30
462.286	1	14
463.479	1	17
464.672	1	7
465.865	1	18
467.058	1	13
468.251	1	11
469.444	1	14
470.637	1	17
471.830	1	14
473.023	1	20
474.215	1	25
475.408	1	19
476.601	1	19
477.793	1	33
478.986	1	27
480.179	1	39
481.371	1	26
482.564	1	33
483.756	1	26
484.948	1	30
486.141	1	45
487.333	1	34
488.525	1	47
489.718	1	58
490.910	1	54
492.102	1	47
493.294	1	55
494.486	1	63
495.678	1	53
496.870	1	62
498.062	1	70
499.254	1	76
500.446	1	80
501.638	1	77
502.829	1	79
504.021	1	95
505.213	1	100
506.404	1	106
507.596	1	106
508.788	1	98
509.979	1	111
511.171	1	123
512.362	1	117
513.553	1	116
514.745	1	125
515.936	1	119
517.127	1	130
518.319	1	140
519.510	1	147
520.701	1	147
521.892	1	140
523.083	1	143
524.274	1	139
525.465	1	152
526.656	1	162
527.847	1	150
529.038	1	166
530.229	1	175
531.419	1	174
532.610	1	160
533.801	1	163
534.991	1	157
536.182	1	151
537.373	1	137
538.563	1	148
539.754	1	143
540.944	1	144
542.134	1	155
543.325	1	156
544.515	1	151
545.705	1	165
546.896	1	160
548.086	1	172
549.276	1	163
550.466	1	164
551.656	1	159
552.846	1	163
554.036	1	146
555.226	1	133
556.416	1	143
557.606	1	144
558.796	1	134
559.986	1	134
561.175	1	120
562.365	1	130
563.555	1	127
564.744	1	133
565.934	1	123
567.123	1	122
568.313	1	117
569.502	1	128
570.692	1	124
571.881	1	124
573.070	1	108
574.260	1	107
575.449	1	113
576.638	1	105
577.827	1	111
579.016	1	109
580.205	1	107
581.394	1	109
582.583	1	100
583.772	1	101
584.961	1	109
586.150	1	97
587.339	1	87
588.528	1	93
589.717	1	88
590.905	1	85
592.094	1	87
593.283	1	85
594.471	1	71
595.660	1	68
596.848	1	75
598.037	1	75
599.225	1	79
600.413	1	77
601.602	1	78
602.790	1	80
603.978	1	73
605.166	1	77
606.355	1	77
607.543	1	79
608.731	1	72
609.919	1	69
611.107	1	68
612.295	1	66
613.483	1	60
614.671	1	63
615.858	1	46
617.046	1	62
618.234	1	57
619.422	1	49
620.609	1	55
621.797	1	55
622.985	1	58
624.172	1	54
625.360	1	57
626.547	1	49
627.735	1	46
628.922	1	53
630.109	1	57
631.297	1	41
632.484	1	45
633.671	1	44
634.858	1	43
636.045	1	55
637.232	1	40
638.419	1	36
639.606	1	38
640.793	1	35
641.980	1	43
643.167	1	32
644.354	1	42
645.541	1	43
646.728	1	45
647.914	1	44
649.101	1	41
650.288	1	36
651.474	1	38
652.661	1	40
653.847	1	43
655.034	1	33
656.220	1	31
657.406	1	30
658.593	1	30
659.779	1	39
660.965	1	35
662.152	1	36
663.338	1	28
664.524	1	19
665.710	1	25
666.896	1	28
668.082	1	36
669.268	1	27
670.454	1	12
671.640	1	28
672.826	1	21
674.011	1	28
675.197	1	32
676.383	1	26
677.569	1	19
678.754	1	26
679.940	1	37
681.125	1	28
682.311	1	28
683.496	1	27
684.682	1	43
685.867	1	33
687.053	1	16
688.238	1	28
688.746	1	16