File: Data/GaN_170K_550ms/GaN_sample D_spot 18_UVVIS_170 K_200um_550 ms 2x2mm1_297.txt
340.368	1	-1
341.565	1	4
342.763	1	5
343.960	1	-3
345.157	1	3
346.354	1	-3
347.552	1	5
348.749	1	-1
349.946	1	8
351.143	1	-6
352.340	1	3
353.537	1	3
354.734	1	6
355.931	1	6
357.127	1	-7
358.324	1	1
359.521	1	8
360.718	1	1
361.914	1	6
363.111	1	15
364.308	1	15
365.504	1	3
366.701	1	9
367.897	1	8
369.093	1	-8
370.290	1	6
371.486	1	6
372.682	1	10
373.879	1	7
375.075	1	5
376.271	1	10
377.467	1	9
378.663	1	8
379.859	1	4
381.055	1	7
382.251	1	0
383.447	1	9
384.643	1	-4
385.839	1	-2
387.035	1	0
388.230	1	-13
389.426	1	11
390.622	1	-6
391.817	1	4
393.013	1	6
394.208	1	11
395.404	1	15
396.599	1	-10
397.795	1	1
398.990	1	-9
400.186	1	2
401.381	1	3
402.576	1	-11
403.771	1	0
404.967	1	4
406.162	1	4
407.357	1	-4
408.552	1	-4
409.747	1	-9
410.942	1	8
412.137	1	-7
413.332	1	-9
414.526	1	6
415.721	1	4
416.916	1	-6
418.111	1	4
419.305	1	-6
420.500	1	-3
421.695	1	-8
422.889	1	-1
424.084	1	16
425.278	1	-2
426.472	1	8
427.667	1	3
428.861	1	0
430.055	1	5
431.250	1	12
432.444	1	7
433.638	1	11
434.832	1	7
436.026	1	0
437.220	1	-6
438.414	1	-7
439.608	1	1
440.802	1	13
441.996	1	0
443.190	1	-5
444.384	1	4
445.578	1	9
446.771	1	-11
447.965	1	-6
449.159	1	3
450.352	1	-4
451.546	1	-11
452.739	1	1
453.933	1	4
455.126	1	10
456.320	1	8
457.513	1	8
458.706	1	6
459.899	1	-5
461.093	1	6
462.286	1	-3
463.479	1	3
464.672	1	-8
465.865	1	2
467.058	1	-4
468.251	1	2
469.444	1	-5
470.637	1	2
471.830	1	-2
473.023	1	8
474.215	1	-3
475.408	1	-3
476.601	1	0
477.793	1	12
478.986	1	-6
480.179	1	-3
481.371	1	2
482.564	1	-4
483.756	1	4
484.948	1	-6
486.141	1	4
487.333	1	-11
488.525	1	4
489.718	1	0
490.910	1	-4
492.102	1	-6
493.294	1	-3
494.486	1	8
495.678	1	7
496.870	1	8
498.062	1	-1
499.254	1	17
500.446	1	2
501.638	1	-7
502.829	1	7
504.021	1	4
505.213	1	-7
506.404	1	11
507.596	1	13
508.788	1	-3
509.979	1	6
511.171	1	2
512.362	1	-6
513.553	1	0
514.745	1	-2
515.936	1	6
517.127	1	2
518.319	1	0
519.510	1	4
520.701	1	8
521.892	1	5
523.083	1	0
524.274	1	2
525.465	1	2
526.656	1	8
527.847	1	-4
529.038	1	5
530.229	1	8
531.419	1	13
532.610	1	7
533.801	1	10
534.991	1	1
536.182	1	6
537.373	1	-2
538.563	1	6
539.754	1	-6
540.944	1	-1
542.134	1	4
543.325	1	3
544.515	1	-3
545.705	1	3
546.896	1	6
548.086	1	3
549.276	1	5
550.466	1	0
551.656	1	3
552.846	1	-2
554.036	1	3
555.226	1	-4
556.416	1	2
557.606	1	2
558.796	1	-7
559.986	1	5
561.175	1	-4
562.365	1	0
563.555	1	4
564.744	1	4
565.934	1	-1
567.123	1	1
568.313	1	-9
569.502	1	8
570.692	1	3
571.881	1	1
573.070	1	1
574.260	1	4
575.449	1	4
576.638	1	-3
577.827	1	-2
579.016	1	5
580.205	1	2
581.394	1	0
582.583	1	3
583.772	1	-10
584.961	1	7
586.150	1	-1
587.339	1	0
588.528	1	-3
589.717	1	7
590.905	1	0
592.094	1	2
593.283	1	6
594.471	1	8
595.660	1	-8
596.848	1	2
598.037	1	1
599.225	1	0
600.413	1	2
601.602	1	3
602.790	1	1
603.978	1	10
605.166	1	6
606.355	1	1
607.543	1	15
608.731	1	4
609.919	1	-1
611.107	1	-5
612.295	1	-6
613.483	1	-6
614.671	1	7
615.858	1	4
617.046	1	-10
618.234	1	-7
619.422	1	-1
620.609	1	-2
621.797	1	-2
622.985	1	1
624.172	1	-6
625.360	1	-1
626.547	1	-6
627.735	1	-12
628.922	1	-8
630.109	1	-3
631.297	1	-1
632.484	1	1
633.671	1	3
634.858	1	12
636.045	1	13
637.232	1	5
638.419	1	-8
639.606	1	-3
640.793	1	-3
641.980	1	1
643.167	1	-2
644.354	1	-5
645.541	1	2
646.728	1	5
647.914	1	1
649.101	1	1
650.288	1	-2
651.474	1	17
652.661	1	0
653.847	1	0
655.034	1	-8
656.220	1	2
657.406	1	1
658.593	1	3
659.779	1	8
660.965	1	10
662.152	1	-1
663.338	1	7
664.524	1	6
665.710	1	5
666.896	1	10
668.082	1	10
669.268	1	-2
670.454	1	-6
671.640	1	-3
672.826	1	0
674.011	1	3
675.197	1	8
676.383	1	1
677.569	1	-5
678.754	1	-1
679.940	1	9
681.125	1	11
682.311	1	-4
683.496	1	5
684.682	1	1
685.867	1	8
687.053	1	2
688.238	1	3
688.746	1	-8