File: Data/GaN_170K_550ms/GaN_sample D_spot 18_UVVIS_170 K_200um_550 ms 2x2mm1_105.txt
340.368	1	3
341.565	1	9
342.763	1	10
343.960	1	0
345.157	1	2
346.354	1	2
347.552	1	13
348.749	1	9
349.946	1	19
351.143	1	-7
352.340	1	11
353.537	1	2
354.734	1	14
355.931	1	6
357.127	1	7
358.324	1	14
359.521	1	17
360.718	1	17
361.914	1	22
363.111	1	36
364.308	1	51
365.504	1	60
366.701	1	68
367.897	1	73
369.093	1	65
370.290	1	77
371.486	1	59
372.682	1	57
373.879	1	55
375.075	1	48
376.271	1	39
377.467	1	29
378.663	1	29
379.859	1	29
381.055	1	14
382.251	1	14
383.447	1	15
384.643	1	11
385.839	1	6
387.035	1	14
388.230	1	1
389.426	1	14
390.622	1	10
391.817	1	0
393.013	1	-5
394.208	1	4
395.404	1	14
396.599	1	-6
397.795	1	5
398.990	1	-5
400.186	1	3
401.381	1	13
402.576	1	7
403.771	1	1
404.967	1	2
406.162	1	8
407.357	1	6
408.552	1	7
409.747	1	5
410.942	1	1
412.137	1	-2
413.332	1	-2
414.526	1	7
415.721	1	-2
416.916	1	-7
418.111	1	18
419.305	1	0
420.500	1	10
421.695	1	-5
422.889	1	0
424.084	1	15
425.278	1	5
426.472	1	2
427.667	1	12
428.861	1	3
430.055	1	8
431.250	1	17
432.444	1	-2
433.638	1	10
434.832	1	0
436.026	1	-2
437.220	1	11
438.414	1	-1
439.608	1	9
440.802	1	18
441.996	1	1
443.190	1	2
444.384	1	7
445.578	1	11
446.771	1	-7
447.965	1	1
449.159	1	-13
450.352	1	-6
451.546	1	-14
452.739	1	1
453.933	1	6
455.126	1	19
456.320	1	1
457.513	1	5
458.706	1	-1
459.899	1	-2
461.093	1	1
462.286	1	-4
463.479	1	-1
464.672	1	3
465.865	1	11
467.058	1	5
468.251	1	5
469.444	1	2
470.637	1	7
471.830	1	-9
473.023	1	2
474.215	1	3
475.408	1	-3
476.601	1	1
477.793	1	12
478.986	1	-4
480.179	1	-3
481.371	1	6
482.564	1	1
483.756	1	4
484.948	1	8
486.141	1	16
487.333	1	-6
488.525	1	11
489.718	1	12
490.910	1	6
492.102	1	-1
493.294	1	4
494.486	1	11
495.678	1	6
496.870	1	9
498.062	1	7
499.254	1	10
500.446	1	2
501.638	1	0
502.829	1	11
504.021	1	14
505.213	1	8
506.404	1	11
507.596	1	14
508.788	1	2
509.979	1	7
511.171	1	11
512.362	1	9
513.553	1	16
514.745	1	2
515.936	1	14
517.127	1	11
518.319	1	18
519.510	1	18
520.701	1	18
521.892	1	11
523.083	1	15
524.274	1	5
525.465	1	14
526.656	1	18
527.847	1	13
529.038	1	6
530.229	1	20
531.419	1	24
532.610	1	9
533.801	1	15
534.991	1	13
536.182	1	16
537.373	1	5
538.563	1	20
539.754	1	10
540.944	1	9
542.134	1	8
543.325	1	21
544.515	1	10
545.705	1	15
546.896	1	11
548.086	1	12
549.276	1	11
550.466	1	10
551.656	1	17
552.846	1	19
554.036	1	17
555.226	1	2
556.416	1	4
557.606	1	13
558.796	1	9
559.986	1	10
561.175	1	-5
562.365	1	14
563.555	1	2
564.744	1	7
565.934	1	12
567.123	1	4
568.313	1	7
569.502	1	8
570.692	1	12
571.881	1	10
573.070	1	8
574.260	1	1
575.449	1	13
576.638	1	20
577.827	1	3
579.016	1	4
580.205	1	0
581.394	1	7
582.583	1	2
583.772	1	0
584.961	1	8
586.150	1	6
587.339	1	7
588.528	1	-2
589.717	1	6
590.905	1	16
592.094	1	11
593.283	1	16
594.471	1	9
595.660	1	-1
596.848	1	12
598.037	1	1
599.225	1	6
600.413	1	-4
601.602	1	14
602.790	1	14
603.978	1	5
605.166	1	15
606.355	1	8
607.543	1	12
608.731	1	12
609.919	1	-4
611.107	1	3
612.295	1	7
613.483	1	-7
614.671	1	7
615.858	1	0
617.046	1	5
618.234	1	4
619.422	1	5
620.609	1	-1
621.797	1	-1
622.985	1	-1
624.172	1	2
625.360	1	3
626.547	1	0
627.735	1	-18
628.922	1	-9
630.109	1	-2
631.297	1	0
632.484	1	4
633.671	1	12
634.858	1	4
636.045	1	9
637.232	1	5
638.419	1	-2
639.606	1	-2
640.793	1	-2
641.980	1	-5
643.167	1	2
644.354	1	2
645.541	1	4
646.728	1	4
647.914	1	7
649.101	1	6
650.288	1	2
651.474	1	10
652.661	1	7
653.847	1	2
655.034	1	2
656.220	1	9
657.406	1	0
658.593	1	2
659.779	1	0
660.965	1	5
662.152	1	6
663.338	1	12
664.524	1	6
665.710	1	1
666.896	1	2
668.082	1	3
669.268	1	-1
670.454	1	-1
671.640	1	6
672.826	1	5
674.011	1	6
675.197	1	3
676.383	1	-7
677.569	1	0
678.754	1	6
679.940	1	5
681.125	1	6
682.311	1	9
683.496	1	-4
684.682	1	9
685.867	1	10
687.053	1	0
688.238	1	0
688.746	1	-5