File: Data/GaN_170K_550ms/GaN_sample D_spot 18_UVVIS_170 K_200um_550 ms 2x2mm1_163.txt
340.368	1	-2
341.565	1	0
342.763	1	8
343.960	1	-3
345.157	1	-3
346.354	1	-5
347.552	1	9
348.749	1	-2
349.946	1	9
351.143	1	-3
352.340	1	11
353.537	1	5
354.734	1	-4
355.931	1	3
357.127	1	0
358.324	1	8
359.521	1	16
360.718	1	8
361.914	1	10
363.111	1	22
364.308	1	28
365.504	1	18
366.701	1	22
367.897	1	25
369.093	1	18
370.290	1	36
371.486	1	14
372.682	1	16
373.879	1	14
375.075	1	6
376.271	1	18
377.467	1	5
378.663	1	16
379.859	1	6
381.055	1	16
382.251	1	11
383.447	1	5
384.643	1	3
385.839	1	7
387.035	1	9
388.230	1	-2
389.426	1	7
390.622	1	3
391.817	1	11
393.013	1	0
394.208	1	9
395.404	1	18
396.599	1	-4
397.795	1	7
398.990	1	3
400.186	1	-2
401.381	1	7
402.576	1	-2
403.771	1	6
404.967	1	-2
406.162	1	-3
407.357	1	-6
408.552	1	8
409.747	1	2
410.942	1	4
412.137	1	-9
413.332	1	1
414.526	1	4
415.721	1	6
416.916	1	-6
418.111	1	11
419.305	1	1
420.500	1	1
421.695	1	-5
422.889	1	2
424.084	1	19
425.278	1	2
426.472	1	3
427.667	1	5
428.861	1	-1
430.055	1	0
431.250	1	10
432.444	1	-3
433.638	1	9
434.832	1	6
436.026	1	-8
437.220	1	-1
438.414	1	-2
439.608	1	7
440.802	1	8
441.996	1	-7
443.190	1	5
444.384	1	4
445.578	1	10
446.771	1	-14
447.965	1	0
449.159	1	3
450.352	1	-4
451.546	1	-7
452.739	1	10
453.933	1	2
455.126	1	10
456.320	1	5
457.513	1	1
458.706	1	7
459.899	1	11
461.093	1	9
462.286	1	-5
463.479	1	-6
464.672	1	-6
465.865	1	3
467.058	1	5
468.251	1	-5
469.444	1	6
470.637	1	-4
471.830	1	3
473.023	1	5
474.215	1	11
475.408	1	-2
476.601	1	7
477.793	1	1
478.986	1	4
480.179	1	-1
481.371	1	1
482.564	1	-1
483.756	1	3
484.948	1	2
486.141	1	10
487.333	1	-6
488.525	1	9
489.718	1	8
490.910	1	3
492.102	1	1
493.294	1	3
494.486	1	7
495.678	1	-1
496.870	1	5
498.062	1	5
499.254	1	3
500.446	1	6
501.638	1	-8
502.829	1	-4
504.021	1	6
505.213	1	-1
506.404	1	3
507.596	1	12
508.788	1	3
509.979	1	10
511.171	1	7
512.362	1	-1
513.553	1	11
514.745	1	-3
515.936	1	7
517.127	1	3
518.319	1	-3
519.510	1	6
520.701	1	6
521.892	1	3
523.083	1	-2
524.274	1	-2
525.465	1	7
526.656	1	9
527.847	1	10
529.038	1	6
530.229	1	13
531.419	1	14
532.610	1	6
533.801	1	12
534.991	1	2
536.182	1	6
537.373	1	2
538.563	1	9
539.754	1	-3
540.944	1	14
542.134	1	12
543.325	1	0
544.515	1	-1
545.705	1	7
546.896	1	16
548.086	1	8
549.276	1	10
550.466	1	8
551.656	1	5
552.846	1	5
554.036	1	6
555.226	1	-4
556.416	1	10
557.606	1	12
558.796	1	-2
559.986	1	10
561.175	1	-3
562.365	1	9
563.555	1	5
564.744	1	4
565.934	1	9
567.123	1	7
568.313	1	-1
569.502	1	5
570.692	1	12
571.881	1	2
573.070	1	3
574.260	1	5
575.449	1	11
576.638	1	11
577.827	1	-8
579.016	1	6
580.205	1	2
581.394	1	1
582.583	1	0
583.772	1	8
584.961	1	4
586.150	1	6
587.339	1	3
588.528	1	1
589.717	1	13
590.905	1	9
592.094	1	2
593.283	1	3
594.471	1	4
595.660	1	5
596.848	1	2
598.037	1	-2
599.225	1	-1
600.413	1	2
601.602	1	0
602.790	1	10
603.978	1	6
605.166	1	6
606.355	1	4
607.543	1	8
608.731	1	8
609.919	1	1
611.107	1	-1
612.295	1	1
613.483	1	5
614.671	1	14
615.858	1	1
617.046	1	1
618.234	1	5
619.422	1	-9
620.609	1	6
621.797	1	2
622.985	1	4
624.172	1	5
625.360	1	2
626.547	1	-5
627.735	1	-7
628.922	1	-5
630.109	1	-8
631.297	1	-9
632.484	1	-4
633.671	1	10
634.858	1	6
636.045	1	3
637.232	1	-1
638.419	1	-10
639.606	1	0
640.793	1	-2
641.980	1	-5
643.167	1	-3
644.354	1	2
645.541	1	-1
646.728	1	3
647.914	1	6
649.101	1	-1
650.288	1	-3
651.474	1	5
652.661	1	5
653.847	1	7
655.034	1	4
656.220	1	-3
657.406	1	-5
658.593	1	4
659.779	1	0
660.965	1	13
662.152	1	9
663.338	1	3
664.524	1	-1
665.710	1	14
666.896	1	-1
668.082	1	17
669.268	1	4
670.454	1	-6
671.640	1	4
672.826	1	4
674.011	1	7
675.197	1	6
676.383	1	-3
677.569	1	-8
678.754	1	7
679.940	1	16
681.125	1	4
682.311	1	-5
683.496	1	7
684.682	1	4
685.867	1	8
687.053	1	-10
688.238	1	2
688.746	1	-3