File: Data/GaN_170K_550ms/GaN_sample D_spot 18_UVVIS_170 K_200um_550 ms 2x2mm1_175.txt
340.368	1	7
341.565	1	2
342.763	1	11
343.960	1	-1
345.157	1	0
346.354	1	0
347.552	1	7
348.749	1	14
349.946	1	11
351.143	1	-2
352.340	1	6
353.537	1	-1
354.734	1	8
355.931	1	9
357.127	1	6
358.324	1	8
359.521	1	11
360.718	1	4
361.914	1	3
363.111	1	19
364.308	1	19
365.504	1	14
366.701	1	29
367.897	1	24
369.093	1	24
370.290	1	17
371.486	1	13
372.682	1	24
373.879	1	15
375.075	1	11
376.271	1	13
377.467	1	13
378.663	1	9
379.859	1	10
381.055	1	11
382.251	1	8
383.447	1	7
384.643	1	4
385.839	1	-7
387.035	1	2
388.230	1	-4
389.426	1	8
390.622	1	1
391.817	1	5
393.013	1	-3
394.208	1	14
395.404	1	6
396.599	1	-2
397.795	1	3
398.990	1	-6
400.186	1	-3
401.381	1	17
402.576	1	-1
403.771	1	-2
404.967	1	2
406.162	1	10
407.357	1	5
408.552	1	2
409.747	1	6
410.942	1	4
412.137	1	-5
413.332	1	-9
414.526	1	9
415.721	1	-3
416.916	1	-3
418.111	1	11
419.305	1	2
420.500	1	2
421.695	1	-5
422.889	1	1
424.084	1	17
425.278	1	-1
426.472	1	4
427.667	1	6
428.861	1	-1
430.055	1	1
431.250	1	4
432.444	1	3
433.638	1	7
434.832	1	9
436.026	1	4
437.220	1	0
438.414	1	-7
439.608	1	-8
440.802	1	4
441.996	1	2
443.190	1	8
444.384	1	6
445.578	1	9
446.771	1	-1
447.965	1	1
449.159	1	3
450.352	1	-3
451.546	1	-2
452.739	1	4
453.933	1	3
455.126	1	9
456.320	1	-6
457.513	1	15
458.706	1	-2
459.899	1	-9
461.093	1	11
462.286	1	-11
463.479	1	1
464.672	1	0
465.865	1	10
467.058	1	0
468.251	1	3
469.444	1	-6
470.637	1	-3
471.830	1	1
473.023	1	1
474.215	1	-7
475.408	1	-8
476.601	1	8
477.793	1	5
478.986	1	-7
480.179	1	4
481.371	1	-2
482.564	1	3
483.756	1	7
484.948	1	-3
486.141	1	3
487.333	1	0
488.525	1	1
489.718	1	2
490.910	1	-1
492.102	1	8
493.294	1	0
494.486	1	14
495.678	1	-1
496.870	1	-6
498.062	1	3
499.254	1	-1
500.446	1	-1
501.638	1	-1
502.829	1	4
504.021	1	10
505.213	1	-5
506.404	1	-3
507.596	1	15
508.788	1	-7
509.979	1	13
511.171	1	7
512.362	1	2
513.553	1	-8
514.745	1	0
515.936	1	5
517.127	1	12
518.319	1	5
519.510	1	0
520.701	1	6
521.892	1	7
523.083	1	6
524.274	1	7
525.465	1	3
526.656	1	13
527.847	1	10
529.038	1	9
530.229	1	16
531.419	1	11
532.610	1	7
533.801	1	6
534.991	1	2
536.182	1	2
537.373	1	8
538.563	1	2
539.754	1	7
540.944	1	7
542.134	1	1
543.325	1	9
544.515	1	3
545.705	1	12
546.896	1	3
548.086	1	12
549.276	1	-3
550.466	1	1
551.656	1	-4
552.846	1	8
554.036	1	1
555.226	1	-5
556.416	1	2
557.606	1	9
558.796	1	0
559.986	1	10
561.175	1	0
562.365	1	3
563.555	1	5
564.744	1	1
565.934	1	11
567.123	1	2
568.313	1	9
569.502	1	7
570.692	1	8
571.881	1	-10
573.070	1	3
574.260	1	4
575.449	1	3
576.638	1	12
577.827	1	1
579.016	1	1
580.205	1	0
581.394	1	-2
582.583	1	0
583.772	1	-2
584.961	1	9
586.150	1	-7
587.339	1	-1
588.528	1	-2
589.717	1	8
590.905	1	7
592.094	1	12
593.283	1	7
594.471	1	8
595.660	1	10
596.848	1	-5
598.037	1	3
599.225	1	2
600.413	1	-8
601.602	1	-3
602.790	1	5
603.978	1	11
605.166	1	11
606.355	1	1
607.543	1	11
608.731	1	3
609.919	1	-2
611.107	1	8
612.295	1	-3
613.483	1	3
614.671	1	5
615.858	1	-3
617.046	1	0
618.234	1	2
619.422	1	-4
620.609	1	0
621.797	1	-1
622.985	1	7
624.172	1	-9
625.360	1	9
626.547	1	-6
627.735	1	-3
628.922	1	-10
630.109	1	-4
631.297	1	-4
632.484	1	-3
633.671	1	10
634.858	1	4
636.045	1	5
637.232	1	1
638.419	1	0
639.606	1	-8
640.793	1	-5
641.980	1	5
643.167	1	1
644.354	1	6
645.541	1	2
646.728	1	2
647.914	1	2
649.101	1	3
650.288	1	3
651.474	1	11
652.661	1	3
653.847	1	1
655.034	1	8
656.220	1	3
657.406	1	0
658.593	1	6
659.779	1	5
660.965	1	14
662.152	1	2
663.338	1	6
664.524	1	6
665.710	1	1
666.896	1	1
668.082	1	11
669.268	1	-5
670.454	1	-13
671.640	1	-2
672.826	1	0
674.011	1	13
675.197	1	6
676.383	1	4
677.569	1	-1
678.754	1	3
679.940	1	10
681.125	1	7
682.311	1	3
683.496	1	10
684.682	1	4
685.867	1	10
687.053	1	-6
688.238	1	-3
688.746	1	-4