File: Data/GaN_170K_550ms/GaN_sample D_spot 18_UVVIS_170 K_200um_550 ms 2x2mm1_282.txt
340.368	1	4
341.565	1	4
342.763	1	7
343.960	1	-2
345.157	1	-5
346.354	1	-1
347.552	1	4
348.749	1	3
349.946	1	5
351.143	1	7
352.340	1	-3
353.537	1	0
354.734	1	10
355.931	1	2
357.127	1	-1
358.324	1	14
359.521	1	10
360.718	1	2
361.914	1	-3
363.111	1	15
364.308	1	5
365.504	1	6
366.701	1	17
367.897	1	13
369.093	1	-1
370.290	1	3
371.486	1	4
372.682	1	13
373.879	1	4
375.075	1	10
376.271	1	13
377.467	1	8
378.663	1	0
379.859	1	-6
381.055	1	1
382.251	1	5
383.447	1	13
384.643	1	-3
385.839	1	-6
387.035	1	6
388.230	1	6
389.426	1	3
390.622	1	3
391.817	1	-9
393.013	1	1
394.208	1	13
395.404	1	7
396.599	1	-7
397.795	1	-1
398.990	1	-5
400.186	1	-7
401.381	1	13
402.576	1	-3
403.771	1	0
404.967	1	0
406.162	1	7
407.357	1	-4
408.552	1	1
409.747	1	10
410.942	1	1
412.137	1	-5
413.332	1	-6
414.526	1	3
415.721	1	-5
416.916	1	-9
418.111	1	3
419.305	1	1
420.500	1	6
421.695	1	-3
422.889	1	2
424.084	1	7
425.278	1	-8
426.472	1	4
427.667	1	9
428.861	1	3
430.055	1	-3
431.250	1	13
432.444	1	8
433.638	1	5
434.832	1	7
436.026	1	-4
437.220	1	6
438.414	1	-13
439.608	1	-6
440.802	1	12
441.996	1	-2
443.190	1	4
444.384	1	-2
445.578	1	7
446.771	1	-10
447.965	1	-1
449.159	1	-1
450.352	1	-5
451.546	1	-9
452.739	1	3
453.933	1	-2
455.126	1	6
456.320	1	-3
457.513	1	2
458.706	1	5
459.899	1	-3
461.093	1	15
462.286	1	1
463.479	1	-1
464.672	1	7
465.865	1	-1
467.058	1	7
468.251	1	-1
469.444	1	1
470.637	1	-5
471.830	1	-3
473.023	1	-3
474.215	1	6
475.408	1	0
476.601	1	4
477.793	1	-3
478.986	1	-5
480.179	1	-8
481.371	1	3
482.564	1	-1
483.756	1	-2
484.948	1	-2
486.141	1	10
487.333	1	-7
488.525	1	9
489.718	1	2
490.910	1	0
492.102	1	0
493.294	1	-7
494.486	1	8
495.678	1	-3
496.870	1	-6
498.062	1	-6
499.254	1	8
500.446	1	-5
501.638	1	1
502.829	1	0
504.021	1	5
505.213	1	-1
506.404	1	3
507.596	1	4
508.788	1	-9
509.979	1	10
511.171	1	7
512.362	1	-2
513.553	1	6
514.745	1	4
515.936	1	2
517.127	1	6
518.319	1	-3
519.510	1	6
520.701	1	15
521.892	1	-4
523.083	1	0
524.274	1	3
525.465	1	11
526.656	1	1
527.847	1	0
529.038	1	6
530.229	1	16
531.419	1	3
532.610	1	10
533.801	1	4
534.991	1	-2
536.182	1	6
537.373	1	0
538.563	1	6
539.754	1	8
540.944	1	-3
542.134	1	-4
543.325	1	5
544.515	1	-1
545.705	1	9
546.896	1	8
548.086	1	3
549.276	1	5
550.466	1	7
551.656	1	4
552.846	1	0
554.036	1	1
555.226	1	-4
556.416	1	-3
557.606	1	-5
558.796	1	-6
559.986	1	7
561.175	1	-16
562.365	1	-4
563.555	1	3
564.744	1	-3
565.934	1	0
567.123	1	-1
568.313	1	1
569.502	1	5
570.692	1	15
571.881	1	-1
573.070	1	-2
574.260	1	5
575.449	1	9
576.638	1	1
577.827	1	-2
579.016	1	-2
580.205	1	-7
581.394	1	2
582.583	1	1
583.772	1	-3
584.961	1	6
586.150	1	0
587.339	1	-1
588.528	1	-8
589.717	1	6
590.905	1	4
592.094	1	-1
593.283	1	-5
594.471	1	3
595.660	1	-5
596.848	1	3
598.037	1	4
599.225	1	10
600.413	1	-7
601.602	1	0
602.790	1	5
603.978	1	7
605.166	1	2
606.355	1	-4
607.543	1	10
608.731	1	-1
609.919	1	1
611.107	1	-2
612.295	1	6
613.483	1	-10
614.671	1	7
615.858	1	-3
617.046	1	-1
618.234	1	4
619.422	1	-2
620.609	1	6
621.797	1	-5
622.985	1	4
624.172	1	4
625.360	1	5
626.547	1	-4
627.735	1	-9
628.922	1	-4
630.109	1	-3
631.297	1	-7
632.484	1	3
633.671	1	12
634.858	1	-5
636.045	1	10
637.232	1	1
638.419	1	-9
639.606	1	1
640.793	1	-1
641.980	1	-1
643.167	1	-3
644.354	1	2
645.541	1	-2
646.728	1	5
647.914	1	0
649.101	1	-1
650.288	1	5
651.474	1	5
652.661	1	-4
653.847	1	0
655.034	1	-1
656.220	1	-7
657.406	1	-1
658.593	1	-2
659.779	1	8
660.965	1	15
662.152	1	5
663.338	1	6
664.524	1	1
665.710	1	6
666.896	1	-2
668.082	1	10
669.268	1	-10
670.454	1	-5
671.640	1	6
672.826	1	5
674.011	1	5
675.197	1	4
676.383	1	2
677.569	1	-6
678.754	1	1
679.940	1	-2
681.125	1	10
682.311	1	0
683.496	1	5
684.682	1	12
685.867	1	7
687.053	1	-9
688.238	1	-3
688.746	1	-3