File: Data/GaN_170K_550ms/GaN_sample D_spot 18_UVVIS_170 K_200um_550 ms 2x2mm1_226.txt
340.368	1	4
341.565	1	3
342.763	1	6
343.960	1	-9
345.157	1	6
346.354	1	-4
347.552	1	12
348.749	1	10
349.946	1	10
351.143	1	2
352.340	1	1
353.537	1	2
354.734	1	5
355.931	1	-3
357.127	1	7
358.324	1	13
359.521	1	3
360.718	1	6
361.914	1	5
363.111	1	12
364.308	1	16
365.504	1	10
366.701	1	12
367.897	1	20
369.093	1	10
370.290	1	12
371.486	1	5
372.682	1	22
373.879	1	10
375.075	1	8
376.271	1	13
377.467	1	8
378.663	1	6
379.859	1	8
381.055	1	6
382.251	1	5
383.447	1	11
384.643	1	2
385.839	1	-4
387.035	1	-2
388.230	1	0
389.426	1	12
390.622	1	2
391.817	1	7
393.013	1	3
394.208	1	5
395.404	1	1
396.599	1	0
397.795	1	4
398.990	1	-14
400.186	1	-11
401.381	1	12
402.576	1	-2
403.771	1	1
404.967	1	3
406.162	1	5
407.357	1	1
408.552	1	-3
409.747	1	1
410.942	1	4
412.137	1	-7
413.332	1	1
414.526	1	13
415.721	1	1
416.916	1	-7
418.111	1	14
419.305	1	8
420.500	1	8
421.695	1	-9
422.889	1	-9
424.084	1	10
425.278	1	-7
426.472	1	-3
427.667	1	0
428.861	1	5
430.055	1	-4
431.250	1	10
432.444	1	0
433.638	1	7
434.832	1	5
436.026	1	-2
437.220	1	-4
438.414	1	-7
439.608	1	-1
440.802	1	-2
441.996	1	1
443.190	1	0
444.384	1	8
445.578	1	5
446.771	1	-8
447.965	1	1
449.159	1	-2
450.352	1	1
451.546	1	-16
452.739	1	7
453.933	1	3
455.126	1	9
456.320	1	-9
457.513	1	8
458.706	1	7
459.899	1	1
461.093	1	6
462.286	1	-3
463.479	1	-1
464.672	1	-10
465.865	1	-1
467.058	1	9
468.251	1	0
469.444	1	3
470.637	1	-3
471.830	1	1
473.023	1	-1
474.215	1	2
475.408	1	-5
476.601	1	1
477.793	1	9
478.986	1	0
480.179	1	-4
481.371	1	-2
482.564	1	0
483.756	1	16
484.948	1	-8
486.141	1	5
487.333	1	-3
488.525	1	2
489.718	1	9
490.910	1	4
492.102	1	-1
493.294	1	1
494.486	1	8
495.678	1	4
496.870	1	3
498.062	1	3
499.254	1	10
500.446	1	-2
501.638	1	-15
502.829	1	0
504.021	1	3
505.213	1	-5
506.404	1	4
507.596	1	13
508.788	1	-6
509.979	1	7
511.171	1	3
512.362	1	3
513.553	1	-1
514.745	1	-1
515.936	1	3
517.127	1	11
518.319	1	4
519.510	1	3
520.701	1	9
521.892	1	10
523.083	1	1
524.274	1	-3
525.465	1	2
526.656	1	1
527.847	1	3
529.038	1	-1
530.229	1	16
531.419	1	9
532.610	1	2
533.801	1	-2
534.991	1	4
536.182	1	3
537.373	1	-1
538.563	1	3
539.754	1	7
540.944	1	-1
542.134	1	-2
543.325	1	3
544.515	1	2
545.705	1	-3
546.896	1	-1
548.086	1	2
549.276	1	3
550.466	1	4
551.656	1	3
552.846	1	-1
554.036	1	3
555.226	1	4
556.416	1	3
557.606	1	-2
558.796	1	6
559.986	1	-2
561.175	1	-11
562.365	1	11
563.555	1	0
564.744	1	4
565.934	1	-7
567.123	1	7
568.313	1	0
569.502	1	6
570.692	1	8
571.881	1	-5
573.070	1	3
574.260	1	11
575.449	1	4
576.638	1	-3
577.827	1	3
579.016	1	2
580.205	1	-8
581.394	1	0
582.583	1	-8
583.772	1	1
584.961	1	2
586.150	1	-1
587.339	1	-2
588.528	1	1
589.717	1	10
590.905	1	2
592.094	1	11
593.283	1	7
594.471	1	19
595.660	1	1
596.848	1	3
598.037	1	0
599.225	1	0
600.413	1	-7
601.602	1	9
602.790	1	9
603.978	1	3
605.166	1	4
606.355	1	7
607.543	1	10
608.731	1	0
609.919	1	-1
611.107	1	2
612.295	1	5
613.483	1	-2
614.671	1	16
615.858	1	-7
617.046	1	-6
618.234	1	5
619.422	1	-4
620.609	1	-3
621.797	1	0
622.985	1	-1
624.172	1	9
625.360	1	1
626.547	1	4
627.735	1	-10
628.922	1	2
630.109	1	3
631.297	1	7
632.484	1	-4
633.671	1	6
634.858	1	-3
636.045	1	4
637.232	1	9
638.419	1	-11
639.606	1	-4
640.793	1	-11
641.980	1	-1
643.167	1	-6
644.354	1	-5
645.541	1	-3
646.728	1	7
647.914	1	8
649.101	1	-4
650.288	1	8
651.474	1	16
652.661	1	4
653.847	1	7
655.034	1	-1
656.220	1	-2
657.406	1	-1
658.593	1	-1
659.779	1	8
660.965	1	14
662.152	1	-4
663.338	1	3
664.524	1	0
665.710	1	2
666.896	1	-6
668.082	1	8
669.268	1	-7
670.454	1	-4
671.640	1	7
672.826	1	-1
674.011	1	2
675.197	1	-4
676.383	1	-4
677.569	1	-6
678.754	1	10
679.940	1	6
681.125	1	10
682.311	1	-4
683.496	1	7
684.682	1	3
685.867	1	8
687.053	1	-10
688.238	1	-2
688.746	1	-11