File: Data/GaN_170K_550ms/GaN_sample D_spot 18_UVVIS_170 K_200um_550 ms 2x2mm1_277.txt
340.368	1	-7
341.565	1	10
342.763	1	8
343.960	1	-3
345.157	1	-7
346.354	1	-6
347.552	1	3
348.749	1	1
349.946	1	-2
351.143	1	6
352.340	1	0
353.537	1	3
354.734	1	4
355.931	1	-3
357.127	1	1
358.324	1	3
359.521	1	11
360.718	1	4
361.914	1	1
363.111	1	12
364.308	1	2
365.504	1	4
366.701	1	6
367.897	1	5
369.093	1	3
370.290	1	0
371.486	1	0
372.682	1	20
373.879	1	9
375.075	1	1
376.271	1	8
377.467	1	5
378.663	1	2
379.859	1	10
381.055	1	0
382.251	1	4
383.447	1	7
384.643	1	0
385.839	1	-1
387.035	1	1
388.230	1	0
389.426	1	-5
390.622	1	3
391.817	1	1
393.013	1	-3
394.208	1	9
395.404	1	7
396.599	1	-2
397.795	1	-9
398.990	1	-9
400.186	1	-3
401.381	1	13
402.576	1	-2
403.771	1	2
404.967	1	-4
406.162	1	4
407.357	1	7
408.552	1	2
409.747	1	5
410.942	1	-4
412.137	1	-5
413.332	1	-1
414.526	1	5
415.721	1	-4
416.916	1	-11
418.111	1	9
419.305	1	-1
420.500	1	1
421.695	1	-9
422.889	1	-2
424.084	1	7
425.278	1	2
426.472	1	6
427.667	1	-1
428.861	1	-1
430.055	1	4
431.250	1	12
432.444	1	7
433.638	1	7
434.832	1	-1
436.026	1	-4
437.220	1	-4
438.414	1	-2
439.608	1	-2
440.802	1	8
441.996	1	-4
443.190	1	2
444.384	1	-5
445.578	1	0
446.771	1	0
447.965	1	7
449.159	1	-1
450.352	1	-3
451.546	1	-2
452.739	1	6
453.933	1	-9
455.126	1	7
456.320	1	-4
457.513	1	7
458.706	1	4
459.899	1	5
461.093	1	12
462.286	1	-11
463.479	1	6
464.672	1	1
465.865	1	8
467.058	1	0
468.251	1	-2
469.444	1	3
470.637	1	12
471.830	1	0
473.023	1	10
474.215	1	5
475.408	1	1
476.601	1	-2
477.793	1	-2
478.986	1	-3
480.179	1	-2
481.371	1	1
482.564	1	-4
483.756	1	-1
484.948	1	8
486.141	1	14
487.333	1	-7
488.525	1	9
489.718	1	7
490.910	1	3
492.102	1	1
493.294	1	-5
494.486	1	14
495.678	1	2
496.870	1	-2
498.062	1	1
499.254	1	5
500.446	1	0
501.638	1	-14
502.829	1	4
504.021	1	6
505.213	1	-1
506.404	1	4
507.596	1	3
508.788	1	-15
509.979	1	5
511.171	1	8
512.362	1	-2
513.553	1	12
514.745	1	-4
515.936	1	5
517.127	1	1
518.319	1	2
519.510	1	14
520.701	1	7
521.892	1	2
523.083	1	1
524.274	1	4
525.465	1	13
526.656	1	10
527.847	1	2
529.038	1	0
530.229	1	9
531.419	1	8
532.610	1	0
533.801	1	0
534.991	1	4
536.182	1	7
537.373	1	-4
538.563	1	-4
539.754	1	-3
540.944	1	-3
542.134	1	-5
543.325	1	3
544.515	1	-1
545.705	1	8
546.896	1	8
548.086	1	6
549.276	1	5
550.466	1	1
551.656	1	0
552.846	1	1
554.036	1	-1
555.226	1	-11
556.416	1	-2
557.606	1	6
558.796	1	4
559.986	1	3
561.175	1	-13
562.365	1	2
563.555	1	6
564.744	1	1
565.934	1	0
567.123	1	4
568.313	1	-10
569.502	1	-1
570.692	1	2
571.881	1	-7
573.070	1	-2
574.260	1	3
575.449	1	0
576.638	1	7
577.827	1	-7
579.016	1	11
580.205	1	-6
581.394	1	11
582.583	1	2
583.772	1	-3
584.961	1	-2
586.150	1	-6
587.339	1	-1
588.528	1	1
589.717	1	5
590.905	1	7
592.094	1	7
593.283	1	0
594.471	1	9
595.660	1	-6
596.848	1	2
598.037	1	-4
599.225	1	3
600.413	1	-9
601.602	1	2
602.790	1	12
603.978	1	5
605.166	1	3
606.355	1	8
607.543	1	5
608.731	1	5
609.919	1	-1
611.107	1	-3
612.295	1	3
613.483	1	-4
614.671	1	3
615.858	1	-5
617.046	1	11
618.234	1	-3
619.422	1	-5
620.609	1	7
621.797	1	1
622.985	1	1
624.172	1	0
625.360	1	1
626.547	1	-4
627.735	1	0
628.922	1	1
630.109	1	-4
631.297	1	6
632.484	1	-1
633.671	1	0
634.858	1	7
636.045	1	4
637.232	1	-6
638.419	1	-9
639.606	1	3
640.793	1	-4
641.980	1	-4
643.167	1	-2
644.354	1	3
645.541	1	-4
646.728	1	4
647.914	1	0
649.101	1	5
650.288	1	-1
651.474	1	15
652.661	1	2
653.847	1	-3
655.034	1	-2
656.220	1	2
657.406	1	-2
658.593	1	10
659.779	1	-5
660.965	1	13
662.152	1	11
663.338	1	2
664.524	1	-10
665.710	1	4
666.896	1	5
668.082	1	3
669.268	1	-1
670.454	1	-8
671.640	1	13
672.826	1	3
674.011	1	2
675.197	1	6
676.383	1	1
677.569	1	-10
678.754	1	1
679.940	1	5
681.125	1	3
682.311	1	1
683.496	1	5
684.682	1	8
685.867	1	-8
687.053	1	-1
688.238	1	0
688.746	1	-1