File: Data/GaN_170K_550ms/GaN_sample D_spot 18_UVVIS_170 K_200um_550 ms 2x2mm1_65.txt
340.368	1	7
341.565	1	-2
342.763	1	4
343.960	1	9
345.157	1	1
346.354	1	0
347.552	1	18
348.749	1	6
349.946	1	18
351.143	1	5
352.340	1	19
353.537	1	10
354.734	1	20
355.931	1	24
357.127	1	27
358.324	1	41
359.521	1	55
360.718	1	56
361.914	1	79
363.111	1	132
364.308	1	190
365.504	1	276
366.701	1	377
367.897	1	443
369.093	1	461
370.290	1	403
371.486	1	336
372.682	1	280
373.879	1	219
375.075	1	189
376.271	1	140
377.467	1	141
378.663	1	118
379.859	1	84
381.055	1	67
382.251	1	65
383.447	1	70
384.643	1	51
385.839	1	34
387.035	1	49
388.230	1	39
389.426	1	36
390.622	1	31
391.817	1	25
393.013	1	24
394.208	1	21
395.404	1	23
396.599	1	18
397.795	1	17
398.990	1	5
400.186	1	15
401.381	1	13
402.576	1	11
403.771	1	9
404.967	1	15
406.162	1	14
407.357	1	3
408.552	1	12
409.747	1	6
410.942	1	12
412.137	1	-1
413.332	1	7
414.526	1	6
415.721	1	-2
416.916	1	-2
418.111	1	17
419.305	1	3
420.500	1	4
421.695	1	2
422.889	1	9
424.084	1	31
425.278	1	6
426.472	1	1
427.667	1	11
428.861	1	7
430.055	1	5
431.250	1	25
432.444	1	5
433.638	1	13
434.832	1	18
436.026	1	14
437.220	1	5
438.414	1	3
439.608	1	-9
440.802	1	17
441.996	1	3
443.190	1	8
444.384	1	5
445.578	1	1
446.771	1	-4
447.965	1	6
449.159	1	6
450.352	1	-6
451.546	1	2
452.739	1	11
453.933	1	3
455.126	1	7
456.320	1	3
457.513	1	9
458.706	1	12
459.899	1	6
461.093	1	13
462.286	1	0
463.479	1	2
464.672	1	3
465.865	1	10
467.058	1	9
468.251	1	7
469.444	1	9
470.637	1	13
471.830	1	6
473.023	1	3
474.215	1	16
475.408	1	3
476.601	1	7
477.793	1	21
478.986	1	-1
480.179	1	3
481.371	1	15
482.564	1	8
483.756	1	12
484.948	1	10
486.141	1	25
487.333	1	12
488.525	1	24
489.718	1	19
490.910	1	23
492.102	1	22
493.294	1	23
494.486	1	39
495.678	1	24
496.870	1	26
498.062	1	33
499.254	1	42
500.446	1	34
501.638	1	30
502.829	1	37
504.021	1	31
505.213	1	41
506.404	1	50
507.596	1	58
508.788	1	41
509.979	1	38
511.171	1	50
512.362	1	34
513.553	1	48
514.745	1	51
515.936	1	50
517.127	1	65
518.319	1	59
519.510	1	57
520.701	1	61
521.892	1	53
523.083	1	46
524.274	1	60
525.465	1	63
526.656	1	67
527.847	1	68
529.038	1	59
530.229	1	80
531.419	1	68
532.610	1	64
533.801	1	55
534.991	1	54
536.182	1	58
537.373	1	57
538.563	1	49
539.754	1	53
540.944	1	51
542.134	1	60
543.325	1	54
544.515	1	54
545.705	1	57
546.896	1	49
548.086	1	59
549.276	1	50
550.466	1	49
551.656	1	57
552.846	1	51
554.036	1	46
555.226	1	37
556.416	1	48
557.606	1	57
558.796	1	34
559.986	1	44
561.175	1	32
562.365	1	43
563.555	1	36
564.744	1	45
565.934	1	45
567.123	1	30
568.313	1	30
569.502	1	28
570.692	1	35
571.881	1	34
573.070	1	36
574.260	1	39
575.449	1	30
576.638	1	33
577.827	1	30
579.016	1	28
580.205	1	24
581.394	1	25
582.583	1	23
583.772	1	10
584.961	1	19
586.150	1	26
587.339	1	24
588.528	1	21
589.717	1	29
590.905	1	17
592.094	1	22
593.283	1	13
594.471	1	17
595.660	1	16
596.848	1	21
598.037	1	14
599.225	1	16
600.413	1	11
601.602	1	13
602.790	1	19
603.978	1	15
605.166	1	22
606.355	1	17
607.543	1	15
608.731	1	18
609.919	1	20
611.107	1	8
612.295	1	12
613.483	1	6
614.671	1	14
615.858	1	7
617.046	1	5
618.234	1	16
619.422	1	1
620.609	1	23
621.797	1	11
622.985	1	13
624.172	1	4
625.360	1	5
626.547	1	9
627.735	1	2
628.922	1	-3
630.109	1	7
631.297	1	7
632.484	1	6
633.671	1	8
634.858	1	9
636.045	1	13
637.232	1	6
638.419	1	12
639.606	1	6
640.793	1	4
641.980	1	10
643.167	1	8
644.354	1	12
645.541	1	23
646.728	1	13
647.914	1	12
649.101	1	1
650.288	1	16
651.474	1	9
652.661	1	10
653.847	1	12
655.034	1	5
656.220	1	4
657.406	1	5
658.593	1	9
659.779	1	10
660.965	1	22
662.152	1	12
663.338	1	12
664.524	1	7
665.710	1	9
666.896	1	-1
668.082	1	8
669.268	1	2
670.454	1	3
671.640	1	11
672.826	1	7
674.011	1	16
675.197	1	16
676.383	1	15
677.569	1	0
678.754	1	23
679.940	1	20
681.125	1	17
682.311	1	14
683.496	1	18
684.682	1	14
685.867	1	10
687.053	1	1
688.238	1	1
688.746	1	8