File: Data/GaN_170K_550ms/GaN_sample D_spot 18_UVVIS_170 K_200um_550 ms 2x2mm1_199.txt
340.368	1	7
341.565	1	2
342.763	1	9
343.960	1	2
345.157	1	5
346.354	1	-3
347.552	1	16
348.749	1	3
349.946	1	9
351.143	1	-2
352.340	1	1
353.537	1	3
354.734	1	5
355.931	1	8
357.127	1	1
358.324	1	9
359.521	1	9
360.718	1	8
361.914	1	13
363.111	1	10
364.308	1	1
365.504	1	11
366.701	1	19
367.897	1	19
369.093	1	6
370.290	1	6
371.486	1	15
372.682	1	21
373.879	1	20
375.075	1	8
376.271	1	10
377.467	1	12
378.663	1	15
379.859	1	8
381.055	1	7
382.251	1	5
383.447	1	9
384.643	1	-1
385.839	1	5
387.035	1	6
388.230	1	6
389.426	1	7
390.622	1	-6
391.817	1	1
393.013	1	-1
394.208	1	12
395.404	1	10
396.599	1	-5
397.795	1	1
398.990	1	-3
400.186	1	6
401.381	1	6
402.576	1	6
403.771	1	0
404.967	1	-1
406.162	1	11
407.357	1	6
408.552	1	7
409.747	1	-6
410.942	1	14
412.137	1	2
413.332	1	-2
414.526	1	6
415.721	1	1
416.916	1	1
418.111	1	11
419.305	1	-2
420.500	1	-2
421.695	1	-7
422.889	1	9
424.084	1	15
425.278	1	-3
426.472	1	7
427.667	1	5
428.861	1	0
430.055	1	-3
431.250	1	12
432.444	1	1
433.638	1	6
434.832	1	5
436.026	1	5
437.220	1	-4
438.414	1	-4
439.608	1	-1
440.802	1	13
441.996	1	-4
443.190	1	7
444.384	1	4
445.578	1	6
446.771	1	-9
447.965	1	-1
449.159	1	1
450.352	1	0
451.546	1	5
452.739	1	-5
453.933	1	2
455.126	1	17
456.320	1	-3
457.513	1	17
458.706	1	13
459.899	1	-5
461.093	1	6
462.286	1	-10
463.479	1	1
464.672	1	3
465.865	1	-1
467.058	1	0
468.251	1	-4
469.444	1	1
470.637	1	-4
471.830	1	-2
473.023	1	3
474.215	1	7
475.408	1	-5
476.601	1	2
477.793	1	13
478.986	1	-1
480.179	1	-5
481.371	1	-3
482.564	1	1
483.756	1	-3
484.948	1	2
486.141	1	9
487.333	1	1
488.525	1	4
489.718	1	8
490.910	1	-1
492.102	1	1
493.294	1	-5
494.486	1	10
495.678	1	-2
496.870	1	-3
498.062	1	6
499.254	1	16
500.446	1	-2
501.638	1	-10
502.829	1	1
504.021	1	5
505.213	1	-1
506.404	1	3
507.596	1	14
508.788	1	-3
509.979	1	0
511.171	1	5
512.362	1	2
513.553	1	5
514.745	1	3
515.936	1	4
517.127	1	10
518.319	1	14
519.510	1	9
520.701	1	12
521.892	1	11
523.083	1	5
524.274	1	6
525.465	1	4
526.656	1	8
527.847	1	0
529.038	1	-1
530.229	1	17
531.419	1	13
532.610	1	0
533.801	1	12
534.991	1	5
536.182	1	1
537.373	1	2
538.563	1	12
539.754	1	-1
540.944	1	3
542.134	1	-2
543.325	1	8
544.515	1	0
545.705	1	8
546.896	1	1
548.086	1	-3
549.276	1	4
550.466	1	4
551.656	1	3
552.846	1	-2
554.036	1	4
555.226	1	-5
556.416	1	-2
557.606	1	2
558.796	1	0
559.986	1	2
561.175	1	-7
562.365	1	-6
563.555	1	6
564.744	1	3
565.934	1	7
567.123	1	8
568.313	1	-4
569.502	1	1
570.692	1	11
571.881	1	3
573.070	1	-10
574.260	1	8
575.449	1	7
576.638	1	2
577.827	1	-7
579.016	1	4
580.205	1	-6
581.394	1	4
582.583	1	2
583.772	1	-2
584.961	1	-5
586.150	1	8
587.339	1	-2
588.528	1	-1
589.717	1	14
590.905	1	-1
592.094	1	5
593.283	1	12
594.471	1	9
595.660	1	2
596.848	1	0
598.037	1	6
599.225	1	10
600.413	1	-9
601.602	1	2
602.790	1	7
603.978	1	6
605.166	1	4
606.355	1	5
607.543	1	10
608.731	1	1
609.919	1	-8
611.107	1	-10
612.295	1	-1
613.483	1	-6
614.671	1	8
615.858	1	2
617.046	1	0
618.234	1	12
619.422	1	-4
620.609	1	4
621.797	1	0
622.985	1	11
624.172	1	-4
625.360	1	2
626.547	1	-1
627.735	1	0
628.922	1	-4
630.109	1	-10
631.297	1	-1
632.484	1	-3
633.671	1	7
634.858	1	5
636.045	1	13
637.232	1	3
638.419	1	0
639.606	1	-1
640.793	1	0
641.980	1	3
643.167	1	0
644.354	1	2
645.541	1	3
646.728	1	1
647.914	1	-3
649.101	1	4
650.288	1	-1
651.474	1	6
652.661	1	7
653.847	1	5
655.034	1	0
656.220	1	0
657.406	1	4
658.593	1	-2
659.779	1	4
660.965	1	13
662.152	1	0
663.338	1	-3
664.524	1	5
665.710	1	2
666.896	1	2
668.082	1	4
669.268	1	8
670.454	1	-8
671.640	1	-1
672.826	1	2
674.011	1	9
675.197	1	9
676.383	1	2
677.569	1	-9
678.754	1	-5
679.940	1	9
681.125	1	11
682.311	1	4
683.496	1	2
684.682	1	6
685.867	1	12
687.053	1	-8
688.238	1	12
688.746	1	-5