File: Data/GaN_170K_550ms/GaN_sample D_spot 18_UVVIS_170 K_200um_550 ms 2x2mm1_210.txt
340.368	1	-6
341.565	1	-3
342.763	1	4
343.960	1	4
345.157	1	-4
346.354	1	-4
347.552	1	8
348.749	1	5
349.946	1	9
351.143	1	-4
352.340	1	0
353.537	1	4
354.734	1	6
355.931	1	9
357.127	1	-6
358.324	1	12
359.521	1	6
360.718	1	1
361.914	1	11
363.111	1	21
364.308	1	19
365.504	1	17
366.701	1	13
367.897	1	20
369.093	1	7
370.290	1	14
371.486	1	4
372.682	1	14
373.879	1	13
375.075	1	7
376.271	1	8
377.467	1	13
378.663	1	8
379.859	1	4
381.055	1	10
382.251	1	12
383.447	1	11
384.643	1	1
385.839	1	-7
387.035	1	6
388.230	1	8
389.426	1	4
390.622	1	-3
391.817	1	2
393.013	1	-5
394.208	1	9
395.404	1	4
396.599	1	-8
397.795	1	4
398.990	1	-11
400.186	1	-6
401.381	1	4
402.576	1	9
403.771	1	-2
404.967	1	14
406.162	1	4
407.357	1	-2
408.552	1	-1
409.747	1	-5
410.942	1	5
412.137	1	-12
413.332	1	-1
414.526	1	7
415.721	1	-15
416.916	1	-5
418.111	1	4
419.305	1	-6
420.500	1	-2
421.695	1	-10
422.889	1	-1
424.084	1	17
425.278	1	0
426.472	1	2
427.667	1	-5
428.861	1	-2
430.055	1	1
431.250	1	11
432.444	1	3
433.638	1	2
434.832	1	5
436.026	1	8
437.220	1	-8
438.414	1	-8
439.608	1	-6
440.802	1	6
441.996	1	-13
443.190	1	0
444.384	1	8
445.578	1	6
446.771	1	-19
447.965	1	11
449.159	1	3
450.352	1	-6
451.546	1	-8
452.739	1	-2
453.933	1	3
455.126	1	6
456.320	1	-5
457.513	1	9
458.706	1	4
459.899	1	4
461.093	1	5
462.286	1	-9
463.479	1	-1
464.672	1	4
465.865	1	3
467.058	1	-2
468.251	1	0
469.444	1	4
470.637	1	3
471.830	1	4
473.023	1	6
474.215	1	-3
475.408	1	-4
476.601	1	-1
477.793	1	4
478.986	1	2
480.179	1	-5
481.371	1	-3
482.564	1	-3
483.756	1	4
484.948	1	3
486.141	1	8
487.333	1	-5
488.525	1	13
489.718	1	0
490.910	1	2
492.102	1	3
493.294	1	-2
494.486	1	6
495.678	1	5
496.870	1	1
498.062	1	-8
499.254	1	9
500.446	1	-5
501.638	1	-10
502.829	1	2
504.021	1	4
505.213	1	-1
506.404	1	4
507.596	1	4
508.788	1	2
509.979	1	-5
511.171	1	2
512.362	1	-4
513.553	1	10
514.745	1	7
515.936	1	7
517.127	1	6
518.319	1	6
519.510	1	9
520.701	1	5
521.892	1	1
523.083	1	6
524.274	1	-1
525.465	1	11
526.656	1	8
527.847	1	-6
529.038	1	-6
530.229	1	12
531.419	1	6
532.610	1	7
533.801	1	19
534.991	1	-3
536.182	1	-1
537.373	1	-1
538.563	1	13
539.754	1	0
540.944	1	-10
542.134	1	0
543.325	1	7
544.515	1	1
545.705	1	13
546.896	1	5
548.086	1	6
549.276	1	2
550.466	1	8
551.656	1	5
552.846	1	-2
554.036	1	7
555.226	1	-2
556.416	1	7
557.606	1	0
558.796	1	0
559.986	1	11
561.175	1	-7
562.365	1	5
563.555	1	7
564.744	1	1
565.934	1	1
567.123	1	2
568.313	1	-3
569.502	1	5
570.692	1	9
571.881	1	0
573.070	1	6
574.260	1	12
575.449	1	5
576.638	1	8
577.827	1	1
579.016	1	3
580.205	1	3
581.394	1	11
582.583	1	1
583.772	1	0
584.961	1	-3
586.150	1	-7
587.339	1	10
588.528	1	0
589.717	1	9
590.905	1	5
592.094	1	13
593.283	1	0
594.471	1	6
595.660	1	2
596.848	1	4
598.037	1	0
599.225	1	10
600.413	1	0
601.602	1	0
602.790	1	17
603.978	1	11
605.166	1	8
606.355	1	8
607.543	1	9
608.731	1	4
609.919	1	3
611.107	1	0
612.295	1	0
613.483	1	-7
614.671	1	13
615.858	1	-1
617.046	1	-11
618.234	1	0
619.422	1	-2
620.609	1	2
621.797	1	0
622.985	1	9
624.172	1	3
625.360	1	0
626.547	1	0
627.735	1	-1
628.922	1	-13
630.109	1	-1
631.297	1	-4
632.484	1	-1
633.671	1	11
634.858	1	6
636.045	1	10
637.232	1	-1
638.419	1	-7
639.606	1	-7
640.793	1	-7
641.980	1	-4
643.167	1	-10
644.354	1	-1
645.541	1	2
646.728	1	6
647.914	1	1
649.101	1	11
650.288	1	-1
651.474	1	6
652.661	1	1
653.847	1	7
655.034	1	5
656.220	1	2
657.406	1	-1
658.593	1	-4
659.779	1	3
660.965	1	11
662.152	1	5
663.338	1	2
664.524	1	2
665.710	1	11
666.896	1	8
668.082	1	13
669.268	1	-5
670.454	1	-5
671.640	1	-2
672.826	1	-4
674.011	1	10
675.197	1	7
676.383	1	-4
677.569	1	-5
678.754	1	-3
679.940	1	13
681.125	1	0
682.311	1	3
683.496	1	13
684.682	1	-1
685.867	1	2
687.053	1	-8
688.238	1	-5
688.746	1	-2