File: Data/GaN_170K_550ms/GaN_sample D_spot 18_UVVIS_170 K_200um_550 ms 2x2mm1_232.txt
340.368	1	1
341.565	1	12
342.763	1	7
343.960	1	1
345.157	1	-3
346.354	1	-11
347.552	1	4
348.749	1	6
349.946	1	7
351.143	1	-3
352.340	1	4
353.537	1	11
354.734	1	3
355.931	1	0
357.127	1	-4
358.324	1	13
359.521	1	3
360.718	1	5
361.914	1	-3
363.111	1	15
364.308	1	15
365.504	1	0
366.701	1	15
367.897	1	10
369.093	1	2
370.290	1	10
371.486	1	0
372.682	1	18
373.879	1	12
375.075	1	0
376.271	1	12
377.467	1	9
378.663	1	13
379.859	1	13
381.055	1	0
382.251	1	6
383.447	1	10
384.643	1	-5
385.839	1	-7
387.035	1	-1
388.230	1	4
389.426	1	10
390.622	1	0
391.817	1	2
393.013	1	3
394.208	1	7
395.404	1	10
396.599	1	-12
397.795	1	-3
398.990	1	-4
400.186	1	-5
401.381	1	2
402.576	1	-3
403.771	1	5
404.967	1	8
406.162	1	6
407.357	1	-6
408.552	1	1
409.747	1	-3
410.942	1	3
412.137	1	-14
413.332	1	-1
414.526	1	0
415.721	1	1
416.916	1	1
418.111	1	9
419.305	1	1
420.500	1	3
421.695	1	-2
422.889	1	0
424.084	1	16
425.278	1	2
426.472	1	-4
427.667	1	9
428.861	1	3
430.055	1	-4
431.250	1	2
432.444	1	12
433.638	1	11
434.832	1	1
436.026	1	0
437.220	1	7
438.414	1	-5
439.608	1	4
440.802	1	0
441.996	1	-10
443.190	1	-4
444.384	1	-1
445.578	1	9
446.771	1	-7
447.965	1	3
449.159	1	6
450.352	1	-6
451.546	1	-9
452.739	1	3
453.933	1	1
455.126	1	10
456.320	1	4
457.513	1	12
458.706	1	14
459.899	1	0
461.093	1	8
462.286	1	-1
463.479	1	-6
464.672	1	1
465.865	1	7
467.058	1	7
468.251	1	-4
469.444	1	-1
470.637	1	-2
471.830	1	-2
473.023	1	-3
474.215	1	-6
475.408	1	-6
476.601	1	1
477.793	1	8
478.986	1	-7
480.179	1	-1
481.371	1	6
482.564	1	-6
483.756	1	-4
484.948	1	2
486.141	1	2
487.333	1	0
488.525	1	11
489.718	1	6
490.910	1	-6
492.102	1	10
493.294	1	-6
494.486	1	6
495.678	1	0
496.870	1	3
498.062	1	1
499.254	1	0
500.446	1	7
501.638	1	-5
502.829	1	5
504.021	1	-4
505.213	1	0
506.404	1	9
507.596	1	4
508.788	1	-1
509.979	1	4
511.171	1	2
512.362	1	7
513.553	1	6
514.745	1	0
515.936	1	-4
517.127	1	11
518.319	1	5
519.510	1	8
520.701	1	6
521.892	1	5
523.083	1	5
524.274	1	3
525.465	1	6
526.656	1	5
527.847	1	0
529.038	1	3
530.229	1	6
531.419	1	4
532.610	1	2
533.801	1	12
534.991	1	2
536.182	1	1
537.373	1	-5
538.563	1	5
539.754	1	0
540.944	1	6
542.134	1	11
543.325	1	0
544.515	1	2
545.705	1	11
546.896	1	3
548.086	1	-2
549.276	1	2
550.466	1	-5
551.656	1	3
552.846	1	-5
554.036	1	-2
555.226	1	-1
556.416	1	0
557.606	1	2
558.796	1	-2
559.986	1	-3
561.175	1	-1
562.365	1	-1
563.555	1	10
564.744	1	-2
565.934	1	4
567.123	1	3
568.313	1	5
569.502	1	-1
570.692	1	9
571.881	1	-8
573.070	1	6
574.260	1	6
575.449	1	1
576.638	1	4
577.827	1	3
579.016	1	11
580.205	1	-5
581.394	1	3
582.583	1	-8
583.772	1	2
584.961	1	-1
586.150	1	-6
587.339	1	-3
588.528	1	-2
589.717	1	-1
590.905	1	-2
592.094	1	6
593.283	1	7
594.471	1	11
595.660	1	6
596.848	1	-5
598.037	1	-3
599.225	1	0
600.413	1	-2
601.602	1	2
602.790	1	8
603.978	1	6
605.166	1	6
606.355	1	9
607.543	1	8
608.731	1	1
609.919	1	-3
611.107	1	-6
612.295	1	3
613.483	1	4
614.671	1	5
615.858	1	1
617.046	1	0
618.234	1	4
619.422	1	1
620.609	1	3
621.797	1	7
622.985	1	3
624.172	1	2
625.360	1	2
626.547	1	-3
627.735	1	-5
628.922	1	-5
630.109	1	-2
631.297	1	3
632.484	1	1
633.671	1	-3
634.858	1	0
636.045	1	7
637.232	1	8
638.419	1	-8
639.606	1	3
640.793	1	-2
641.980	1	-7
643.167	1	-2
644.354	1	7
645.541	1	2
646.728	1	4
647.914	1	-5
649.101	1	8
650.288	1	-3
651.474	1	5
652.661	1	8
653.847	1	3
655.034	1	-5
656.220	1	8
657.406	1	6
658.593	1	2
659.779	1	-2
660.965	1	13
662.152	1	0
663.338	1	4
664.524	1	6
665.710	1	3
666.896	1	2
668.082	1	11
669.268	1	-4
670.454	1	5
671.640	1	2
672.826	1	-3
674.011	1	7
675.197	1	2
676.383	1	5
677.569	1	-6
678.754	1	1
679.940	1	9
681.125	1	3
682.311	1	-6
683.496	1	2
684.682	1	3
685.867	1	9
687.053	1	-2
688.238	1	0
688.746	1	-2