File: Data/GaN_170K_550ms/GaN_sample D_spot 18_UVVIS_170 K_200um_550 ms 2x2mm1_91.txt
340.368	1	-6
341.565	1	15
342.763	1	3
343.960	1	3
345.157	1	3
346.354	1	0
347.552	1	11
348.749	1	12
349.946	1	11
351.143	1	6
352.340	1	12
353.537	1	9
354.734	1	6
355.931	1	4
357.127	1	8
358.324	1	20
359.521	1	23
360.718	1	24
361.914	1	30
363.111	1	56
364.308	1	68
365.504	1	88
366.701	1	109
367.897	1	114
369.093	1	114
370.290	1	118
371.486	1	88
372.682	1	87
373.879	1	79
375.075	1	57
376.271	1	55
377.467	1	57
378.663	1	39
379.859	1	30
381.055	1	33
382.251	1	22
383.447	1	25
384.643	1	18
385.839	1	16
387.035	1	17
388.230	1	19
389.426	1	7
390.622	1	4
391.817	1	9
393.013	1	9
394.208	1	17
395.404	1	14
396.599	1	2
397.795	1	1
398.990	1	5
400.186	1	-6
401.381	1	19
402.576	1	3
403.771	1	7
404.967	1	7
406.162	1	0
407.357	1	-3
408.552	1	2
409.747	1	5
410.942	1	6
412.137	1	-5
413.332	1	6
414.526	1	8
415.721	1	1
416.916	1	-4
418.111	1	4
419.305	1	-2
420.500	1	-4
421.695	1	4
422.889	1	-3
424.084	1	19
425.278	1	2
426.472	1	5
427.667	1	6
428.861	1	5
430.055	1	4
431.250	1	16
432.444	1	6
433.638	1	8
434.832	1	15
436.026	1	-3
437.220	1	5
438.414	1	-4
439.608	1	7
440.802	1	13
441.996	1	6
443.190	1	6
444.384	1	3
445.578	1	6
446.771	1	-1
447.965	1	0
449.159	1	2
450.352	1	-5
451.546	1	2
452.739	1	13
453.933	1	2
455.126	1	9
456.320	1	-3
457.513	1	15
458.706	1	3
459.899	1	1
461.093	1	11
462.286	1	-3
463.479	1	0
464.672	1	8
465.865	1	9
467.058	1	11
468.251	1	5
469.444	1	1
470.637	1	3
471.830	1	-6
473.023	1	8
474.215	1	3
475.408	1	9
476.601	1	2
477.793	1	9
478.986	1	-4
480.179	1	3
481.371	1	3
482.564	1	2
483.756	1	5
484.948	1	0
486.141	1	16
487.333	1	1
488.525	1	9
489.718	1	16
490.910	1	10
492.102	1	8
493.294	1	5
494.486	1	11
495.678	1	12
496.870	1	9
498.062	1	14
499.254	1	11
500.446	1	14
501.638	1	4
502.829	1	17
504.021	1	7
505.213	1	13
506.404	1	12
507.596	1	18
508.788	1	-2
509.979	1	27
511.171	1	22
512.362	1	4
513.553	1	16
514.745	1	21
515.936	1	12
517.127	1	18
518.319	1	24
519.510	1	22
520.701	1	18
521.892	1	20
523.083	1	15
524.274	1	18
525.465	1	24
526.656	1	26
527.847	1	21
529.038	1	11
530.229	1	31
531.419	1	29
532.610	1	14
533.801	1	22
534.991	1	17
536.182	1	14
537.373	1	10
538.563	1	18
539.754	1	3
540.944	1	14
542.134	1	15
543.325	1	14
544.515	1	20
545.705	1	22
546.896	1	12
548.086	1	15
549.276	1	19
550.466	1	6
551.656	1	15
552.846	1	12
554.036	1	16
555.226	1	1
556.416	1	13
557.606	1	17
558.796	1	9
559.986	1	19
561.175	1	4
562.365	1	12
563.555	1	13
564.744	1	20
565.934	1	7
567.123	1	12
568.313	1	2
569.502	1	2
570.692	1	17
571.881	1	12
573.070	1	6
574.260	1	13
575.449	1	13
576.638	1	15
577.827	1	0
579.016	1	12
580.205	1	-5
581.394	1	9
582.583	1	9
583.772	1	14
584.961	1	7
586.150	1	5
587.339	1	5
588.528	1	2
589.717	1	14
590.905	1	12
592.094	1	14
593.283	1	16
594.471	1	8
595.660	1	1
596.848	1	8
598.037	1	4
599.225	1	15
600.413	1	8
601.602	1	8
602.790	1	9
603.978	1	16
605.166	1	7
606.355	1	11
607.543	1	9
608.731	1	8
609.919	1	4
611.107	1	4
612.295	1	5
613.483	1	3
614.671	1	4
615.858	1	-2
617.046	1	4
618.234	1	6
619.422	1	-1
620.609	1	7
621.797	1	2
622.985	1	5
624.172	1	-3
625.360	1	12
626.547	1	2
627.735	1	-8
628.922	1	-17
630.109	1	-4
631.297	1	4
632.484	1	6
633.671	1	-2
634.858	1	10
636.045	1	9
637.232	1	4
638.419	1	-5
639.606	1	-7
640.793	1	2
641.980	1	2
643.167	1	-4
644.354	1	3
645.541	1	6
646.728	1	5
647.914	1	1
649.101	1	1
650.288	1	8
651.474	1	14
652.661	1	4
653.847	1	6
655.034	1	-5
656.220	1	7
657.406	1	3
658.593	1	1
659.779	1	-1
660.965	1	14
662.152	1	-3
663.338	1	4
664.524	1	11
665.710	1	-4
666.896	1	-10
668.082	1	5
669.268	1	-3
670.454	1	-13
671.640	1	9
672.826	1	3
674.011	1	5
675.197	1	7
676.383	1	3
677.569	1	-2
678.754	1	4
679.940	1	12
681.125	1	13
682.311	1	1
683.496	1	7
684.682	1	14
685.867	1	3
687.053	1	3
688.238	1	-6
688.746	1	4