File: Data/GaN_170K_550ms/GaN_sample D_spot 18_UVVIS_170 K_200um_550 ms 2x2mm1_119.txt
340.368	1	-5
341.565	1	10
342.763	1	5
343.960	1	2
345.157	1	-2
346.354	1	-9
347.552	1	6
348.749	1	13
349.946	1	16
351.143	1	-1
352.340	1	3
353.537	1	13
354.734	1	8
355.931	1	10
357.127	1	6
358.324	1	14
359.521	1	18
360.718	1	10
361.914	1	19
363.111	1	37
364.308	1	33
365.504	1	45
366.701	1	53
367.897	1	55
369.093	1	51
370.290	1	45
371.486	1	45
372.682	1	51
373.879	1	35
375.075	1	32
376.271	1	35
377.467	1	22
378.663	1	22
379.859	1	18
381.055	1	19
382.251	1	24
383.447	1	15
384.643	1	7
385.839	1	4
387.035	1	15
388.230	1	7
389.426	1	12
390.622	1	4
391.817	1	7
393.013	1	13
394.208	1	9
395.404	1	15
396.599	1	-3
397.795	1	3
398.990	1	-5
400.186	1	-2
401.381	1	7
402.576	1	4
403.771	1	4
404.967	1	0
406.162	1	8
407.357	1	-7
408.552	1	10
409.747	1	-4
410.942	1	1
412.137	1	-6
413.332	1	3
414.526	1	3
415.721	1	-4
416.916	1	-2
418.111	1	14
419.305	1	5
420.500	1	6
421.695	1	-10
422.889	1	4
424.084	1	17
425.278	1	1
426.472	1	3
427.667	1	1
428.861	1	5
430.055	1	-4
431.250	1	2
432.444	1	8
433.638	1	5
434.832	1	0
436.026	1	4
437.220	1	2
438.414	1	-3
439.608	1	-1
440.802	1	8
441.996	1	3
443.190	1	-3
444.384	1	7
445.578	1	7
446.771	1	-5
447.965	1	2
449.159	1	1
450.352	1	-10
451.546	1	-3
452.739	1	0
453.933	1	-9
455.126	1	21
456.320	1	4
457.513	1	11
458.706	1	9
459.899	1	6
461.093	1	8
462.286	1	-6
463.479	1	-7
464.672	1	-5
465.865	1	6
467.058	1	9
468.251	1	0
469.444	1	4
470.637	1	1
471.830	1	5
473.023	1	5
474.215	1	5
475.408	1	-2
476.601	1	2
477.793	1	9
478.986	1	-9
480.179	1	-2
481.371	1	-1
482.564	1	2
483.756	1	8
484.948	1	3
486.141	1	6
487.333	1	5
488.525	1	12
489.718	1	4
490.910	1	7
492.102	1	14
493.294	1	-6
494.486	1	12
495.678	1	14
496.870	1	2
498.062	1	-6
499.254	1	9
500.446	1	8
501.638	1	-2
502.829	1	8
504.021	1	11
505.213	1	7
506.404	1	4
507.596	1	14
508.788	1	1
509.979	1	7
511.171	1	8
512.362	1	5
513.553	1	5
514.745	1	8
515.936	1	5
517.127	1	4
518.319	1	16
519.510	1	20
520.701	1	11
521.892	1	1
523.083	1	7
524.274	1	8
525.465	1	4
526.656	1	22
527.847	1	6
529.038	1	7
530.229	1	26
531.419	1	23
532.610	1	9
533.801	1	15
534.991	1	2
536.182	1	11
537.373	1	7
538.563	1	5
539.754	1	10
540.944	1	-4
542.134	1	9
543.325	1	13
544.515	1	11
545.705	1	20
546.896	1	4
548.086	1	8
549.276	1	10
550.466	1	1
551.656	1	14
552.846	1	6
554.036	1	12
555.226	1	-1
556.416	1	9
557.606	1	13
558.796	1	0
559.986	1	9
561.175	1	1
562.365	1	7
563.555	1	4
564.744	1	8
565.934	1	9
567.123	1	13
568.313	1	15
569.502	1	1
570.692	1	16
571.881	1	-1
573.070	1	12
574.260	1	14
575.449	1	5
576.638	1	7
577.827	1	-3
579.016	1	6
580.205	1	11
581.394	1	10
582.583	1	5
583.772	1	3
584.961	1	1
586.150	1	-5
587.339	1	3
588.528	1	-3
589.717	1	9
590.905	1	12
592.094	1	13
593.283	1	2
594.471	1	7
595.660	1	3
596.848	1	6
598.037	1	-1
599.225	1	3
600.413	1	-6
601.602	1	8
602.790	1	18
603.978	1	3
605.166	1	9
606.355	1	0
607.543	1	12
608.731	1	5
609.919	1	5
611.107	1	6
612.295	1	8
613.483	1	-1
614.671	1	12
615.858	1	-10
617.046	1	5
618.234	1	13
619.422	1	6
620.609	1	4
621.797	1	7
622.985	1	1
624.172	1	-3
625.360	1	1
626.547	1	2
627.735	1	-7
628.922	1	-7
630.109	1	-2
631.297	1	-2
632.484	1	5
633.671	1	11
634.858	1	0
636.045	1	6
637.232	1	-4
638.419	1	1
639.606	1	5
640.793	1	-1
641.980	1	-1
643.167	1	4
644.354	1	8
645.541	1	8
646.728	1	4
647.914	1	7
649.101	1	5
650.288	1	6
651.474	1	9
652.661	1	8
653.847	1	5
655.034	1	-1
656.220	1	6
657.406	1	2
658.593	1	-7
659.779	1	6
660.965	1	15
662.152	1	-1
663.338	1	14
664.524	1	-1
665.710	1	8
666.896	1	1
668.082	1	13
669.268	1	0
670.454	1	3
671.640	1	5
672.826	1	4
674.011	1	9
675.197	1	8
676.383	1	4
677.569	1	0
678.754	1	4
679.940	1	11
681.125	1	7
682.311	1	-6
683.496	1	12
684.682	1	0
685.867	1	6
687.053	1	1
688.238	1	-2
688.746	1	-6