File: Data/GaN_170K_550ms/GaN_sample D_spot 18_UVVIS_170 K_200um_550 ms 2x2mm1_354.txt
340.368	1	0
341.565	1	5
342.763	1	-3
343.960	1	-2
345.157	1	-2
346.354	1	-8
347.552	1	8
348.749	1	1
349.946	1	13
351.143	1	3
352.340	1	3
353.537	1	-3
354.734	1	1
355.931	1	-4
357.127	1	-6
358.324	1	9
359.521	1	6
360.718	1	4
361.914	1	2
363.111	1	9
364.308	1	4
365.504	1	1
366.701	1	3
367.897	1	1
369.093	1	-5
370.290	1	3
371.486	1	-3
372.682	1	18
373.879	1	11
375.075	1	12
376.271	1	5
377.467	1	0
378.663	1	2
379.859	1	3
381.055	1	8
382.251	1	5
383.447	1	3
384.643	1	-1
385.839	1	-5
387.035	1	2
388.230	1	-8
389.426	1	0
390.622	1	-9
391.817	1	-6
393.013	1	1
394.208	1	10
395.404	1	6
396.599	1	-10
397.795	1	0
398.990	1	-9
400.186	1	-2
401.381	1	3
402.576	1	-1
403.771	1	6
404.967	1	-6
406.162	1	4
407.357	1	-1
408.552	1	-5
409.747	1	1
410.942	1	0
412.137	1	-5
413.332	1	-7
414.526	1	3
415.721	1	3
416.916	1	-6
418.111	1	3
419.305	1	-3
420.500	1	-11
421.695	1	-3
422.889	1	-12
424.084	1	14
425.278	1	-2
426.472	1	6
427.667	1	-1
428.861	1	-5
430.055	1	-1
431.250	1	16
432.444	1	4
433.638	1	6
434.832	1	3
436.026	1	3
437.220	1	0
438.414	1	-6
439.608	1	-3
440.802	1	4
441.996	1	-12
443.190	1	-4
444.384	1	-3
445.578	1	8
446.771	1	-8
447.965	1	-7
449.159	1	-1
450.352	1	-5
451.546	1	-9
452.739	1	-4
453.933	1	-5
455.126	1	13
456.320	1	-1
457.513	1	4
458.706	1	5
459.899	1	1
461.093	1	5
462.286	1	-4
463.479	1	-6
464.672	1	-5
465.865	1	-2
467.058	1	3
468.251	1	0
469.444	1	-5
470.637	1	8
471.830	1	0
473.023	1	4
474.215	1	-3
475.408	1	-7
476.601	1	7
477.793	1	5
478.986	1	-3
480.179	1	-2
481.371	1	-3
482.564	1	3
483.756	1	-2
484.948	1	1
486.141	1	10
487.333	1	-12
488.525	1	4
489.718	1	3
490.910	1	-6
492.102	1	-4
493.294	1	0
494.486	1	6
495.678	1	-2
496.870	1	-6
498.062	1	8
499.254	1	10
500.446	1	-7
501.638	1	-2
502.829	1	2
504.021	1	2
505.213	1	-6
506.404	1	-3
507.596	1	12
508.788	1	-6
509.979	1	-6
511.171	1	3
512.362	1	-2
513.553	1	-2
514.745	1	-1
515.936	1	-2
517.127	1	-6
518.319	1	-6
519.510	1	2
520.701	1	3
521.892	1	-9
523.083	1	-2
524.274	1	-5
525.465	1	6
526.656	1	10
527.847	1	-3
529.038	1	1
530.229	1	11
531.419	1	4
532.610	1	-4
533.801	1	6
534.991	1	5
536.182	1	2
537.373	1	-12
538.563	1	4
539.754	1	4
540.944	1	-7
542.134	1	-8
543.325	1	-6
544.515	1	12
545.705	1	10
546.896	1	6
548.086	1	2
549.276	1	1
550.466	1	2
551.656	1	3
552.846	1	2
554.036	1	-2
555.226	1	-6
556.416	1	-2
557.606	1	-2
558.796	1	0
559.986	1	2
561.175	1	-13
562.365	1	11
563.555	1	-2
564.744	1	0
565.934	1	2
567.123	1	2
568.313	1	-11
569.502	1	4
570.692	1	7
571.881	1	4
573.070	1	5
574.260	1	3
575.449	1	-1
576.638	1	0
577.827	1	0
579.016	1	3
580.205	1	5
581.394	1	-1
582.583	1	-5
583.772	1	1
584.961	1	0
586.150	1	-5
587.339	1	7
588.528	1	8
589.717	1	1
590.905	1	13
592.094	1	5
593.283	1	17
594.471	1	2
595.660	1	-3
596.848	1	5
598.037	1	0
599.225	1	1
600.413	1	-16
601.602	1	11
602.790	1	5
603.978	1	-1
605.166	1	1
606.355	1	-2
607.543	1	11
608.731	1	4
609.919	1	-1
611.107	1	-6
612.295	1	-1
613.483	1	-3
614.671	1	9
615.858	1	-2
617.046	1	-5
618.234	1	-2
619.422	1	-10
620.609	1	5
621.797	1	3
622.985	1	7
624.172	1	-7
625.360	1	3
626.547	1	-8
627.735	1	-18
628.922	1	-9
630.109	1	3
631.297	1	1
632.484	1	-6
633.671	1	7
634.858	1	1
636.045	1	10
637.232	1	-1
638.419	1	6
639.606	1	-16
640.793	1	-5
641.980	1	-8
643.167	1	-4
644.354	1	-6
645.541	1	-4
646.728	1	-1
647.914	1	-1
649.101	1	-2
650.288	1	8
651.474	1	11
652.661	1	0
653.847	1	4
655.034	1	3
656.220	1	0
657.406	1	-8
658.593	1	2
659.779	1	0
660.965	1	8
662.152	1	9
663.338	1	1
664.524	1	3
665.710	1	-1
666.896	1	5
668.082	1	2
669.268	1	-9
670.454	1	-12
671.640	1	0
672.826	1	7
674.011	1	7
675.197	1	4
676.383	1	-3
677.569	1	-6
678.754	1	2
679.940	1	8
681.125	1	5
682.311	1	-1
683.496	1	7
684.682	1	4
685.867	1	2
687.053	1	-15
688.238	1	-9
688.746	1	-1