File: Data/GaN_170K_550ms/GaN_sample D_spot 18_UVVIS_170 K_200um_550 ms 2x2mm1_315.txt
340.368	1	1
341.565	1	7
342.763	1	2
343.960	1	-6
345.157	1	4
346.354	1	-10
347.552	1	7
348.749	1	10
349.946	1	11
351.143	1	4
352.340	1	3
353.537	1	3
354.734	1	0
355.931	1	-4
357.127	1	0
358.324	1	12
359.521	1	3
360.718	1	2
361.914	1	6
363.111	1	16
364.308	1	0
365.504	1	1
366.701	1	5
367.897	1	11
369.093	1	-7
370.290	1	8
371.486	1	-6
372.682	1	14
373.879	1	14
375.075	1	-3
376.271	1	15
377.467	1	-2
378.663	1	6
379.859	1	5
381.055	1	3
382.251	1	6
383.447	1	11
384.643	1	2
385.839	1	-3
387.035	1	-7
388.230	1	3
389.426	1	-1
390.622	1	-1
391.817	1	2
393.013	1	4
394.208	1	8
395.404	1	9
396.599	1	0
397.795	1	-4
398.990	1	-5
400.186	1	-3
401.381	1	9
402.576	1	-3
403.771	1	0
404.967	1	4
406.162	1	9
407.357	1	-2
408.552	1	1
409.747	1	2
410.942	1	7
412.137	1	-6
413.332	1	-5
414.526	1	3
415.721	1	-2
416.916	1	-14
418.111	1	9
419.305	1	2
420.500	1	-1
421.695	1	-6
422.889	1	-3
424.084	1	9
425.278	1	1
426.472	1	3
427.667	1	10
428.861	1	3
430.055	1	6
431.250	1	6
432.444	1	-4
433.638	1	7
434.832	1	3
436.026	1	-2
437.220	1	-2
438.414	1	-3
439.608	1	-7
440.802	1	6
441.996	1	-2
443.190	1	7
444.384	1	5
445.578	1	2
446.771	1	-12
447.965	1	-6
449.159	1	-7
450.352	1	-5
451.546	1	-4
452.739	1	11
453.933	1	-6
455.126	1	9
456.320	1	1
457.513	1	8
458.706	1	6
459.899	1	4
461.093	1	6
462.286	1	-3
463.479	1	-1
464.672	1	-2
465.865	1	3
467.058	1	8
468.251	1	-2
469.444	1	5
470.637	1	-3
471.830	1	-5
473.023	1	6
474.215	1	2
475.408	1	1
476.601	1	1
477.793	1	6
478.986	1	-7
480.179	1	-2
481.371	1	-3
482.564	1	-6
483.756	1	3
484.948	1	3
486.141	1	12
487.333	1	5
488.525	1	3
489.718	1	9
490.910	1	1
492.102	1	-3
493.294	1	-1
494.486	1	7
495.678	1	3
496.870	1	-5
498.062	1	-3
499.254	1	3
500.446	1	3
501.638	1	-10
502.829	1	5
504.021	1	-1
505.213	1	-5
506.404	1	4
507.596	1	-1
508.788	1	-4
509.979	1	5
511.171	1	4
512.362	1	-5
513.553	1	4
514.745	1	-3
515.936	1	9
517.127	1	1
518.319	1	5
519.510	1	6
520.701	1	-3
521.892	1	1
523.083	1	-4
524.274	1	1
525.465	1	2
526.656	1	3
527.847	1	-1
529.038	1	-1
530.229	1	6
531.419	1	4
532.610	1	6
533.801	1	5
534.991	1	-4
536.182	1	5
537.373	1	-7
538.563	1	-1
539.754	1	-6
540.944	1	-2
542.134	1	-10
543.325	1	7
544.515	1	-1
545.705	1	3
546.896	1	2
548.086	1	0
549.276	1	8
550.466	1	-4
551.656	1	-2
552.846	1	0
554.036	1	2
555.226	1	-3
556.416	1	-2
557.606	1	0
558.796	1	7
559.986	1	3
561.175	1	-1
562.365	1	9
563.555	1	3
564.744	1	-3
565.934	1	5
567.123	1	0
568.313	1	-5
569.502	1	7
570.692	1	8
571.881	1	-3
573.070	1	2
574.260	1	3
575.449	1	-5
576.638	1	11
577.827	1	-3
579.016	1	-2
580.205	1	0
581.394	1	1
582.583	1	2
583.772	1	1
584.961	1	-4
586.150	1	-4
587.339	1	5
588.528	1	-4
589.717	1	4
590.905	1	7
592.094	1	2
593.283	1	7
594.471	1	6
595.660	1	1
596.848	1	9
598.037	1	-2
599.225	1	3
600.413	1	-8
601.602	1	-8
602.790	1	7
603.978	1	6
605.166	1	4
606.355	1	3
607.543	1	15
608.731	1	-2
609.919	1	-1
611.107	1	-1
612.295	1	-3
613.483	1	-6
614.671	1	7
615.858	1	-8
617.046	1	-6
618.234	1	6
619.422	1	-2
620.609	1	5
621.797	1	-4
622.985	1	2
624.172	1	1
625.360	1	0
626.547	1	-9
627.735	1	-3
628.922	1	-6
630.109	1	-5
631.297	1	4
632.484	1	-3
633.671	1	0
634.858	1	-3
636.045	1	7
637.232	1	4
638.419	1	-3
639.606	1	-13
640.793	1	-1
641.980	1	2
643.167	1	3
644.354	1	9
645.541	1	6
646.728	1	2
647.914	1	1
649.101	1	1
650.288	1	-8
651.474	1	8
652.661	1	-3
653.847	1	-7
655.034	1	-1
656.220	1	-4
657.406	1	4
658.593	1	7
659.779	1	4
660.965	1	16
662.152	1	5
663.338	1	4
664.524	1	6
665.710	1	2
666.896	1	4
668.082	1	1
669.268	1	-6
670.454	1	-3
671.640	1	7
672.826	1	4
674.011	1	12
675.197	1	1
676.383	1	-1
677.569	1	1
678.754	1	5
679.940	1	-2
681.125	1	4
682.311	1	-5
683.496	1	9
684.682	1	3
685.867	1	5
687.053	1	-6
688.238	1	4
688.746	1	-10