File: Data/GaN_170K_550ms/GaN_sample D_spot 18_UVVIS_170 K_200um_550 ms 2x2mm1_17.txt
340.368	1	-8
341.565	1	8
342.763	1	4
343.960	1	-2
345.157	1	2
346.354	1	-6
347.552	1	10
348.749	1	11
349.946	1	9
351.143	1	-2
352.340	1	12
353.537	1	-1
354.734	1	7
355.931	1	1
357.127	1	-2
358.324	1	4
359.521	1	2
360.718	1	4
361.914	1	-2
363.111	1	6
364.308	1	3
365.504	1	-6
366.701	1	5
367.897	1	3
369.093	1	-11
370.290	1	4
371.486	1	-9
372.682	1	-3
373.879	1	1
375.075	1	2
376.271	1	10
377.467	1	5
378.663	1	-1
379.859	1	2
381.055	1	1
382.251	1	4
383.447	1	9
384.643	1	-4
385.839	1	-15
387.035	1	1
388.230	1	-6
389.426	1	6
390.622	1	4
391.817	1	5
393.013	1	-3
394.208	1	15
395.404	1	6
396.599	1	-4
397.795	1	-2
398.990	1	-2
400.186	1	1
401.381	1	17
402.576	1	-3
403.771	1	13
404.967	1	3
406.162	1	1
407.357	1	-2
408.552	1	1
409.747	1	1
410.942	1	5
412.137	1	-3
413.332	1	-3
414.526	1	5
415.721	1	-1
416.916	1	-3
418.111	1	6
419.305	1	1
420.500	1	0
421.695	1	-6
422.889	1	-1
424.084	1	12
425.278	1	-5
426.472	1	-3
427.667	1	1
428.861	1	4
430.055	1	2
431.250	1	5
432.444	1	1
433.638	1	5
434.832	1	8
436.026	1	-1
437.220	1	-4
438.414	1	-3
439.608	1	0
440.802	1	2
441.996	1	6
443.190	1	-4
444.384	1	-3
445.578	1	9
446.771	1	-6
447.965	1	-1
449.159	1	-4
450.352	1	-1
451.546	1	-9
452.739	1	2
453.933	1	0
455.126	1	16
456.320	1	5
457.513	1	10
458.706	1	3
459.899	1	-2
461.093	1	9
462.286	1	0
463.479	1	4
464.672	1	-9
465.865	1	-7
467.058	1	7
468.251	1	-1
469.444	1	0
470.637	1	-1
471.830	1	7
473.023	1	1
474.215	1	7
475.408	1	-6
476.601	1	5
477.793	1	4
478.986	1	4
480.179	1	-6
481.371	1	-1
482.564	1	0
483.756	1	0
484.948	1	1
486.141	1	1
487.333	1	-9
488.525	1	4
489.718	1	1
490.910	1	6
492.102	1	4
493.294	1	-3
494.486	1	6
495.678	1	7
496.870	1	3
498.062	1	-1
499.254	1	8
500.446	1	6
501.638	1	-2
502.829	1	7
504.021	1	3
505.213	1	-8
506.404	1	-8
507.596	1	10
508.788	1	-4
509.979	1	6
511.171	1	1
512.362	1	-10
513.553	1	7
514.745	1	0
515.936	1	-1
517.127	1	3
518.319	1	10
519.510	1	-1
520.701	1	5
521.892	1	-1
523.083	1	1
524.274	1	0
525.465	1	3
526.656	1	8
527.847	1	5
529.038	1	3
530.229	1	9
531.419	1	14
532.610	1	-7
533.801	1	8
534.991	1	-1
536.182	1	3
537.373	1	-12
538.563	1	-6
539.754	1	0
540.944	1	-2
542.134	1	-1
543.325	1	3
544.515	1	11
545.705	1	-1
546.896	1	1
548.086	1	-1
549.276	1	-8
550.466	1	-4
551.656	1	1
552.846	1	-11
554.036	1	3
555.226	1	-8
556.416	1	2
557.606	1	-3
558.796	1	-4
559.986	1	4
561.175	1	-5
562.365	1	3
563.555	1	0
564.744	1	9
565.934	1	2
567.123	1	8
568.313	1	1
569.502	1	-1
570.692	1	3
571.881	1	0
573.070	1	-3
574.260	1	9
575.449	1	4
576.638	1	10
577.827	1	-1
579.016	1	-2
580.205	1	1
581.394	1	8
582.583	1	1
583.772	1	1
584.961	1	-2
586.150	1	-14
587.339	1	1
588.528	1	-4
589.717	1	-5
590.905	1	-1
592.094	1	12
593.283	1	6
594.471	1	6
595.660	1	3
596.848	1	-3
598.037	1	-4
599.225	1	2
600.413	1	-8
601.602	1	1
602.790	1	10
603.978	1	8
605.166	1	9
606.355	1	1
607.543	1	9
608.731	1	1
609.919	1	1
611.107	1	4
612.295	1	0
613.483	1	-2
614.671	1	7
615.858	1	-5
617.046	1	-7
618.234	1	4
619.422	1	-2
620.609	1	7
621.797	1	7
622.985	1	0
624.172	1	-3
625.360	1	-4
626.547	1	2
627.735	1	-10
628.922	1	-9
630.109	1	-5
631.297	1	-2
632.484	1	-11
633.671	1	2
634.858	1	3
636.045	1	6
637.232	1	7
638.419	1	3
639.606	1	-4
640.793	1	-4
641.980	1	-8
643.167	1	-5
644.354	1	3
645.541	1	-1
646.728	1	5
647.914	1	6
649.101	1	-1
650.288	1	2
651.474	1	9
652.661	1	4
653.847	1	9
655.034	1	3
656.220	1	1
657.406	1	4
658.593	1	-1
659.779	1	1
660.965	1	11
662.152	1	-4
663.338	1	5
664.524	1	1
665.710	1	2
666.896	1	3
668.082	1	10
669.268	1	3
670.454	1	-10
671.640	1	9
672.826	1	-5
674.011	1	7
675.197	1	-1
676.383	1	-1
677.569	1	-3
678.754	1	-3
679.940	1	8
681.125	1	-3
682.311	1	9
683.496	1	5
684.682	1	6
685.867	1	4
687.053	1	0
688.238	1	-6
688.746	1	-8