File: Data/GaN_170K_550ms/GaN_sample D_spot 18_UVVIS_170 K_200um_550 ms 2x2mm1_271.txt
340.368	1	2
341.565	1	10
342.763	1	1
343.960	1	1
345.157	1	-5
346.354	1	-2
347.552	1	7
348.749	1	11
349.946	1	4
351.143	1	-1
352.340	1	2
353.537	1	0
354.734	1	4
355.931	1	3
357.127	1	-3
358.324	1	15
359.521	1	9
360.718	1	-2
361.914	1	8
363.111	1	15
364.308	1	3
365.504	1	8
366.701	1	5
367.897	1	13
369.093	1	-2
370.290	1	8
371.486	1	-1
372.682	1	14
373.879	1	12
375.075	1	-1
376.271	1	11
377.467	1	1
378.663	1	5
379.859	1	3
381.055	1	-1
382.251	1	7
383.447	1	7
384.643	1	0
385.839	1	-12
387.035	1	3
388.230	1	0
389.426	1	3
390.622	1	0
391.817	1	7
393.013	1	-1
394.208	1	3
395.404	1	11
396.599	1	-3
397.795	1	-3
398.990	1	-5
400.186	1	1
401.381	1	17
402.576	1	-1
403.771	1	4
404.967	1	-3
406.162	1	-6
407.357	1	-8
408.552	1	5
409.747	1	1
410.942	1	-6
412.137	1	-10
413.332	1	-10
414.526	1	1
415.721	1	-1
416.916	1	-8
418.111	1	7
419.305	1	4
420.500	1	-2
421.695	1	-5
422.889	1	-3
424.084	1	17
425.278	1	4
426.472	1	3
427.667	1	4
428.861	1	-2
430.055	1	-3
431.250	1	11
432.444	1	8
433.638	1	-1
434.832	1	10
436.026	1	-3
437.220	1	-3
438.414	1	-9
439.608	1	4
440.802	1	4
441.996	1	2
443.190	1	1
444.384	1	2
445.578	1	11
446.771	1	-8
447.965	1	5
449.159	1	3
450.352	1	-6
451.546	1	2
452.739	1	2
453.933	1	2
455.126	1	6
456.320	1	2
457.513	1	-1
458.706	1	10
459.899	1	7
461.093	1	8
462.286	1	1
463.479	1	8
464.672	1	-8
465.865	1	3
467.058	1	-1
468.251	1	0
469.444	1	0
470.637	1	0
471.830	1	8
473.023	1	3
474.215	1	4
475.408	1	-1
476.601	1	12
477.793	1	3
478.986	1	-4
480.179	1	-8
481.371	1	8
482.564	1	-6
483.756	1	4
484.948	1	4
486.141	1	3
487.333	1	-8
488.525	1	11
489.718	1	-2
490.910	1	-6
492.102	1	2
493.294	1	-4
494.486	1	5
495.678	1	1
496.870	1	1
498.062	1	-2
499.254	1	5
500.446	1	-4
501.638	1	-10
502.829	1	-2
504.021	1	13
505.213	1	-9
506.404	1	4
507.596	1	6
508.788	1	-3
509.979	1	9
511.171	1	-8
512.362	1	4
513.553	1	6
514.745	1	-2
515.936	1	2
517.127	1	-1
518.319	1	10
519.510	1	4
520.701	1	0
521.892	1	4
523.083	1	0
524.274	1	-11
525.465	1	6
526.656	1	9
527.847	1	-5
529.038	1	3
530.229	1	10
531.419	1	12
532.610	1	-6
533.801	1	2
534.991	1	-5
536.182	1	-3
537.373	1	9
538.563	1	2
539.754	1	4
540.944	1	0
542.134	1	1
543.325	1	-5
544.515	1	11
545.705	1	2
546.896	1	3
548.086	1	5
549.276	1	2
550.466	1	1
551.656	1	4
552.846	1	-2
554.036	1	-3
555.226	1	2
556.416	1	0
557.606	1	2
558.796	1	-3
559.986	1	3
561.175	1	1
562.365	1	8
563.555	1	-1
564.744	1	-6
565.934	1	9
567.123	1	3
568.313	1	2
569.502	1	-3
570.692	1	-3
571.881	1	-2
573.070	1	0
574.260	1	8
575.449	1	5
576.638	1	12
577.827	1	-5
579.016	1	5
580.205	1	3
581.394	1	4
582.583	1	2
583.772	1	-7
584.961	1	-1
586.150	1	-1
587.339	1	-3
588.528	1	-5
589.717	1	2
590.905	1	9
592.094	1	10
593.283	1	6
594.471	1	15
595.660	1	-6
596.848	1	1
598.037	1	6
599.225	1	7
600.413	1	-1
601.602	1	6
602.790	1	10
603.978	1	2
605.166	1	5
606.355	1	11
607.543	1	4
608.731	1	1
609.919	1	4
611.107	1	-11
612.295	1	-1
613.483	1	-9
614.671	1	0
615.858	1	-3
617.046	1	1
618.234	1	-1
619.422	1	-9
620.609	1	2
621.797	1	5
622.985	1	8
624.172	1	-5
625.360	1	4
626.547	1	-10
627.735	1	-17
628.922	1	-1
630.109	1	-1
631.297	1	0
632.484	1	-4
633.671	1	12
634.858	1	1
636.045	1	8
637.232	1	2
638.419	1	-5
639.606	1	-11
640.793	1	-2
641.980	1	-4
643.167	1	-1
644.354	1	1
645.541	1	4
646.728	1	3
647.914	1	0
649.101	1	6
650.288	1	-4
651.474	1	-2
652.661	1	-3
653.847	1	-1
655.034	1	-7
656.220	1	0
657.406	1	4
658.593	1	-1
659.779	1	-3
660.965	1	14
662.152	1	-2
663.338	1	-3
664.524	1	5
665.710	1	2
666.896	1	10
668.082	1	12
669.268	1	-8
670.454	1	-10
671.640	1	-8
672.826	1	-7
674.011	1	3
675.197	1	2
676.383	1	2
677.569	1	-3
678.754	1	-2
679.940	1	4
681.125	1	6
682.311	1	4
683.496	1	4
684.682	1	0
685.867	1	-5
687.053	1	-5
688.238	1	2
688.746	1	-8