File: Data/GaN_170K_550ms/GaN_sample D_spot 18_UVVIS_170 K_200um_550 ms 2x2mm1_305.txt
340.368	1	3
341.565	1	4
342.763	1	3
343.960	1	4
345.157	1	-5
346.354	1	-9
347.552	1	8
348.749	1	8
349.946	1	4
351.143	1	-7
352.340	1	3
353.537	1	4
354.734	1	8
355.931	1	-2
357.127	1	-9
358.324	1	8
359.521	1	7
360.718	1	9
361.914	1	7
363.111	1	12
364.308	1	8
365.504	1	4
366.701	1	9
367.897	1	3
369.093	1	-1
370.290	1	3
371.486	1	1
372.682	1	2
373.879	1	12
375.075	1	4
376.271	1	11
377.467	1	6
378.663	1	0
379.859	1	-4
381.055	1	8
382.251	1	1
383.447	1	12
384.643	1	0
385.839	1	-6
387.035	1	-4
388.230	1	3
389.426	1	1
390.622	1	10
391.817	1	3
393.013	1	-1
394.208	1	4
395.404	1	2
396.599	1	-7
397.795	1	-9
398.990	1	-7
400.186	1	1
401.381	1	3
402.576	1	-3
403.771	1	-2
404.967	1	8
406.162	1	8
407.357	1	4
408.552	1	-2
409.747	1	-1
410.942	1	4
412.137	1	-10
413.332	1	-8
414.526	1	2
415.721	1	-2
416.916	1	-3
418.111	1	4
419.305	1	-7
420.500	1	-5
421.695	1	-8
422.889	1	3
424.084	1	4
425.278	1	0
426.472	1	1
427.667	1	0
428.861	1	-1
430.055	1	-3
431.250	1	15
432.444	1	-1
433.638	1	4
434.832	1	4
436.026	1	-1
437.220	1	-6
438.414	1	-12
439.608	1	5
440.802	1	2
441.996	1	-2
443.190	1	3
444.384	1	6
445.578	1	4
446.771	1	-5
447.965	1	2
449.159	1	-2
450.352	1	-3
451.546	1	-3
452.739	1	2
453.933	1	-2
455.126	1	14
456.320	1	0
457.513	1	9
458.706	1	6
459.899	1	-2
461.093	1	1
462.286	1	-6
463.479	1	-6
464.672	1	2
465.865	1	-2
467.058	1	-2
468.251	1	2
469.444	1	0
470.637	1	1
471.830	1	3
473.023	1	5
474.215	1	11
475.408	1	-3
476.601	1	7
477.793	1	10
478.986	1	-7
480.179	1	0
481.371	1	10
482.564	1	3
483.756	1	5
484.948	1	1
486.141	1	7
487.333	1	-4
488.525	1	10
489.718	1	6
490.910	1	-2
492.102	1	0
493.294	1	-3
494.486	1	16
495.678	1	4
496.870	1	3
498.062	1	-2
499.254	1	10
500.446	1	10
501.638	1	-6
502.829	1	-2
504.021	1	2
505.213	1	2
506.404	1	7
507.596	1	10
508.788	1	-6
509.979	1	1
511.171	1	2
512.362	1	1
513.553	1	4
514.745	1	1
515.936	1	4
517.127	1	9
518.319	1	8
519.510	1	6
520.701	1	5
521.892	1	-2
523.083	1	5
524.274	1	1
525.465	1	-2
526.656	1	9
527.847	1	4
529.038	1	-3
530.229	1	2
531.419	1	9
532.610	1	9
533.801	1	-4
534.991	1	3
536.182	1	-1
537.373	1	-1
538.563	1	-3
539.754	1	1
540.944	1	-4
542.134	1	4
543.325	1	0
544.515	1	3
545.705	1	12
546.896	1	-6
548.086	1	8
549.276	1	4
550.466	1	-3
551.656	1	7
552.846	1	-4
554.036	1	2
555.226	1	-4
556.416	1	-8
557.606	1	1
558.796	1	7
559.986	1	1
561.175	1	-7
562.365	1	2
563.555	1	3
564.744	1	0
565.934	1	11
567.123	1	-6
568.313	1	-7
569.502	1	8
570.692	1	2
571.881	1	-13
573.070	1	2
574.260	1	1
575.449	1	1
576.638	1	7
577.827	1	-4
579.016	1	6
580.205	1	0
581.394	1	1
582.583	1	2
583.772	1	-1
584.961	1	0
586.150	1	-9
587.339	1	1
588.528	1	-5
589.717	1	0
590.905	1	4
592.094	1	3
593.283	1	3
594.471	1	8
595.660	1	-3
596.848	1	4
598.037	1	-3
599.225	1	6
600.413	1	-11
601.602	1	8
602.790	1	9
603.978	1	3
605.166	1	7
606.355	1	1
607.543	1	1
608.731	1	2
609.919	1	-2
611.107	1	-6
612.295	1	-2
613.483	1	-3
614.671	1	8
615.858	1	5
617.046	1	-7
618.234	1	-4
619.422	1	-10
620.609	1	-1
621.797	1	2
622.985	1	4
624.172	1	0
625.360	1	4
626.547	1	-4
627.735	1	-11
628.922	1	-2
630.109	1	-1
631.297	1	0
632.484	1	-2
633.671	1	0
634.858	1	-1
636.045	1	4
637.232	1	-2
638.419	1	-11
639.606	1	-8
640.793	1	-13
641.980	1	4
643.167	1	-5
644.354	1	2
645.541	1	-1
646.728	1	10
647.914	1	3
649.101	1	1
650.288	1	0
651.474	1	6
652.661	1	-1
653.847	1	3
655.034	1	-3
656.220	1	-5
657.406	1	4
658.593	1	-5
659.779	1	3
660.965	1	15
662.152	1	4
663.338	1	11
664.524	1	-5
665.710	1	-6
666.896	1	-2
668.082	1	9
669.268	1	-7
670.454	1	-11
671.640	1	1
672.826	1	0
674.011	1	-1
675.197	1	5
676.383	1	-8
677.569	1	-12
678.754	1	-2
679.940	1	3
681.125	1	5
682.311	1	-4
683.496	1	8
684.682	1	3
685.867	1	5
687.053	1	-9
688.238	1	-2
688.746	1	-9