File: Data/GaN_170K_550ms/GaN_sample D_spot 18_UVVIS_170 K_200um_550 ms 2x2mm1_59.txt
340.368	1	-5
341.565	1	7
342.763	1	5
343.960	1	-1
345.157	1	-2
346.354	1	-1
347.552	1	18
348.749	1	9
349.946	1	10
351.143	1	7
352.340	1	15
353.537	1	17
354.734	1	18
355.931	1	14
357.127	1	30
358.324	1	42
359.521	1	67
360.718	1	92
361.914	1	125
363.111	1	208
364.308	1	311
365.504	1	499
366.701	1	713
367.897	1	859
369.093	1	888
370.290	1	794
371.486	1	613
372.682	1	490
373.879	1	415
375.075	1	331
376.271	1	269
377.467	1	225
378.663	1	173
379.859	1	146
381.055	1	128
382.251	1	104
383.447	1	105
384.643	1	93
385.839	1	84
387.035	1	62
388.230	1	60
389.426	1	64
390.622	1	53
391.817	1	43
393.013	1	41
394.208	1	38
395.404	1	45
396.599	1	31
397.795	1	31
398.990	1	24
400.186	1	24
401.381	1	27
402.576	1	14
403.771	1	13
404.967	1	23
406.162	1	27
407.357	1	21
408.552	1	18
409.747	1	15
410.942	1	13
412.137	1	10
413.332	1	8
414.526	1	15
415.721	1	8
416.916	1	7
418.111	1	12
419.305	1	10
420.500	1	15
421.695	1	10
422.889	1	4
424.084	1	25
425.278	1	13
426.472	1	7
427.667	1	14
428.861	1	18
430.055	1	10
431.250	1	15
432.444	1	10
433.638	1	20
434.832	1	12
436.026	1	9
437.220	1	6
438.414	1	6
439.608	1	9
440.802	1	22
441.996	1	8
443.190	1	15
444.384	1	16
445.578	1	17
446.771	1	-3
447.965	1	3
449.159	1	12
450.352	1	-6
451.546	1	10
452.739	1	12
453.933	1	11
455.126	1	17
456.320	1	5
457.513	1	23
458.706	1	11
459.899	1	9
461.093	1	9
462.286	1	5
463.479	1	3
464.672	1	16
465.865	1	14
467.058	1	15
468.251	1	8
469.444	1	19
470.637	1	10
471.830	1	7
473.023	1	11
474.215	1	12
475.408	1	15
476.601	1	9
477.793	1	11
478.986	1	8
480.179	1	8
481.371	1	14
482.564	1	12
483.756	1	24
484.948	1	22
486.141	1	33
487.333	1	15
488.525	1	31
489.718	1	35
490.910	1	46
492.102	1	35
493.294	1	35
494.486	1	48
495.678	1	47
496.870	1	42
498.062	1	50
499.254	1	54
500.446	1	49
501.638	1	45
502.829	1	59
504.021	1	60
505.213	1	57
506.404	1	73
507.596	1	67
508.788	1	71
509.979	1	68
511.171	1	74
512.362	1	58
513.553	1	75
514.745	1	69
515.936	1	91
517.127	1	88
518.319	1	94
519.510	1	93
520.701	1	88
521.892	1	90
523.083	1	88
524.274	1	94
525.465	1	90
526.656	1	96
527.847	1	103
529.038	1	95
530.229	1	131
531.419	1	115
532.610	1	113
533.801	1	111
534.991	1	89
536.182	1	98
537.373	1	81
538.563	1	85
539.754	1	94
540.944	1	81
542.134	1	90
543.325	1	93
544.515	1	85
545.705	1	94
546.896	1	102
548.086	1	93
549.276	1	88
550.466	1	94
551.656	1	95
552.846	1	84
554.036	1	84
555.226	1	73
556.416	1	69
557.606	1	82
558.796	1	68
559.986	1	80
561.175	1	73
562.365	1	68
563.555	1	70
564.744	1	65
565.934	1	61
567.123	1	62
568.313	1	56
569.502	1	64
570.692	1	74
571.881	1	57
573.070	1	53
574.260	1	58
575.449	1	50
576.638	1	56
577.827	1	52
579.016	1	51
580.205	1	42
581.394	1	62
582.583	1	53
583.772	1	45
584.961	1	48
586.150	1	33
587.339	1	50
588.528	1	41
589.717	1	46
590.905	1	45
592.094	1	44
593.283	1	41
594.471	1	38
595.660	1	31
596.848	1	39
598.037	1	29
599.225	1	42
600.413	1	28
601.602	1	40
602.790	1	46
603.978	1	39
605.166	1	41
606.355	1	37
607.543	1	46
608.731	1	36
609.919	1	29
611.107	1	32
612.295	1	25
613.483	1	30
614.671	1	41
615.858	1	27
617.046	1	17
618.234	1	21
619.422	1	12
620.609	1	17
621.797	1	24
622.985	1	15
624.172	1	26
625.360	1	19
626.547	1	11
627.735	1	5
628.922	1	13
630.109	1	12
631.297	1	28
632.484	1	14
633.671	1	22
634.858	1	25
636.045	1	29
637.232	1	23
638.419	1	16
639.606	1	11
640.793	1	17
641.980	1	13
643.167	1	15
644.354	1	20
645.541	1	22
646.728	1	19
647.914	1	22
649.101	1	21
650.288	1	17
651.474	1	18
652.661	1	16
653.847	1	12
655.034	1	22
656.220	1	15
657.406	1	15
658.593	1	17
659.779	1	17
660.965	1	28
662.152	1	10
663.338	1	16
664.524	1	16
665.710	1	6
666.896	1	15
668.082	1	28
669.268	1	16
670.454	1	1
671.640	1	15
672.826	1	14
674.011	1	17
675.197	1	12
676.383	1	24
677.569	1	9
678.754	1	20
679.940	1	18
681.125	1	25
682.311	1	24
683.496	1	12
684.682	1	21
685.867	1	19
687.053	1	7
688.238	1	11
688.746	1	12