File: Data/GaN_170K_550ms/GaN_sample D_spot 18_UVVIS_170 K_200um_550 ms 2x2mm1_87.txt
340.368	1	2
341.565	1	-1
342.763	1	0
343.960	1	-4
345.157	1	4
346.354	1	2
347.552	1	10
348.749	1	17
349.946	1	13
351.143	1	-3
352.340	1	5
353.537	1	8
354.734	1	18
355.931	1	6
357.127	1	12
358.324	1	18
359.521	1	22
360.718	1	21
361.914	1	48
363.111	1	66
364.308	1	69
365.504	1	96
366.701	1	120
367.897	1	131
369.093	1	129
370.290	1	135
371.486	1	98
372.682	1	96
373.879	1	87
375.075	1	70
376.271	1	55
377.467	1	51
378.663	1	45
379.859	1	38
381.055	1	38
382.251	1	30
383.447	1	42
384.643	1	28
385.839	1	10
387.035	1	20
388.230	1	12
389.426	1	16
390.622	1	16
391.817	1	12
393.013	1	7
394.208	1	18
395.404	1	14
396.599	1	-7
397.795	1	15
398.990	1	6
400.186	1	-6
401.381	1	17
402.576	1	10
403.771	1	7
404.967	1	8
406.162	1	16
407.357	1	2
408.552	1	2
409.747	1	4
410.942	1	4
412.137	1	-6
413.332	1	8
414.526	1	0
415.721	1	2
416.916	1	0
418.111	1	10
419.305	1	14
420.500	1	1
421.695	1	-10
422.889	1	1
424.084	1	9
425.278	1	-1
426.472	1	3
427.667	1	15
428.861	1	6
430.055	1	-2
431.250	1	13
432.444	1	3
433.638	1	14
434.832	1	4
436.026	1	6
437.220	1	5
438.414	1	-5
439.608	1	0
440.802	1	10
441.996	1	-3
443.190	1	-2
444.384	1	0
445.578	1	4
446.771	1	-6
447.965	1	9
449.159	1	-2
450.352	1	-5
451.546	1	-6
452.739	1	6
453.933	1	10
455.126	1	14
456.320	1	-5
457.513	1	4
458.706	1	1
459.899	1	3
461.093	1	13
462.286	1	3
463.479	1	0
464.672	1	-1
465.865	1	-1
467.058	1	3
468.251	1	2
469.444	1	0
470.637	1	8
471.830	1	-2
473.023	1	6
474.215	1	1
475.408	1	-3
476.601	1	0
477.793	1	14
478.986	1	7
480.179	1	3
481.371	1	1
482.564	1	5
483.756	1	5
484.948	1	1
486.141	1	15
487.333	1	-5
488.525	1	18
489.718	1	13
490.910	1	4
492.102	1	-2
493.294	1	0
494.486	1	22
495.678	1	13
496.870	1	12
498.062	1	15
499.254	1	25
500.446	1	9
501.638	1	-2
502.829	1	20
504.021	1	9
505.213	1	5
506.404	1	17
507.596	1	20
508.788	1	12
509.979	1	24
511.171	1	16
512.362	1	16
513.553	1	18
514.745	1	16
515.936	1	18
517.127	1	18
518.319	1	22
519.510	1	25
520.701	1	20
521.892	1	17
523.083	1	22
524.274	1	26
525.465	1	31
526.656	1	32
527.847	1	19
529.038	1	17
530.229	1	37
531.419	1	35
532.610	1	23
533.801	1	33
534.991	1	22
536.182	1	18
537.373	1	15
538.563	1	22
539.754	1	13
540.944	1	14
542.134	1	25
543.325	1	17
544.515	1	17
545.705	1	17
546.896	1	19
548.086	1	20
549.276	1	24
550.466	1	23
551.656	1	13
552.846	1	5
554.036	1	9
555.226	1	12
556.416	1	9
557.606	1	20
558.796	1	12
559.986	1	16
561.175	1	12
562.365	1	20
563.555	1	14
564.744	1	21
565.934	1	20
567.123	1	19
568.313	1	6
569.502	1	0
570.692	1	26
571.881	1	8
573.070	1	12
574.260	1	13
575.449	1	6
576.638	1	15
577.827	1	5
579.016	1	12
580.205	1	7
581.394	1	18
582.583	1	9
583.772	1	6
584.961	1	4
586.150	1	0
587.339	1	4
588.528	1	4
589.717	1	17
590.905	1	12
592.094	1	6
593.283	1	11
594.471	1	16
595.660	1	4
596.848	1	5
598.037	1	13
599.225	1	1
600.413	1	-4
601.602	1	11
602.790	1	9
603.978	1	11
605.166	1	7
606.355	1	7
607.543	1	15
608.731	1	9
609.919	1	-1
611.107	1	-4
612.295	1	5
613.483	1	1
614.671	1	20
615.858	1	7
617.046	1	2
618.234	1	-1
619.422	1	-7
620.609	1	13
621.797	1	5
622.985	1	5
624.172	1	5
625.360	1	1
626.547	1	5
627.735	1	-9
628.922	1	-4
630.109	1	1
631.297	1	2
632.484	1	3
633.671	1	13
634.858	1	7
636.045	1	13
637.232	1	3
638.419	1	5
639.606	1	7
640.793	1	4
641.980	1	1
643.167	1	8
644.354	1	4
645.541	1	4
646.728	1	14
647.914	1	6
649.101	1	6
650.288	1	10
651.474	1	5
652.661	1	9
653.847	1	8
655.034	1	4
656.220	1	4
657.406	1	1
658.593	1	3
659.779	1	0
660.965	1	13
662.152	1	-5
663.338	1	11
664.524	1	14
665.710	1	8
666.896	1	9
668.082	1	12
669.268	1	0
670.454	1	-5
671.640	1	1
672.826	1	7
674.011	1	5
675.197	1	4
676.383	1	13
677.569	1	4
678.754	1	3
679.940	1	11
681.125	1	12
682.311	1	8
683.496	1	14
684.682	1	13
685.867	1	9
687.053	1	-1
688.238	1	2
688.746	1	2