File: Data/GaN_170K_550ms/GaN_sample D_spot 18_UVVIS_170 K_200um_550 ms 2x2mm1_361.txt
340.368	1	-2
341.565	1	9
342.763	1	1
343.960	1	-3
345.157	1	1
346.354	1	-1
347.552	1	1
348.749	1	4
349.946	1	4
351.143	1	-10
352.340	1	9
353.537	1	-2
354.734	1	2
355.931	1	-1
357.127	1	-2
358.324	1	6
359.521	1	4
360.718	1	0
361.914	1	-4
363.111	1	8
364.308	1	6
365.504	1	3
366.701	1	4
367.897	1	1
369.093	1	-3
370.290	1	3
371.486	1	-1
372.682	1	8
373.879	1	5
375.075	1	2
376.271	1	6
377.467	1	10
378.663	1	3
379.859	1	-5
381.055	1	4
382.251	1	-3
383.447	1	15
384.643	1	-8
385.839	1	-10
387.035	1	-4
388.230	1	0
389.426	1	-1
390.622	1	-1
391.817	1	-6
393.013	1	1
394.208	1	14
395.404	1	-1
396.599	1	-1
397.795	1	3
398.990	1	3
400.186	1	-6
401.381	1	5
402.576	1	-1
403.771	1	-5
404.967	1	11
406.162	1	8
407.357	1	3
408.552	1	4
409.747	1	-3
410.942	1	5
412.137	1	-10
413.332	1	-7
414.526	1	9
415.721	1	-2
416.916	1	-6
418.111	1	1
419.305	1	-7
420.500	1	3
421.695	1	-10
422.889	1	-3
424.084	1	13
425.278	1	-9
426.472	1	-5
427.667	1	2
428.861	1	-4
430.055	1	0
431.250	1	7
432.444	1	-13
433.638	1	8
434.832	1	10
436.026	1	-2
437.220	1	0
438.414	1	-6
439.608	1	-2
440.802	1	13
441.996	1	-8
443.190	1	5
444.384	1	-4
445.578	1	7
446.771	1	-16
447.965	1	-6
449.159	1	-7
450.352	1	-11
451.546	1	-13
452.739	1	5
453.933	1	-6
455.126	1	8
456.320	1	3
457.513	1	5
458.706	1	13
459.899	1	-1
461.093	1	5
462.286	1	-2
463.479	1	-4
464.672	1	-4
465.865	1	3
467.058	1	-1
468.251	1	0
469.444	1	-3
470.637	1	3
471.830	1	2
473.023	1	7
474.215	1	4
475.408	1	-3
476.601	1	2
477.793	1	12
478.986	1	-5
480.179	1	2
481.371	1	5
482.564	1	-12
483.756	1	-3
484.948	1	1
486.141	1	14
487.333	1	-10
488.525	1	14
489.718	1	13
490.910	1	4
492.102	1	-1
493.294	1	-10
494.486	1	7
495.678	1	2
496.870	1	5
498.062	1	-3
499.254	1	-2
500.446	1	-7
501.638	1	-10
502.829	1	-8
504.021	1	2
505.213	1	-10
506.404	1	0
507.596	1	5
508.788	1	-14
509.979	1	3
511.171	1	-4
512.362	1	-1
513.553	1	-5
514.745	1	-4
515.936	1	-5
517.127	1	3
518.319	1	-1
519.510	1	1
520.701	1	-2
521.892	1	0
523.083	1	-6
524.274	1	-2
525.465	1	2
526.656	1	13
527.847	1	1
529.038	1	-3
530.229	1	15
531.419	1	3
532.610	1	-3
533.801	1	3
534.991	1	-3
536.182	1	2
537.373	1	6
538.563	1	9
539.754	1	-3
540.944	1	-5
542.134	1	0
543.325	1	2
544.515	1	5
545.705	1	10
546.896	1	-6
548.086	1	-3
549.276	1	-6
550.466	1	4
551.656	1	-9
552.846	1	-9
554.036	1	4
555.226	1	-6
556.416	1	2
557.606	1	10
558.796	1	-2
559.986	1	4
561.175	1	-6
562.365	1	7
563.555	1	-6
564.744	1	-3
565.934	1	3
567.123	1	-1
568.313	1	2
569.502	1	3
570.692	1	7
571.881	1	-3
573.070	1	5
574.260	1	-1
575.449	1	8
576.638	1	2
577.827	1	0
579.016	1	1
580.205	1	-4
581.394	1	-1
582.583	1	-9
583.772	1	-3
584.961	1	-8
586.150	1	-5
587.339	1	2
588.528	1	-5
589.717	1	5
590.905	1	0
592.094	1	9
593.283	1	2
594.471	1	9
595.660	1	2
596.848	1	-2
598.037	1	0
599.225	1	-4
600.413	1	-4
601.602	1	-4
602.790	1	8
603.978	1	9
605.166	1	3
606.355	1	6
607.543	1	-2
608.731	1	5
609.919	1	2
611.107	1	2
612.295	1	-1
613.483	1	-14
614.671	1	6
615.858	1	-6
617.046	1	-3
618.234	1	0
619.422	1	-7
620.609	1	3
621.797	1	2
622.985	1	-1
624.172	1	-4
625.360	1	4
626.547	1	-2
627.735	1	-4
628.922	1	-7
630.109	1	-10
631.297	1	-2
632.484	1	-3
633.671	1	8
634.858	1	2
636.045	1	6
637.232	1	3
638.419	1	-2
639.606	1	-4
640.793	1	0
641.980	1	-4
643.167	1	-2
644.354	1	2
645.541	1	-6
646.728	1	2
647.914	1	1
649.101	1	-2
650.288	1	5
651.474	1	5
652.661	1	0
653.847	1	-2
655.034	1	0
656.220	1	-1
657.406	1	1
658.593	1	1
659.779	1	3
660.965	1	7
662.152	1	-3
663.338	1	3
664.524	1	0
665.710	1	-3
666.896	1	5
668.082	1	7
669.268	1	2
670.454	1	-8
671.640	1	8
672.826	1	6
674.011	1	5
675.197	1	2
676.383	1	5
677.569	1	-1
678.754	1	2
679.940	1	7
681.125	1	9
682.311	1	3
683.496	1	3
684.682	1	4
685.867	1	1
687.053	1	-13
688.238	1	6
688.746	1	-11