File: Data/GaN_170K_550ms/GaN_sample D_spot 18_UVVIS_170 K_200um_550 ms 2x2mm1_231.txt
340.368	1	-2
341.565	1	-3
342.763	1	13
343.960	1	-8
345.157	1	-4
346.354	1	-4
347.552	1	16
348.749	1	7
349.946	1	10
351.143	1	-7
352.340	1	4
353.537	1	2
354.734	1	7
355.931	1	-5
357.127	1	3
358.324	1	6
359.521	1	9
360.718	1	2
361.914	1	3
363.111	1	12
364.308	1	8
365.504	1	11
366.701	1	13
367.897	1	11
369.093	1	-1
370.290	1	10
371.486	1	7
372.682	1	13
373.879	1	8
375.075	1	3
376.271	1	11
377.467	1	14
378.663	1	2
379.859	1	6
381.055	1	11
382.251	1	0
383.447	1	15
384.643	1	-5
385.839	1	3
387.035	1	2
388.230	1	-5
389.426	1	5
390.622	1	2
391.817	1	13
393.013	1	9
394.208	1	14
395.404	1	8
396.599	1	1
397.795	1	3
398.990	1	-6
400.186	1	-5
401.381	1	9
402.576	1	8
403.771	1	2
404.967	1	4
406.162	1	3
407.357	1	-3
408.552	1	-3
409.747	1	0
410.942	1	4
412.137	1	-5
413.332	1	-3
414.526	1	-1
415.721	1	-4
416.916	1	-8
418.111	1	13
419.305	1	-1
420.500	1	5
421.695	1	5
422.889	1	-4
424.084	1	15
425.278	1	-5
426.472	1	0
427.667	1	4
428.861	1	-4
430.055	1	1
431.250	1	16
432.444	1	-1
433.638	1	6
434.832	1	9
436.026	1	4
437.220	1	-9
438.414	1	-7
439.608	1	-5
440.802	1	8
441.996	1	6
443.190	1	-3
444.384	1	-2
445.578	1	8
446.771	1	-6
447.965	1	2
449.159	1	1
450.352	1	-3
451.546	1	-10
452.739	1	-8
453.933	1	0
455.126	1	17
456.320	1	0
457.513	1	9
458.706	1	11
459.899	1	2
461.093	1	3
462.286	1	-4
463.479	1	-4
464.672	1	-5
465.865	1	5
467.058	1	7
468.251	1	-1
469.444	1	1
470.637	1	2
471.830	1	5
473.023	1	7
474.215	1	-2
475.408	1	-6
476.601	1	4
477.793	1	7
478.986	1	-9
480.179	1	-5
481.371	1	0
482.564	1	-5
483.756	1	5
484.948	1	-1
486.141	1	6
487.333	1	-5
488.525	1	12
489.718	1	17
490.910	1	-3
492.102	1	-1
493.294	1	-1
494.486	1	4
495.678	1	-1
496.870	1	-2
498.062	1	-5
499.254	1	3
500.446	1	-2
501.638	1	-4
502.829	1	5
504.021	1	0
505.213	1	0
506.404	1	2
507.596	1	3
508.788	1	-5
509.979	1	6
511.171	1	-1
512.362	1	-6
513.553	1	-3
514.745	1	-7
515.936	1	1
517.127	1	9
518.319	1	3
519.510	1	9
520.701	1	-1
521.892	1	1
523.083	1	1
524.274	1	1
525.465	1	2
526.656	1	5
527.847	1	-3
529.038	1	2
530.229	1	14
531.419	1	9
532.610	1	-2
533.801	1	11
534.991	1	2
536.182	1	-3
537.373	1	3
538.563	1	10
539.754	1	6
540.944	1	-8
542.134	1	-3
543.325	1	4
544.515	1	0
545.705	1	7
546.896	1	11
548.086	1	5
549.276	1	2
550.466	1	-3
551.656	1	-1
552.846	1	-3
554.036	1	2
555.226	1	-5
556.416	1	-4
557.606	1	2
558.796	1	7
559.986	1	8
561.175	1	-11
562.365	1	-2
563.555	1	0
564.744	1	5
565.934	1	11
567.123	1	1
568.313	1	-1
569.502	1	-2
570.692	1	9
571.881	1	-4
573.070	1	0
574.260	1	-7
575.449	1	2
576.638	1	1
577.827	1	-7
579.016	1	5
580.205	1	0
581.394	1	2
582.583	1	0
583.772	1	2
584.961	1	-2
586.150	1	2
587.339	1	2
588.528	1	-3
589.717	1	5
590.905	1	4
592.094	1	14
593.283	1	2
594.471	1	8
595.660	1	5
596.848	1	1
598.037	1	3
599.225	1	6
600.413	1	-6
601.602	1	0
602.790	1	15
603.978	1	5
605.166	1	8
606.355	1	5
607.543	1	9
608.731	1	3
609.919	1	3
611.107	1	2
612.295	1	-1
613.483	1	2
614.671	1	0
615.858	1	-9
617.046	1	-11
618.234	1	-5
619.422	1	-9
620.609	1	9
621.797	1	6
622.985	1	4
624.172	1	-4
625.360	1	0
626.547	1	-8
627.735	1	-14
628.922	1	0
630.109	1	2
631.297	1	-5
632.484	1	-1
633.671	1	7
634.858	1	5
636.045	1	0
637.232	1	-10
638.419	1	-7
639.606	1	2
640.793	1	-6
641.980	1	-5
643.167	1	-5
644.354	1	5
645.541	1	-8
646.728	1	8
647.914	1	2
649.101	1	-1
650.288	1	2
651.474	1	6
652.661	1	-1
653.847	1	8
655.034	1	-2
656.220	1	-2
657.406	1	1
658.593	1	1
659.779	1	4
660.965	1	6
662.152	1	4
663.338	1	9
664.524	1	5
665.710	1	10
666.896	1	6
668.082	1	9
669.268	1	-9
670.454	1	-6
671.640	1	4
672.826	1	-6
674.011	1	10
675.197	1	11
676.383	1	-3
677.569	1	-8
678.754	1	10
679.940	1	2
681.125	1	9
682.311	1	-7
683.496	1	11
684.682	1	11
685.867	1	10
687.053	1	-4
688.238	1	-2
688.746	1	-13