File: Data/GaN_170K_550ms/GaN_sample D_spot 18_UVVIS_170 K_200um_550 ms 2x2mm1_303.txt
340.368	1	1
341.565	1	2
342.763	1	1
343.960	1	-2
345.157	1	0
346.354	1	-6
347.552	1	11
348.749	1	9
349.946	1	1
351.143	1	-2
352.340	1	0
353.537	1	2
354.734	1	9
355.931	1	1
357.127	1	0
358.324	1	9
359.521	1	11
360.718	1	-4
361.914	1	3
363.111	1	20
364.308	1	6
365.504	1	-8
366.701	1	9
367.897	1	5
369.093	1	6
370.290	1	11
371.486	1	-1
372.682	1	5
373.879	1	11
375.075	1	3
376.271	1	11
377.467	1	12
378.663	1	-3
379.859	1	2
381.055	1	-5
382.251	1	-1
383.447	1	10
384.643	1	-6
385.839	1	-3
387.035	1	-2
388.230	1	-3
389.426	1	9
390.622	1	0
391.817	1	2
393.013	1	2
394.208	1	8
395.404	1	13
396.599	1	-4
397.795	1	-2
398.990	1	-13
400.186	1	-13
401.381	1	14
402.576	1	2
403.771	1	5
404.967	1	1
406.162	1	-3
407.357	1	-2
408.552	1	-2
409.747	1	4
410.942	1	-2
412.137	1	0
413.332	1	0
414.526	1	4
415.721	1	-14
416.916	1	-2
418.111	1	9
419.305	1	5
420.500	1	4
421.695	1	-5
422.889	1	-3
424.084	1	7
425.278	1	1
426.472	1	6
427.667	1	-3
428.861	1	5
430.055	1	3
431.250	1	12
432.444	1	0
433.638	1	12
434.832	1	2
436.026	1	1
437.220	1	1
438.414	1	-4
439.608	1	-3
440.802	1	13
441.996	1	0
443.190	1	1
444.384	1	2
445.578	1	5
446.771	1	-15
447.965	1	7
449.159	1	-3
450.352	1	-5
451.546	1	-10
452.739	1	-2
453.933	1	-2
455.126	1	9
456.320	1	-1
457.513	1	5
458.706	1	2
459.899	1	7
461.093	1	3
462.286	1	3
463.479	1	-1
464.672	1	-2
465.865	1	0
467.058	1	-1
468.251	1	-1
469.444	1	-4
470.637	1	1
471.830	1	2
473.023	1	1
474.215	1	-1
475.408	1	-4
476.601	1	8
477.793	1	0
478.986	1	-5
480.179	1	-6
481.371	1	-2
482.564	1	-3
483.756	1	-5
484.948	1	4
486.141	1	9
487.333	1	-12
488.525	1	4
489.718	1	8
490.910	1	-7
492.102	1	2
493.294	1	1
494.486	1	4
495.678	1	-1
496.870	1	1
498.062	1	-4
499.254	1	7
500.446	1	0
501.638	1	-2
502.829	1	1
504.021	1	9
505.213	1	-15
506.404	1	5
507.596	1	3
508.788	1	-10
509.979	1	3
511.171	1	-4
512.362	1	-7
513.553	1	1
514.745	1	-1
515.936	1	7
517.127	1	-3
518.319	1	11
519.510	1	5
520.701	1	8
521.892	1	8
523.083	1	1
524.274	1	-1
525.465	1	10
526.656	1	10
527.847	1	-2
529.038	1	-9
530.229	1	9
531.419	1	15
532.610	1	3
533.801	1	-8
534.991	1	-1
536.182	1	-8
537.373	1	1
538.563	1	-6
539.754	1	1
540.944	1	-4
542.134	1	2
543.325	1	5
544.515	1	-3
545.705	1	7
546.896	1	4
548.086	1	2
549.276	1	4
550.466	1	0
551.656	1	8
552.846	1	1
554.036	1	7
555.226	1	-9
556.416	1	0
557.606	1	3
558.796	1	2
559.986	1	8
561.175	1	-1
562.365	1	6
563.555	1	6
564.744	1	8
565.934	1	-1
567.123	1	0
568.313	1	0
569.502	1	-3
570.692	1	9
571.881	1	-6
573.070	1	-6
574.260	1	1
575.449	1	4
576.638	1	8
577.827	1	-1
579.016	1	3
580.205	1	-9
581.394	1	0
582.583	1	0
583.772	1	-5
584.961	1	-5
586.150	1	-5
587.339	1	-5
588.528	1	0
589.717	1	-3
590.905	1	10
592.094	1	8
593.283	1	8
594.471	1	8
595.660	1	4
596.848	1	5
598.037	1	5
599.225	1	5
600.413	1	-4
601.602	1	3
602.790	1	11
603.978	1	-3
605.166	1	6
606.355	1	7
607.543	1	6
608.731	1	4
609.919	1	-6
611.107	1	-5
612.295	1	3
613.483	1	-5
614.671	1	11
615.858	1	3
617.046	1	3
618.234	1	8
619.422	1	-7
620.609	1	2
621.797	1	4
622.985	1	0
624.172	1	0
625.360	1	-5
626.547	1	-11
627.735	1	-10
628.922	1	-8
630.109	1	-5
631.297	1	-11
632.484	1	-3
633.671	1	5
634.858	1	4
636.045	1	5
637.232	1	-1
638.419	1	-8
639.606	1	-1
640.793	1	-6
641.980	1	-6
643.167	1	-9
644.354	1	7
645.541	1	8
646.728	1	-8
647.914	1	4
649.101	1	-6
650.288	1	3
651.474	1	8
652.661	1	0
653.847	1	1
655.034	1	-9
656.220	1	3
657.406	1	-1
658.593	1	-12
659.779	1	4
660.965	1	11
662.152	1	2
663.338	1	-2
664.524	1	3
665.710	1	12
666.896	1	-6
668.082	1	5
669.268	1	-2
670.454	1	-7
671.640	1	5
672.826	1	1
674.011	1	4
675.197	1	2
676.383	1	-6
677.569	1	0
678.754	1	1
679.940	1	11
681.125	1	6
682.311	1	-2
683.496	1	2
684.682	1	3
685.867	1	4
687.053	1	-3
688.238	1	0
688.746	1	-5