File: Data/GaN_170K_550ms/GaN_sample D_spot 18_UVVIS_170 K_200um_550 ms 2x2mm1_58.txt
340.368	1	-3
341.565	1	2
342.763	1	6
343.960	1	-6
345.157	1	4
346.354	1	0
347.552	1	14
348.749	1	10
349.946	1	9
351.143	1	17
352.340	1	17
353.537	1	19
354.734	1	19
355.931	1	22
357.127	1	43
358.324	1	53
359.521	1	73
360.718	1	90
361.914	1	139
363.111	1	230
364.308	1	361
365.504	1	541
366.701	1	806
367.897	1	1000
369.093	1	1026
370.290	1	897
371.486	1	684
372.682	1	586
373.879	1	454
375.075	1	372
376.271	1	314
377.467	1	260
378.663	1	201
379.859	1	154
381.055	1	127
382.251	1	111
383.447	1	114
384.643	1	104
385.839	1	92
387.035	1	81
388.230	1	71
389.426	1	61
390.622	1	57
391.817	1	60
393.013	1	44
394.208	1	47
395.404	1	53
396.599	1	35
397.795	1	37
398.990	1	26
400.186	1	31
401.381	1	25
402.576	1	25
403.771	1	22
404.967	1	20
406.162	1	29
407.357	1	12
408.552	1	24
409.747	1	18
410.942	1	19
412.137	1	7
413.332	1	14
414.526	1	10
415.721	1	7
416.916	1	15
418.111	1	27
419.305	1	12
420.500	1	18
421.695	1	7
422.889	1	16
424.084	1	23
425.278	1	14
426.472	1	17
427.667	1	13
428.861	1	16
430.055	1	11
431.250	1	28
432.444	1	29
433.638	1	16
434.832	1	14
436.026	1	14
437.220	1	11
438.414	1	3
439.608	1	5
440.802	1	21
441.996	1	16
443.190	1	9
444.384	1	14
445.578	1	25
446.771	1	-5
447.965	1	9
449.159	1	10
450.352	1	8
451.546	1	-4
452.739	1	14
453.933	1	8
455.126	1	15
456.320	1	11
457.513	1	13
458.706	1	9
459.899	1	13
461.093	1	9
462.286	1	6
463.479	1	12
464.672	1	3
465.865	1	14
467.058	1	1
468.251	1	10
469.444	1	15
470.637	1	6
471.830	1	10
473.023	1	8
474.215	1	19
475.408	1	14
476.601	1	18
477.793	1	21
478.986	1	15
480.179	1	8
481.371	1	20
482.564	1	15
483.756	1	27
484.948	1	21
486.141	1	31
487.333	1	29
488.525	1	35
489.718	1	41
490.910	1	40
492.102	1	36
493.294	1	31
494.486	1	51
495.678	1	39
496.870	1	36
498.062	1	52
499.254	1	54
500.446	1	52
501.638	1	50
502.829	1	68
504.021	1	82
505.213	1	69
506.404	1	80
507.596	1	82
508.788	1	73
509.979	1	84
511.171	1	82
512.362	1	74
513.553	1	87
514.745	1	85
515.936	1	89
517.127	1	105
518.319	1	102
519.510	1	117
520.701	1	105
521.892	1	113
523.083	1	97
524.274	1	104
525.465	1	106
526.656	1	116
527.847	1	111
529.038	1	110
530.229	1	133
531.419	1	122
532.610	1	117
533.801	1	111
534.991	1	99
536.182	1	114
537.373	1	114
538.563	1	97
539.754	1	100
540.944	1	97
542.134	1	100
543.325	1	99
544.515	1	108
545.705	1	117
546.896	1	116
548.086	1	118
549.276	1	105
550.466	1	101
551.656	1	113
552.846	1	95
554.036	1	100
555.226	1	88
556.416	1	85
557.606	1	83
558.796	1	79
559.986	1	84
561.175	1	90
562.365	1	78
563.555	1	84
564.744	1	90
565.934	1	84
567.123	1	73
568.313	1	78
569.502	1	69
570.692	1	75
571.881	1	60
573.070	1	61
574.260	1	64
575.449	1	70
576.638	1	70
577.827	1	58
579.016	1	72
580.205	1	52
581.394	1	59
582.583	1	61
583.772	1	69
584.961	1	50
586.150	1	55
587.339	1	45
588.528	1	48
589.717	1	60
590.905	1	58
592.094	1	45
593.283	1	49
594.471	1	52
595.660	1	41
596.848	1	45
598.037	1	39
599.225	1	43
600.413	1	31
601.602	1	41
602.790	1	51
603.978	1	46
605.166	1	39
606.355	1	48
607.543	1	46
608.731	1	35
609.919	1	36
611.107	1	31
612.295	1	23
613.483	1	27
614.671	1	35
615.858	1	30
617.046	1	29
618.234	1	33
619.422	1	14
620.609	1	33
621.797	1	28
622.985	1	22
624.172	1	40
625.360	1	32
626.547	1	23
627.735	1	21
628.922	1	13
630.109	1	19
631.297	1	17
632.484	1	25
633.671	1	29
634.858	1	28
636.045	1	22
637.232	1	22
638.419	1	14
639.606	1	23
640.793	1	7
641.980	1	20
643.167	1	29
644.354	1	21
645.541	1	15
646.728	1	13
647.914	1	18
649.101	1	17
650.288	1	8
651.474	1	25
652.661	1	21
653.847	1	15
655.034	1	11
656.220	1	12
657.406	1	24
658.593	1	13
659.779	1	12
660.965	1	24
662.152	1	15
663.338	1	17
664.524	1	14
665.710	1	16
666.896	1	11
668.082	1	22
669.268	1	6
670.454	1	7
671.640	1	21
672.826	1	20
674.011	1	20
675.197	1	17
676.383	1	16
677.569	1	7
678.754	1	16
679.940	1	30
681.125	1	24
682.311	1	19
683.496	1	13
684.682	1	18
685.867	1	19
687.053	1	0
688.238	1	11
688.746	1	7