File: Data/GaN_170K_550ms/GaN_sample D_spot 18_UVVIS_170 K_200um_550 ms 2x2mm1_77.txt
340.368	1	3
341.565	1	1
342.763	1	9
343.960	1	9
345.157	1	-3
346.354	1	-2
347.552	1	24
348.749	1	8
349.946	1	14
351.143	1	-1
352.340	1	9
353.537	1	10
354.734	1	15
355.931	1	17
357.127	1	15
358.324	1	26
359.521	1	38
360.718	1	46
361.914	1	54
363.111	1	81
364.308	1	102
365.504	1	140
366.701	1	184
367.897	1	209
369.093	1	212
370.290	1	194
371.486	1	152
372.682	1	138
373.879	1	117
375.075	1	97
376.271	1	74
377.467	1	68
378.663	1	59
379.859	1	58
381.055	1	40
382.251	1	35
383.447	1	46
384.643	1	31
385.839	1	25
387.035	1	26
388.230	1	24
389.426	1	18
390.622	1	7
391.817	1	12
393.013	1	14
394.208	1	16
395.404	1	17
396.599	1	6
397.795	1	12
398.990	1	-1
400.186	1	6
401.381	1	17
402.576	1	1
403.771	1	3
404.967	1	8
406.162	1	14
407.357	1	6
408.552	1	10
409.747	1	2
410.942	1	10
412.137	1	-2
413.332	1	2
414.526	1	6
415.721	1	2
416.916	1	2
418.111	1	3
419.305	1	5
420.500	1	-6
421.695	1	-11
422.889	1	1
424.084	1	19
425.278	1	-7
426.472	1	9
427.667	1	3
428.861	1	9
430.055	1	6
431.250	1	15
432.444	1	9
433.638	1	7
434.832	1	10
436.026	1	3
437.220	1	6
438.414	1	-3
439.608	1	-2
440.802	1	7
441.996	1	-1
443.190	1	10
444.384	1	0
445.578	1	8
446.771	1	-11
447.965	1	2
449.159	1	2
450.352	1	-5
451.546	1	-2
452.739	1	0
453.933	1	2
455.126	1	12
456.320	1	8
457.513	1	5
458.706	1	12
459.899	1	2
461.093	1	14
462.286	1	-1
463.479	1	2
464.672	1	0
465.865	1	9
467.058	1	4
468.251	1	-1
469.444	1	3
470.637	1	3
471.830	1	-1
473.023	1	8
474.215	1	3
475.408	1	0
476.601	1	1
477.793	1	-2
478.986	1	10
480.179	1	4
481.371	1	1
482.564	1	7
483.756	1	15
484.948	1	10
486.141	1	11
487.333	1	4
488.525	1	9
489.718	1	9
490.910	1	18
492.102	1	25
493.294	1	16
494.486	1	17
495.678	1	16
496.870	1	14
498.062	1	11
499.254	1	27
500.446	1	13
501.638	1	10
502.829	1	24
504.021	1	20
505.213	1	17
506.404	1	28
507.596	1	19
508.788	1	9
509.979	1	15
511.171	1	36
512.362	1	16
513.553	1	32
514.745	1	35
515.936	1	35
517.127	1	28
518.319	1	39
519.510	1	27
520.701	1	38
521.892	1	32
523.083	1	40
524.274	1	36
525.465	1	31
526.656	1	41
527.847	1	32
529.038	1	33
530.229	1	38
531.419	1	43
532.610	1	48
533.801	1	42
534.991	1	29
536.182	1	36
537.373	1	22
538.563	1	30
539.754	1	32
540.944	1	22
542.134	1	23
543.325	1	29
544.515	1	36
545.705	1	35
546.896	1	35
548.086	1	32
549.276	1	34
550.466	1	26
551.656	1	30
552.846	1	19
554.036	1	37
555.226	1	15
556.416	1	25
557.606	1	33
558.796	1	26
559.986	1	28
561.175	1	18
562.365	1	21
563.555	1	22
564.744	1	18
565.934	1	18
567.123	1	18
568.313	1	20
569.502	1	12
570.692	1	23
571.881	1	13
573.070	1	19
574.260	1	20
575.449	1	13
576.638	1	17
577.827	1	8
579.016	1	19
580.205	1	1
581.394	1	15
582.583	1	18
583.772	1	16
584.961	1	11
586.150	1	0
587.339	1	13
588.528	1	11
589.717	1	11
590.905	1	22
592.094	1	18
593.283	1	14
594.471	1	14
595.660	1	10
596.848	1	18
598.037	1	7
599.225	1	8
600.413	1	0
601.602	1	5
602.790	1	3
603.978	1	2
605.166	1	11
606.355	1	13
607.543	1	20
608.731	1	12
609.919	1	4
611.107	1	7
612.295	1	11
613.483	1	2
614.671	1	11
615.858	1	3
617.046	1	1
618.234	1	-3
619.422	1	-3
620.609	1	6
621.797	1	2
622.985	1	10
624.172	1	7
625.360	1	6
626.547	1	-4
627.735	1	-5
628.922	1	1
630.109	1	-3
631.297	1	-5
632.484	1	1
633.671	1	11
634.858	1	6
636.045	1	6
637.232	1	4
638.419	1	1
639.606	1	0
640.793	1	8
641.980	1	7
643.167	1	12
644.354	1	6
645.541	1	12
646.728	1	5
647.914	1	6
649.101	1	0
650.288	1	4
651.474	1	16
652.661	1	10
653.847	1	12
655.034	1	2
656.220	1	7
657.406	1	11
658.593	1	2
659.779	1	6
660.965	1	17
662.152	1	6
663.338	1	7
664.524	1	10
665.710	1	6
666.896	1	8
668.082	1	13
669.268	1	-1
670.454	1	1
671.640	1	8
672.826	1	1
674.011	1	6
675.197	1	11
676.383	1	12
677.569	1	-3
678.754	1	13
679.940	1	13
681.125	1	10
682.311	1	3
683.496	1	3
684.682	1	11
685.867	1	14
687.053	1	1
688.238	1	2
688.746	1	5