File: Data/GaN_170K_550ms/GaN_sample D_spot 18_UVVIS_170 K_200um_550 ms 2x2mm1_320.txt
340.368	1	1
341.565	1	7
342.763	1	0
343.960	1	-4
345.157	1	-6
346.354	1	-4
347.552	1	11
348.749	1	2
349.946	1	9
351.143	1	-3
352.340	1	3
353.537	1	-3
354.734	1	3
355.931	1	-8
357.127	1	6
358.324	1	3
359.521	1	6
360.718	1	7
361.914	1	-1
363.111	1	8
364.308	1	7
365.504	1	10
366.701	1	1
367.897	1	1
369.093	1	-2
370.290	1	4
371.486	1	1
372.682	1	9
373.879	1	7
375.075	1	4
376.271	1	10
377.467	1	11
378.663	1	-1
379.859	1	7
381.055	1	7
382.251	1	2
383.447	1	8
384.643	1	1
385.839	1	-7
387.035	1	-2
388.230	1	2
389.426	1	6
390.622	1	9
391.817	1	7
393.013	1	-2
394.208	1	2
395.404	1	4
396.599	1	-10
397.795	1	-3
398.990	1	-9
400.186	1	-7
401.381	1	-1
402.576	1	0
403.771	1	3
404.967	1	3
406.162	1	6
407.357	1	-2
408.552	1	4
409.747	1	2
410.942	1	9
412.137	1	-9
413.332	1	-2
414.526	1	8
415.721	1	-1
416.916	1	-4
418.111	1	0
419.305	1	5
420.500	1	-3
421.695	1	-3
422.889	1	-8
424.084	1	18
425.278	1	-1
426.472	1	-3
427.667	1	3
428.861	1	9
430.055	1	-4
431.250	1	15
432.444	1	4
433.638	1	-1
434.832	1	3
436.026	1	0
437.220	1	2
438.414	1	0
439.608	1	0
440.802	1	4
441.996	1	1
443.190	1	4
444.384	1	-5
445.578	1	13
446.771	1	-13
447.965	1	0
449.159	1	-3
450.352	1	-7
451.546	1	-6
452.739	1	0
453.933	1	5
455.126	1	13
456.320	1	4
457.513	1	9
458.706	1	2
459.899	1	1
461.093	1	-1
462.286	1	3
463.479	1	-2
464.672	1	-9
465.865	1	-4
467.058	1	-4
468.251	1	4
469.444	1	-3
470.637	1	10
471.830	1	-2
473.023	1	0
474.215	1	2
475.408	1	3
476.601	1	-1
477.793	1	9
478.986	1	-2
480.179	1	-4
481.371	1	-9
482.564	1	-3
483.756	1	3
484.948	1	4
486.141	1	7
487.333	1	-5
488.525	1	6
489.718	1	5
490.910	1	11
492.102	1	-1
493.294	1	-1
494.486	1	4
495.678	1	3
496.870	1	-5
498.062	1	-2
499.254	1	14
500.446	1	0
501.638	1	-4
502.829	1	-4
504.021	1	4
505.213	1	2
506.404	1	8
507.596	1	-1
508.788	1	-11
509.979	1	10
511.171	1	7
512.362	1	-1
513.553	1	5
514.745	1	-2
515.936	1	-3
517.127	1	15
518.319	1	-6
519.510	1	7
520.701	1	1
521.892	1	2
523.083	1	3
524.274	1	0
525.465	1	1
526.656	1	9
527.847	1	7
529.038	1	-6
530.229	1	13
531.419	1	8
532.610	1	8
533.801	1	0
534.991	1	12
536.182	1	1
537.373	1	-3
538.563	1	14
539.754	1	1
540.944	1	-6
542.134	1	2
543.325	1	-2
544.515	1	2
545.705	1	0
546.896	1	4
548.086	1	6
549.276	1	0
550.466	1	3
551.656	1	0
552.846	1	0
554.036	1	-1
555.226	1	-7
556.416	1	-7
557.606	1	0
558.796	1	-2
559.986	1	6
561.175	1	-8
562.365	1	0
563.555	1	3
564.744	1	-2
565.934	1	-9
567.123	1	1
568.313	1	1
569.502	1	4
570.692	1	10
571.881	1	-2
573.070	1	0
574.260	1	-3
575.449	1	-3
576.638	1	6
577.827	1	-5
579.016	1	-2
580.205	1	-2
581.394	1	6
582.583	1	1
583.772	1	2
584.961	1	2
586.150	1	5
587.339	1	-1
588.528	1	-7
589.717	1	6
590.905	1	3
592.094	1	11
593.283	1	7
594.471	1	13
595.660	1	9
596.848	1	14
598.037	1	-7
599.225	1	3
600.413	1	0
601.602	1	-2
602.790	1	4
603.978	1	0
605.166	1	7
606.355	1	3
607.543	1	8
608.731	1	3
609.919	1	4
611.107	1	1
612.295	1	3
613.483	1	3
614.671	1	10
615.858	1	-5
617.046	1	0
618.234	1	2
619.422	1	-13
620.609	1	2
621.797	1	3
622.985	1	1
624.172	1	1
625.360	1	2
626.547	1	-5
627.735	1	-11
628.922	1	-1
630.109	1	-1
631.297	1	-5
632.484	1	-10
633.671	1	6
634.858	1	0
636.045	1	0
637.232	1	-4
638.419	1	-13
639.606	1	-4
640.793	1	-6
641.980	1	-5
643.167	1	-4
644.354	1	6
645.541	1	7
646.728	1	-2
647.914	1	-9
649.101	1	4
650.288	1	-5
651.474	1	4
652.661	1	5
653.847	1	7
655.034	1	-3
656.220	1	1
657.406	1	-5
658.593	1	2
659.779	1	5
660.965	1	15
662.152	1	1
663.338	1	3
664.524	1	5
665.710	1	1
666.896	1	-9
668.082	1	6
669.268	1	2
670.454	1	-5
671.640	1	0
672.826	1	7
674.011	1	6
675.197	1	4
676.383	1	5
677.569	1	-7
678.754	1	3
679.940	1	8
681.125	1	5
682.311	1	8
683.496	1	0
684.682	1	9
685.867	1	10
687.053	1	-4
688.238	1	-13
688.746	1	2