File: Data/GaN_170K_550ms/GaN_sample D_spot 18_UVVIS_170 K_200um_550 ms 2x2mm1_151.txt
340.368	1	2
341.565	1	4
342.763	1	3
343.960	1	5
345.157	1	9
346.354	1	-4
347.552	1	11
348.749	1	7
349.946	1	7
351.143	1	-2
352.340	1	6
353.537	1	11
354.734	1	10
355.931	1	-1
357.127	1	-2
358.324	1	14
359.521	1	10
360.718	1	11
361.914	1	10
363.111	1	19
364.308	1	15
365.504	1	18
366.701	1	33
367.897	1	29
369.093	1	37
370.290	1	24
371.486	1	18
372.682	1	26
373.879	1	22
375.075	1	19
376.271	1	28
377.467	1	17
378.663	1	19
379.859	1	15
381.055	1	16
382.251	1	10
383.447	1	10
384.643	1	6
385.839	1	2
387.035	1	3
388.230	1	-1
389.426	1	4
390.622	1	-1
391.817	1	-2
393.013	1	0
394.208	1	15
395.404	1	8
396.599	1	-2
397.795	1	-2
398.990	1	-7
400.186	1	-7
401.381	1	10
402.576	1	-1
403.771	1	7
404.967	1	0
406.162	1	-5
407.357	1	-4
408.552	1	1
409.747	1	1
410.942	1	1
412.137	1	-5
413.332	1	-4
414.526	1	2
415.721	1	-6
416.916	1	-4
418.111	1	11
419.305	1	-2
420.500	1	-1
421.695	1	-5
422.889	1	2
424.084	1	21
425.278	1	4
426.472	1	0
427.667	1	4
428.861	1	4
430.055	1	7
431.250	1	12
432.444	1	7
433.638	1	13
434.832	1	3
436.026	1	-3
437.220	1	1
438.414	1	-2
439.608	1	-5
440.802	1	8
441.996	1	5
443.190	1	1
444.384	1	1
445.578	1	9
446.771	1	-2
447.965	1	6
449.159	1	-1
450.352	1	-5
451.546	1	-8
452.739	1	2
453.933	1	-6
455.126	1	11
456.320	1	-9
457.513	1	11
458.706	1	4
459.899	1	2
461.093	1	14
462.286	1	-6
463.479	1	-2
464.672	1	-9
465.865	1	5
467.058	1	5
468.251	1	0
469.444	1	-2
470.637	1	5
471.830	1	-2
473.023	1	0
474.215	1	1
475.408	1	-2
476.601	1	7
477.793	1	0
478.986	1	-1
480.179	1	0
481.371	1	-8
482.564	1	1
483.756	1	6
484.948	1	3
486.141	1	17
487.333	1	-5
488.525	1	6
489.718	1	5
490.910	1	-4
492.102	1	1
493.294	1	1
494.486	1	17
495.678	1	-2
496.870	1	4
498.062	1	-10
499.254	1	7
500.446	1	-2
501.638	1	-9
502.829	1	3
504.021	1	9
505.213	1	0
506.404	1	7
507.596	1	5
508.788	1	-5
509.979	1	3
511.171	1	5
512.362	1	-3
513.553	1	3
514.745	1	3
515.936	1	9
517.127	1	6
518.319	1	14
519.510	1	12
520.701	1	6
521.892	1	7
523.083	1	1
524.274	1	6
525.465	1	15
526.656	1	2
527.847	1	5
529.038	1	-2
530.229	1	15
531.419	1	-1
532.610	1	13
533.801	1	11
534.991	1	2
536.182	1	5
537.373	1	2
538.563	1	4
539.754	1	0
540.944	1	-3
542.134	1	12
543.325	1	9
544.515	1	0
545.705	1	6
546.896	1	13
548.086	1	12
549.276	1	12
550.466	1	5
551.656	1	10
552.846	1	12
554.036	1	4
555.226	1	-7
556.416	1	9
557.606	1	5
558.796	1	4
559.986	1	7
561.175	1	-4
562.365	1	6
563.555	1	10
564.744	1	7
565.934	1	9
567.123	1	3
568.313	1	-2
569.502	1	4
570.692	1	12
571.881	1	0
573.070	1	3
574.260	1	10
575.449	1	9
576.638	1	11
577.827	1	8
579.016	1	-1
580.205	1	-5
581.394	1	12
582.583	1	2
583.772	1	3
584.961	1	3
586.150	1	-3
587.339	1	3
588.528	1	0
589.717	1	4
590.905	1	-1
592.094	1	8
593.283	1	6
594.471	1	12
595.660	1	-1
596.848	1	4
598.037	1	-6
599.225	1	3
600.413	1	-6
601.602	1	8
602.790	1	11
603.978	1	1
605.166	1	6
606.355	1	8
607.543	1	8
608.731	1	3
609.919	1	-4
611.107	1	-1
612.295	1	3
613.483	1	-1
614.671	1	9
615.858	1	-4
617.046	1	-7
618.234	1	8
619.422	1	-5
620.609	1	0
621.797	1	10
622.985	1	2
624.172	1	1
625.360	1	6
626.547	1	-3
627.735	1	-9
628.922	1	-5
630.109	1	1
631.297	1	-8
632.484	1	-2
633.671	1	15
634.858	1	3
636.045	1	5
637.232	1	3
638.419	1	-2
639.606	1	-1
640.793	1	1
641.980	1	-4
643.167	1	5
644.354	1	3
645.541	1	9
646.728	1	5
647.914	1	3
649.101	1	-2
650.288	1	2
651.474	1	15
652.661	1	3
653.847	1	4
655.034	1	0
656.220	1	-4
657.406	1	1
658.593	1	4
659.779	1	4
660.965	1	14
662.152	1	-2
663.338	1	2
664.524	1	3
665.710	1	4
666.896	1	-3
668.082	1	7
669.268	1	-5
670.454	1	-3
671.640	1	3
672.826	1	4
674.011	1	6
675.197	1	5
676.383	1	4
677.569	1	-7
678.754	1	-7
679.940	1	10
681.125	1	14
682.311	1	-4
683.496	1	8
684.682	1	8
685.867	1	8
687.053	1	-8
688.238	1	4
688.746	1	-8