File: Data/GaN_170K_550ms/GaN_sample D_spot 18_UVVIS_170 K_200um_550 ms 2x2mm1_128.txt
340.368	1	6
341.565	1	5
342.763	1	5
343.960	1	0
345.157	1	4
346.354	1	-5
347.552	1	14
348.749	1	7
349.946	1	11
351.143	1	8
352.340	1	11
353.537	1	10
354.734	1	10
355.931	1	12
357.127	1	-6
358.324	1	18
359.521	1	18
360.718	1	13
361.914	1	18
363.111	1	25
364.308	1	32
365.504	1	25
366.701	1	44
367.897	1	50
369.093	1	37
370.290	1	55
371.486	1	36
372.682	1	39
373.879	1	40
375.075	1	23
376.271	1	12
377.467	1	29
378.663	1	12
379.859	1	22
381.055	1	11
382.251	1	11
383.447	1	17
384.643	1	6
385.839	1	-1
387.035	1	5
388.230	1	10
389.426	1	19
390.622	1	6
391.817	1	7
393.013	1	1
394.208	1	11
395.404	1	12
396.599	1	-4
397.795	1	9
398.990	1	-7
400.186	1	3
401.381	1	17
402.576	1	8
403.771	1	4
404.967	1	5
406.162	1	5
407.357	1	3
408.552	1	3
409.747	1	0
410.942	1	-5
412.137	1	-5
413.332	1	-10
414.526	1	4
415.721	1	8
416.916	1	-6
418.111	1	8
419.305	1	-3
420.500	1	-4
421.695	1	-3
422.889	1	-2
424.084	1	15
425.278	1	1
426.472	1	5
427.667	1	6
428.861	1	1
430.055	1	-2
431.250	1	12
432.444	1	1
433.638	1	3
434.832	1	10
436.026	1	-2
437.220	1	3
438.414	1	-6
439.608	1	4
440.802	1	1
441.996	1	8
443.190	1	0
444.384	1	-1
445.578	1	10
446.771	1	-9
447.965	1	6
449.159	1	-1
450.352	1	0
451.546	1	-8
452.739	1	-2
453.933	1	8
455.126	1	9
456.320	1	4
457.513	1	3
458.706	1	10
459.899	1	2
461.093	1	8
462.286	1	1
463.479	1	-1
464.672	1	1
465.865	1	5
467.058	1	2
468.251	1	8
469.444	1	0
470.637	1	-4
471.830	1	2
473.023	1	4
474.215	1	0
475.408	1	2
476.601	1	5
477.793	1	10
478.986	1	3
480.179	1	-4
481.371	1	-1
482.564	1	0
483.756	1	7
484.948	1	-4
486.141	1	4
487.333	1	-3
488.525	1	16
489.718	1	6
490.910	1	-2
492.102	1	9
493.294	1	2
494.486	1	3
495.678	1	8
496.870	1	3
498.062	1	2
499.254	1	13
500.446	1	7
501.638	1	1
502.829	1	0
504.021	1	0
505.213	1	3
506.404	1	3
507.596	1	16
508.788	1	-1
509.979	1	17
511.171	1	16
512.362	1	8
513.553	1	11
514.745	1	1
515.936	1	9
517.127	1	9
518.319	1	14
519.510	1	12
520.701	1	8
521.892	1	9
523.083	1	13
524.274	1	6
525.465	1	14
526.656	1	17
527.847	1	8
529.038	1	-4
530.229	1	13
531.419	1	12
532.610	1	15
533.801	1	13
534.991	1	8
536.182	1	10
537.373	1	11
538.563	1	12
539.754	1	11
540.944	1	-1
542.134	1	6
543.325	1	12
544.515	1	11
545.705	1	8
546.896	1	16
548.086	1	8
549.276	1	9
550.466	1	3
551.656	1	13
552.846	1	7
554.036	1	10
555.226	1	-2
556.416	1	5
557.606	1	15
558.796	1	9
559.986	1	19
561.175	1	-6
562.365	1	12
563.555	1	9
564.744	1	10
565.934	1	14
567.123	1	3
568.313	1	6
569.502	1	-3
570.692	1	10
571.881	1	-4
573.070	1	7
574.260	1	4
575.449	1	7
576.638	1	15
577.827	1	-5
579.016	1	6
580.205	1	6
581.394	1	10
582.583	1	8
583.772	1	2
584.961	1	10
586.150	1	0
587.339	1	0
588.528	1	5
589.717	1	12
590.905	1	13
592.094	1	11
593.283	1	5
594.471	1	3
595.660	1	9
596.848	1	-1
598.037	1	4
599.225	1	10
600.413	1	-5
601.602	1	10
602.790	1	14
603.978	1	5
605.166	1	10
606.355	1	4
607.543	1	5
608.731	1	4
609.919	1	-1
611.107	1	-6
612.295	1	1
613.483	1	1
614.671	1	13
615.858	1	10
617.046	1	6
618.234	1	1
619.422	1	-4
620.609	1	7
621.797	1	-1
622.985	1	10
624.172	1	8
625.360	1	6
626.547	1	2
627.735	1	-10
628.922	1	-8
630.109	1	6
631.297	1	-9
632.484	1	-6
633.671	1	5
634.858	1	12
636.045	1	3
637.232	1	7
638.419	1	-3
639.606	1	-2
640.793	1	-4
641.980	1	-4
643.167	1	7
644.354	1	-4
645.541	1	8
646.728	1	3
647.914	1	1
649.101	1	-4
650.288	1	5
651.474	1	11
652.661	1	10
653.847	1	5
655.034	1	3
656.220	1	-12
657.406	1	0
658.593	1	1
659.779	1	2
660.965	1	6
662.152	1	-1
663.338	1	13
664.524	1	7
665.710	1	6
666.896	1	-4
668.082	1	10
669.268	1	-5
670.454	1	3
671.640	1	1
672.826	1	0
674.011	1	7
675.197	1	4
676.383	1	1
677.569	1	0
678.754	1	-1
679.940	1	16
681.125	1	14
682.311	1	0
683.496	1	11
684.682	1	3
685.867	1	6
687.053	1	-3
688.238	1	-3
688.746	1	-3