File: Data/GaN_170K_550ms/GaN_sample D_spot 18_UVVIS_170 K_200um_550 ms 2x2mm1_88.txt
340.368	1	-5
341.565	1	11
342.763	1	6
343.960	1	3
345.157	1	-4
346.354	1	4
347.552	1	14
348.749	1	6
349.946	1	9
351.143	1	-2
352.340	1	17
353.537	1	6
354.734	1	17
355.931	1	23
357.127	1	11
358.324	1	17
359.521	1	25
360.718	1	31
361.914	1	42
363.111	1	56
364.308	1	70
365.504	1	94
366.701	1	109
367.897	1	144
369.093	1	128
370.290	1	133
371.486	1	108
372.682	1	90
373.879	1	82
375.075	1	64
376.271	1	63
377.467	1	53
378.663	1	44
379.859	1	27
381.055	1	22
382.251	1	26
383.447	1	30
384.643	1	16
385.839	1	14
387.035	1	16
388.230	1	13
389.426	1	19
390.622	1	9
391.817	1	8
393.013	1	6
394.208	1	19
395.404	1	10
396.599	1	2
397.795	1	10
398.990	1	2
400.186	1	18
401.381	1	24
402.576	1	6
403.771	1	6
404.967	1	8
406.162	1	6
407.357	1	6
408.552	1	6
409.747	1	0
410.942	1	13
412.137	1	8
413.332	1	1
414.526	1	-1
415.721	1	-3
416.916	1	1
418.111	1	16
419.305	1	-3
420.500	1	4
421.695	1	1
422.889	1	-6
424.084	1	14
425.278	1	-1
426.472	1	2
427.667	1	10
428.861	1	7
430.055	1	6
431.250	1	7
432.444	1	6
433.638	1	10
434.832	1	3
436.026	1	2
437.220	1	10
438.414	1	-9
439.608	1	3
440.802	1	12
441.996	1	-3
443.190	1	0
444.384	1	2
445.578	1	11
446.771	1	-10
447.965	1	-1
449.159	1	5
450.352	1	-1
451.546	1	-6
452.739	1	4
453.933	1	8
455.126	1	8
456.320	1	0
457.513	1	8
458.706	1	8
459.899	1	2
461.093	1	14
462.286	1	6
463.479	1	-3
464.672	1	4
465.865	1	4
467.058	1	12
468.251	1	-3
469.444	1	3
470.637	1	10
471.830	1	2
473.023	1	10
474.215	1	9
475.408	1	-4
476.601	1	8
477.793	1	4
478.986	1	7
480.179	1	6
481.371	1	7
482.564	1	3
483.756	1	7
484.948	1	-1
486.141	1	17
487.333	1	7
488.525	1	9
489.718	1	25
490.910	1	11
492.102	1	8
493.294	1	3
494.486	1	16
495.678	1	18
496.870	1	6
498.062	1	8
499.254	1	22
500.446	1	7
501.638	1	10
502.829	1	14
504.021	1	23
505.213	1	6
506.404	1	18
507.596	1	24
508.788	1	9
509.979	1	18
511.171	1	14
512.362	1	11
513.553	1	20
514.745	1	13
515.936	1	13
517.127	1	23
518.319	1	26
519.510	1	27
520.701	1	26
521.892	1	16
523.083	1	21
524.274	1	14
525.465	1	25
526.656	1	23
527.847	1	21
529.038	1	16
530.229	1	38
531.419	1	24
532.610	1	35
533.801	1	29
534.991	1	22
536.182	1	21
537.373	1	14
538.563	1	25
539.754	1	19
540.944	1	16
542.134	1	17
543.325	1	16
544.515	1	27
545.705	1	15
546.896	1	15
548.086	1	18
549.276	1	17
550.466	1	18
551.656	1	16
552.846	1	12
554.036	1	19
555.226	1	16
556.416	1	13
557.606	1	13
558.796	1	13
559.986	1	17
561.175	1	4
562.365	1	9
563.555	1	15
564.744	1	7
565.934	1	14
567.123	1	10
568.313	1	11
569.502	1	5
570.692	1	13
571.881	1	9
573.070	1	5
574.260	1	15
575.449	1	12
576.638	1	21
577.827	1	6
579.016	1	11
580.205	1	7
581.394	1	10
582.583	1	8
583.772	1	0
584.961	1	9
586.150	1	-3
587.339	1	11
588.528	1	12
589.717	1	14
590.905	1	20
592.094	1	12
593.283	1	5
594.471	1	13
595.660	1	1
596.848	1	3
598.037	1	10
599.225	1	-1
600.413	1	-3
601.602	1	11
602.790	1	16
603.978	1	5
605.166	1	11
606.355	1	12
607.543	1	6
608.731	1	11
609.919	1	6
611.107	1	1
612.295	1	-9
613.483	1	9
614.671	1	12
615.858	1	6
617.046	1	-2
618.234	1	3
619.422	1	-1
620.609	1	10
621.797	1	4
622.985	1	9
624.172	1	3
625.360	1	4
626.547	1	3
627.735	1	-4
628.922	1	-9
630.109	1	10
631.297	1	-2
632.484	1	7
633.671	1	13
634.858	1	11
636.045	1	2
637.232	1	5
638.419	1	4
639.606	1	0
640.793	1	4
641.980	1	-3
643.167	1	-1
644.354	1	8
645.541	1	6
646.728	1	3
647.914	1	7
649.101	1	7
650.288	1	7
651.474	1	16
652.661	1	2
653.847	1	6
655.034	1	11
656.220	1	3
657.406	1	3
658.593	1	5
659.779	1	-3
660.965	1	21
662.152	1	-3
663.338	1	12
664.524	1	-2
665.710	1	-3
666.896	1	9
668.082	1	21
669.268	1	2
670.454	1	-4
671.640	1	12
672.826	1	3
674.011	1	-2
675.197	1	8
676.383	1	6
677.569	1	-7
678.754	1	1
679.940	1	16
681.125	1	11
682.311	1	4
683.496	1	3
684.682	1	7
685.867	1	18
687.053	1	-4
688.238	1	-4
688.746	1	-1