File: Data/GaN_170K_550ms/GaN_sample D_spot 18_UVVIS_170 K_200um_550 ms 2x2mm1_159.txt
340.368	1	0
341.565	1	1
342.763	1	8
343.960	1	-4
345.157	1	6
346.354	1	-9
347.552	1	7
348.749	1	7
349.946	1	7
351.143	1	-4
352.340	1	7
353.537	1	9
354.734	1	12
355.931	1	-1
357.127	1	3
358.324	1	6
359.521	1	8
360.718	1	4
361.914	1	11
363.111	1	25
364.308	1	25
365.504	1	10
366.701	1	32
367.897	1	23
369.093	1	21
370.290	1	33
371.486	1	25
372.682	1	16
373.879	1	25
375.075	1	30
376.271	1	28
377.467	1	11
378.663	1	10
379.859	1	6
381.055	1	14
382.251	1	4
383.447	1	11
384.643	1	11
385.839	1	0
387.035	1	3
388.230	1	5
389.426	1	7
390.622	1	-4
391.817	1	1
393.013	1	-1
394.208	1	11
395.404	1	14
396.599	1	-4
397.795	1	1
398.990	1	-8
400.186	1	-3
401.381	1	5
402.576	1	1
403.771	1	0
404.967	1	-3
406.162	1	2
407.357	1	2
408.552	1	2
409.747	1	5
410.942	1	3
412.137	1	-2
413.332	1	-1
414.526	1	9
415.721	1	-1
416.916	1	-4
418.111	1	6
419.305	1	-2
420.500	1	5
421.695	1	-6
422.889	1	3
424.084	1	15
425.278	1	2
426.472	1	6
427.667	1	5
428.861	1	0
430.055	1	-3
431.250	1	14
432.444	1	3
433.638	1	7
434.832	1	10
436.026	1	-6
437.220	1	3
438.414	1	-8
439.608	1	-5
440.802	1	11
441.996	1	2
443.190	1	-2
444.384	1	1
445.578	1	8
446.771	1	-7
447.965	1	5
449.159	1	1
450.352	1	-6
451.546	1	-8
452.739	1	-2
453.933	1	-5
455.126	1	13
456.320	1	2
457.513	1	12
458.706	1	5
459.899	1	-3
461.093	1	9
462.286	1	-9
463.479	1	-10
464.672	1	-7
465.865	1	-4
467.058	1	0
468.251	1	4
469.444	1	6
470.637	1	6
471.830	1	-2
473.023	1	6
474.215	1	0
475.408	1	0
476.601	1	10
477.793	1	11
478.986	1	-1
480.179	1	-7
481.371	1	-5
482.564	1	-3
483.756	1	-2
484.948	1	4
486.141	1	9
487.333	1	-1
488.525	1	7
489.718	1	7
490.910	1	2
492.102	1	5
493.294	1	-2
494.486	1	11
495.678	1	7
496.870	1	4
498.062	1	-3
499.254	1	8
500.446	1	4
501.638	1	-5
502.829	1	-8
504.021	1	7
505.213	1	-1
506.404	1	0
507.596	1	3
508.788	1	-6
509.979	1	10
511.171	1	7
512.362	1	1
513.553	1	10
514.745	1	6
515.936	1	2
517.127	1	9
518.319	1	14
519.510	1	16
520.701	1	10
521.892	1	-1
523.083	1	8
524.274	1	3
525.465	1	3
526.656	1	7
527.847	1	2
529.038	1	-3
530.229	1	17
531.419	1	12
532.610	1	4
533.801	1	0
534.991	1	2
536.182	1	-4
537.373	1	4
538.563	1	-2
539.754	1	9
540.944	1	1
542.134	1	9
543.325	1	1
544.515	1	8
545.705	1	9
546.896	1	11
548.086	1	7
549.276	1	4
550.466	1	1
551.656	1	10
552.846	1	1
554.036	1	6
555.226	1	-8
556.416	1	9
557.606	1	9
558.796	1	0
559.986	1	5
561.175	1	-7
562.365	1	6
563.555	1	7
564.744	1	4
565.934	1	10
567.123	1	7
568.313	1	6
569.502	1	0
570.692	1	4
571.881	1	-3
573.070	1	0
574.260	1	4
575.449	1	10
576.638	1	9
577.827	1	2
579.016	1	3
580.205	1	-7
581.394	1	0
582.583	1	0
583.772	1	-5
584.961	1	5
586.150	1	-5
587.339	1	1
588.528	1	-6
589.717	1	11
590.905	1	8
592.094	1	4
593.283	1	2
594.471	1	9
595.660	1	2
596.848	1	-5
598.037	1	3
599.225	1	4
600.413	1	-2
601.602	1	5
602.790	1	7
603.978	1	11
605.166	1	13
606.355	1	18
607.543	1	6
608.731	1	10
609.919	1	4
611.107	1	3
612.295	1	2
613.483	1	-3
614.671	1	12
615.858	1	2
617.046	1	-4
618.234	1	2
619.422	1	-5
620.609	1	13
621.797	1	4
622.985	1	2
624.172	1	-6
625.360	1	6
626.547	1	0
627.735	1	-14
628.922	1	-3
630.109	1	-4
631.297	1	0
632.484	1	-3
633.671	1	6
634.858	1	1
636.045	1	-5
637.232	1	7
638.419	1	-1
639.606	1	-10
640.793	1	5
641.980	1	3
643.167	1	-1
644.354	1	-2
645.541	1	11
646.728	1	2
647.914	1	1
649.101	1	-1
650.288	1	-1
651.474	1	10
652.661	1	1
653.847	1	2
655.034	1	0
656.220	1	7
657.406	1	0
658.593	1	1
659.779	1	11
660.965	1	9
662.152	1	-1
663.338	1	8
664.524	1	-4
665.710	1	7
666.896	1	4
668.082	1	8
669.268	1	-13
670.454	1	-4
671.640	1	5
672.826	1	-1
674.011	1	3
675.197	1	8
676.383	1	2
677.569	1	-6
678.754	1	5
679.940	1	17
681.125	1	4
682.311	1	9
683.496	1	9
684.682	1	11
685.867	1	15
687.053	1	-3
688.238	1	0
688.746	1	-4