File: Data/GaN_170K_550ms/GaN_sample D_spot 18_UVVIS_170 K_200um_550 ms 2x2mm1_207.txt
340.368	1	2
341.565	1	8
342.763	1	6
343.960	1	-4
345.157	1	-5
346.354	1	-7
347.552	1	7
348.749	1	6
349.946	1	6
351.143	1	2
352.340	1	2
353.537	1	-1
354.734	1	2
355.931	1	-8
357.127	1	0
358.324	1	5
359.521	1	1
360.718	1	-1
361.914	1	3
363.111	1	22
364.308	1	16
365.504	1	17
366.701	1	13
367.897	1	14
369.093	1	10
370.290	1	22
371.486	1	10
372.682	1	19
373.879	1	15
375.075	1	9
376.271	1	6
377.467	1	3
378.663	1	8
379.859	1	2
381.055	1	5
382.251	1	-4
383.447	1	19
384.643	1	1
385.839	1	1
387.035	1	5
388.230	1	5
389.426	1	2
390.622	1	-3
391.817	1	-2
393.013	1	-3
394.208	1	2
395.404	1	8
396.599	1	2
397.795	1	-3
398.990	1	-11
400.186	1	0
401.381	1	13
402.576	1	6
403.771	1	5
404.967	1	4
406.162	1	3
407.357	1	-1
408.552	1	-4
409.747	1	-1
410.942	1	7
412.137	1	-3
413.332	1	-4
414.526	1	5
415.721	1	0
416.916	1	-10
418.111	1	8
419.305	1	-2
420.500	1	0
421.695	1	-20
422.889	1	-6
424.084	1	22
425.278	1	-6
426.472	1	-2
427.667	1	1
428.861	1	7
430.055	1	-5
431.250	1	14
432.444	1	3
433.638	1	2
434.832	1	12
436.026	1	12
437.220	1	-2
438.414	1	-2
439.608	1	4
440.802	1	6
441.996	1	7
443.190	1	1
444.384	1	3
445.578	1	8
446.771	1	-12
447.965	1	4
449.159	1	0
450.352	1	2
451.546	1	-7
452.739	1	5
453.933	1	-1
455.126	1	8
456.320	1	7
457.513	1	10
458.706	1	3
459.899	1	1
461.093	1	13
462.286	1	0
463.479	1	-6
464.672	1	-4
465.865	1	4
467.058	1	0
468.251	1	6
469.444	1	0
470.637	1	-1
471.830	1	1
473.023	1	1
474.215	1	6
475.408	1	-9
476.601	1	-3
477.793	1	-4
478.986	1	-2
480.179	1	-8
481.371	1	-8
482.564	1	1
483.756	1	-4
484.948	1	1
486.141	1	12
487.333	1	-15
488.525	1	9
489.718	1	11
490.910	1	7
492.102	1	1
493.294	1	-5
494.486	1	10
495.678	1	0
496.870	1	6
498.062	1	-6
499.254	1	9
500.446	1	5
501.638	1	-3
502.829	1	0
504.021	1	4
505.213	1	-6
506.404	1	-3
507.596	1	-2
508.788	1	0
509.979	1	5
511.171	1	8
512.362	1	-3
513.553	1	-2
514.745	1	3
515.936	1	3
517.127	1	6
518.319	1	6
519.510	1	7
520.701	1	4
521.892	1	-3
523.083	1	-3
524.274	1	2
525.465	1	1
526.656	1	18
527.847	1	-1
529.038	1	0
530.229	1	15
531.419	1	13
532.610	1	5
533.801	1	9
534.991	1	2
536.182	1	4
537.373	1	2
538.563	1	2
539.754	1	-6
540.944	1	2
542.134	1	-5
543.325	1	7
544.515	1	6
545.705	1	9
546.896	1	-2
548.086	1	4
549.276	1	11
550.466	1	-2
551.656	1	-5
552.846	1	4
554.036	1	-6
555.226	1	-3
556.416	1	1
557.606	1	8
558.796	1	1
559.986	1	4
561.175	1	-14
562.365	1	9
563.555	1	1
564.744	1	3
565.934	1	3
567.123	1	-3
568.313	1	-4
569.502	1	9
570.692	1	16
571.881	1	-3
573.070	1	9
574.260	1	14
575.449	1	4
576.638	1	11
577.827	1	-2
579.016	1	3
580.205	1	-6
581.394	1	7
582.583	1	-1
583.772	1	-5
584.961	1	7
586.150	1	-11
587.339	1	-8
588.528	1	-6
589.717	1	4
590.905	1	3
592.094	1	3
593.283	1	-3
594.471	1	11
595.660	1	5
596.848	1	3
598.037	1	-6
599.225	1	1
600.413	1	-2
601.602	1	0
602.790	1	-1
603.978	1	4
605.166	1	2
606.355	1	-3
607.543	1	17
608.731	1	9
609.919	1	2
611.107	1	3
612.295	1	5
613.483	1	0
614.671	1	1
615.858	1	-5
617.046	1	-6
618.234	1	4
619.422	1	0
620.609	1	8
621.797	1	8
622.985	1	3
624.172	1	-2
625.360	1	1
626.547	1	-4
627.735	1	-8
628.922	1	-5
630.109	1	0
631.297	1	1
632.484	1	-3
633.671	1	7
634.858	1	-7
636.045	1	6
637.232	1	2
638.419	1	0
639.606	1	5
640.793	1	5
641.980	1	-7
643.167	1	-1
644.354	1	0
645.541	1	0
646.728	1	-1
647.914	1	0
649.101	1	-10
650.288	1	-3
651.474	1	6
652.661	1	7
653.847	1	5
655.034	1	-8
656.220	1	-2
657.406	1	-1
658.593	1	1
659.779	1	5
660.965	1	12
662.152	1	0
663.338	1	10
664.524	1	3
665.710	1	7
666.896	1	2
668.082	1	18
669.268	1	-9
670.454	1	-7
671.640	1	14
672.826	1	6
674.011	1	9
675.197	1	4
676.383	1	-1
677.569	1	-7
678.754	1	4
679.940	1	11
681.125	1	0
682.311	1	-1
683.496	1	-3
684.682	1	5
685.867	1	6
687.053	1	-2
688.238	1	2
688.746	1	-6