File: Data/GaN_170K_550ms/GaN_sample D_spot 18_UVVIS_170 K_200um_550 ms 2x2mm1_278.txt
340.368	1	6
341.565	1	-6
342.763	1	4
343.960	1	-6
345.157	1	-4
346.354	1	-6
347.552	1	2
348.749	1	5
349.946	1	13
351.143	1	0
352.340	1	7
353.537	1	1
354.734	1	6
355.931	1	-7
357.127	1	-3
358.324	1	6
359.521	1	12
360.718	1	5
361.914	1	5
363.111	1	11
364.308	1	11
365.504	1	5
366.701	1	7
367.897	1	8
369.093	1	-5
370.290	1	11
371.486	1	3
372.682	1	12
373.879	1	3
375.075	1	5
376.271	1	13
377.467	1	4
378.663	1	-1
379.859	1	14
381.055	1	0
382.251	1	1
383.447	1	6
384.643	1	3
385.839	1	-1
387.035	1	3
388.230	1	-1
389.426	1	7
390.622	1	-7
391.817	1	-3
393.013	1	0
394.208	1	9
395.404	1	5
396.599	1	-1
397.795	1	6
398.990	1	-5
400.186	1	-4
401.381	1	13
402.576	1	-8
403.771	1	-1
404.967	1	2
406.162	1	0
407.357	1	6
408.552	1	5
409.747	1	8
410.942	1	3
412.137	1	-3
413.332	1	-6
414.526	1	3
415.721	1	-3
416.916	1	-4
418.111	1	8
419.305	1	-2
420.500	1	2
421.695	1	-12
422.889	1	-5
424.084	1	11
425.278	1	-3
426.472	1	5
427.667	1	6
428.861	1	4
430.055	1	2
431.250	1	14
432.444	1	3
433.638	1	10
434.832	1	6
436.026	1	1
437.220	1	4
438.414	1	-4
439.608	1	-6
440.802	1	16
441.996	1	-7
443.190	1	5
444.384	1	1
445.578	1	2
446.771	1	0
447.965	1	0
449.159	1	5
450.352	1	-7
451.546	1	-7
452.739	1	-2
453.933	1	-6
455.126	1	7
456.320	1	4
457.513	1	7
458.706	1	6
459.899	1	-3
461.093	1	6
462.286	1	10
463.479	1	5
464.672	1	-1
465.865	1	2
467.058	1	1
468.251	1	0
469.444	1	-7
470.637	1	-3
471.830	1	-4
473.023	1	7
474.215	1	1
475.408	1	-9
476.601	1	-1
477.793	1	8
478.986	1	-2
480.179	1	-7
481.371	1	-4
482.564	1	-6
483.756	1	6
484.948	1	-9
486.141	1	1
487.333	1	3
488.525	1	3
489.718	1	2
490.910	1	-2
492.102	1	4
493.294	1	-2
494.486	1	7
495.678	1	9
496.870	1	4
498.062	1	4
499.254	1	13
500.446	1	-1
501.638	1	-6
502.829	1	5
504.021	1	-4
505.213	1	4
506.404	1	6
507.596	1	4
508.788	1	3
509.979	1	1
511.171	1	-3
512.362	1	4
513.553	1	0
514.745	1	2
515.936	1	-7
517.127	1	-1
518.319	1	7
519.510	1	6
520.701	1	13
521.892	1	6
523.083	1	1
524.274	1	2
525.465	1	2
526.656	1	14
527.847	1	0
529.038	1	5
530.229	1	12
531.419	1	8
532.610	1	12
533.801	1	0
534.991	1	0
536.182	1	-2
537.373	1	-2
538.563	1	3
539.754	1	-1
540.944	1	-9
542.134	1	-7
543.325	1	4
544.515	1	2
545.705	1	5
546.896	1	-1
548.086	1	6
549.276	1	3
550.466	1	-3
551.656	1	7
552.846	1	0
554.036	1	-1
555.226	1	-1
556.416	1	-1
557.606	1	3
558.796	1	1
559.986	1	11
561.175	1	-15
562.365	1	-1
563.555	1	-6
564.744	1	1
565.934	1	3
567.123	1	-3
568.313	1	3
569.502	1	4
570.692	1	5
571.881	1	-3
573.070	1	3
574.260	1	5
575.449	1	4
576.638	1	7
577.827	1	-1
579.016	1	0
580.205	1	3
581.394	1	-2
582.583	1	2
583.772	1	-4
584.961	1	-6
586.150	1	-5
587.339	1	6
588.528	1	1
589.717	1	1
590.905	1	7
592.094	1	9
593.283	1	4
594.471	1	3
595.660	1	4
596.848	1	-2
598.037	1	-1
599.225	1	9
600.413	1	-5
601.602	1	9
602.790	1	5
603.978	1	2
605.166	1	4
606.355	1	6
607.543	1	3
608.731	1	-1
609.919	1	-2
611.107	1	-5
612.295	1	-1
613.483	1	1
614.671	1	3
615.858	1	-3
617.046	1	-13
618.234	1	1
619.422	1	-9
620.609	1	7
621.797	1	0
622.985	1	3
624.172	1	2
625.360	1	0
626.547	1	-13
627.735	1	-11
628.922	1	-6
630.109	1	-5
631.297	1	-2
632.484	1	-8
633.671	1	9
634.858	1	9
636.045	1	7
637.232	1	-6
638.419	1	-4
639.606	1	-12
640.793	1	-10
641.980	1	-4
643.167	1	1
644.354	1	-6
645.541	1	4
646.728	1	5
647.914	1	-2
649.101	1	3
650.288	1	-2
651.474	1	7
652.661	1	5
653.847	1	1
655.034	1	-4
656.220	1	2
657.406	1	-5
658.593	1	-4
659.779	1	3
660.965	1	11
662.152	1	1
663.338	1	5
664.524	1	3
665.710	1	-3
666.896	1	3
668.082	1	13
669.268	1	0
670.454	1	2
671.640	1	12
672.826	1	1
674.011	1	1
675.197	1	3
676.383	1	4
677.569	1	-6
678.754	1	5
679.940	1	3
681.125	1	7
682.311	1	-1
683.496	1	-1
684.682	1	8
685.867	1	19
687.053	1	-2
688.238	1	-10
688.746	1	-13