File: Data/GaN_170K_550ms/GaN_sample D_spot 18_UVVIS_170 K_200um_550 ms 2x2mm1_57.txt
340.368	1	-5
341.565	1	11
342.763	1	5
343.960	1	1
345.157	1	8
346.354	1	-4
347.552	1	9
348.749	1	13
349.946	1	17
351.143	1	4
352.340	1	15
353.537	1	23
354.734	1	26
355.931	1	24
357.127	1	45
358.324	1	61
359.521	1	71
360.718	1	109
361.914	1	149
363.111	1	263
364.308	1	403
365.504	1	638
366.701	1	930
367.897	1	1175
369.093	1	1198
370.290	1	1067
371.486	1	840
372.682	1	666
373.879	1	545
375.075	1	440
376.271	1	340
377.467	1	302
378.663	1	235
379.859	1	187
381.055	1	154
382.251	1	142
383.447	1	141
384.643	1	118
385.839	1	98
387.035	1	96
388.230	1	84
389.426	1	84
390.622	1	73
391.817	1	68
393.013	1	56
394.208	1	49
395.404	1	46
396.599	1	45
397.795	1	46
398.990	1	32
400.186	1	36
401.381	1	39
402.576	1	38
403.771	1	30
404.967	1	31
406.162	1	32
407.357	1	22
408.552	1	34
409.747	1	21
410.942	1	31
412.137	1	14
413.332	1	18
414.526	1	16
415.721	1	16
416.916	1	9
418.111	1	24
419.305	1	12
420.500	1	19
421.695	1	9
422.889	1	16
424.084	1	29
425.278	1	16
426.472	1	19
427.667	1	26
428.861	1	24
430.055	1	14
431.250	1	30
432.444	1	20
433.638	1	18
434.832	1	18
436.026	1	10
437.220	1	15
438.414	1	7
439.608	1	10
440.802	1	14
441.996	1	6
443.190	1	12
444.384	1	8
445.578	1	14
446.771	1	0
447.965	1	17
449.159	1	6
450.352	1	0
451.546	1	7
452.739	1	6
453.933	1	9
455.126	1	20
456.320	1	7
457.513	1	16
458.706	1	8
459.899	1	8
461.093	1	30
462.286	1	9
463.479	1	16
464.672	1	10
465.865	1	20
467.058	1	13
468.251	1	14
469.444	1	5
470.637	1	10
471.830	1	9
473.023	1	21
474.215	1	19
475.408	1	14
476.601	1	19
477.793	1	28
478.986	1	23
480.179	1	10
481.371	1	19
482.564	1	14
483.756	1	27
484.948	1	40
486.141	1	38
487.333	1	33
488.525	1	51
489.718	1	44
490.910	1	40
492.102	1	43
493.294	1	45
494.486	1	64
495.678	1	48
496.870	1	50
498.062	1	57
499.254	1	63
500.446	1	62
501.638	1	59
502.829	1	81
504.021	1	91
505.213	1	81
506.404	1	90
507.596	1	99
508.788	1	86
509.979	1	82
511.171	1	97
512.362	1	92
513.553	1	93
514.745	1	104
515.936	1	103
517.127	1	115
518.319	1	109
519.510	1	110
520.701	1	113
521.892	1	121
523.083	1	118
524.274	1	115
525.465	1	122
526.656	1	139
527.847	1	126
529.038	1	138
530.229	1	149
531.419	1	135
532.610	1	143
533.801	1	140
534.991	1	127
536.182	1	120
537.373	1	111
538.563	1	113
539.754	1	109
540.944	1	113
542.134	1	112
543.325	1	128
544.515	1	119
545.705	1	121
546.896	1	131
548.086	1	124
549.276	1	124
550.466	1	128
551.656	1	124
552.846	1	126
554.036	1	109
555.226	1	108
556.416	1	112
557.606	1	107
558.796	1	95
559.986	1	101
561.175	1	88
562.365	1	102
563.555	1	100
564.744	1	95
565.934	1	107
567.123	1	95
568.313	1	92
569.502	1	93
570.692	1	97
571.881	1	77
573.070	1	89
574.260	1	91
575.449	1	78
576.638	1	75
577.827	1	72
579.016	1	75
580.205	1	56
581.394	1	71
582.583	1	72
583.772	1	68
584.961	1	66
586.150	1	70
587.339	1	64
588.528	1	66
589.717	1	65
590.905	1	61
592.094	1	57
593.283	1	56
594.471	1	57
595.660	1	54
596.848	1	53
598.037	1	58
599.225	1	62
600.413	1	50
601.602	1	49
602.790	1	59
603.978	1	60
605.166	1	58
606.355	1	54
607.543	1	63
608.731	1	57
609.919	1	47
611.107	1	50
612.295	1	47
613.483	1	40
614.671	1	51
615.858	1	35
617.046	1	26
618.234	1	40
619.422	1	29
620.609	1	38
621.797	1	38
622.985	1	43
624.172	1	32
625.360	1	33
626.547	1	46
627.735	1	38
628.922	1	40
630.109	1	37
631.297	1	25
632.484	1	33
633.671	1	45
634.858	1	31
636.045	1	35
637.232	1	38
638.419	1	22
639.606	1	22
640.793	1	31
641.980	1	17
643.167	1	14
644.354	1	43
645.541	1	35
646.728	1	33
647.914	1	27
649.101	1	33
650.288	1	21
651.474	1	35
652.661	1	29
653.847	1	22
655.034	1	22
656.220	1	18
657.406	1	23
658.593	1	14
659.779	1	26
660.965	1	30
662.152	1	20
663.338	1	18
664.524	1	20
665.710	1	18
666.896	1	11
668.082	1	23
669.268	1	22
670.454	1	16
671.640	1	17
672.826	1	19
674.011	1	26
675.197	1	21
676.383	1	22
677.569	1	14
678.754	1	17
679.940	1	20
681.125	1	22
682.311	1	13
683.496	1	18
684.682	1	21
685.867	1	19
687.053	1	12
688.238	1	20
688.746	1	11