File: Data/GaN_170K_550ms/GaN_sample D_spot 18_UVVIS_170 K_200um_550 ms 2x2mm1_286.txt
340.368	1	7
341.565	1	-1
342.763	1	-2
343.960	1	-3
345.157	1	-4
346.354	1	-6
347.552	1	4
348.749	1	7
349.946	1	10
351.143	1	9
352.340	1	6
353.537	1	2
354.734	1	-1
355.931	1	-6
357.127	1	-4
358.324	1	11
359.521	1	1
360.718	1	3
361.914	1	9
363.111	1	1
364.308	1	-1
365.504	1	10
366.701	1	10
367.897	1	10
369.093	1	9
370.290	1	4
371.486	1	1
372.682	1	13
373.879	1	5
375.075	1	2
376.271	1	4
377.467	1	14
378.663	1	9
379.859	1	8
381.055	1	-1
382.251	1	7
383.447	1	14
384.643	1	-1
385.839	1	-4
387.035	1	-3
388.230	1	5
389.426	1	3
390.622	1	-8
391.817	1	4
393.013	1	3
394.208	1	4
395.404	1	7
396.599	1	-2
397.795	1	0
398.990	1	-13
400.186	1	-5
401.381	1	7
402.576	1	-3
403.771	1	-5
404.967	1	8
406.162	1	9
407.357	1	-3
408.552	1	-10
409.747	1	-1
410.942	1	5
412.137	1	-10
413.332	1	-10
414.526	1	5
415.721	1	-8
416.916	1	-7
418.111	1	10
419.305	1	2
420.500	1	5
421.695	1	-7
422.889	1	6
424.084	1	21
425.278	1	-4
426.472	1	5
427.667	1	4
428.861	1	0
430.055	1	-4
431.250	1	13
432.444	1	5
433.638	1	6
434.832	1	5
436.026	1	-7
437.220	1	6
438.414	1	-2
439.608	1	5
440.802	1	4
441.996	1	-13
443.190	1	5
444.384	1	-11
445.578	1	2
446.771	1	-13
447.965	1	0
449.159	1	1
450.352	1	-2
451.546	1	-10
452.739	1	7
453.933	1	3
455.126	1	6
456.320	1	-3
457.513	1	10
458.706	1	2
459.899	1	2
461.093	1	9
462.286	1	-2
463.479	1	6
464.672	1	1
465.865	1	-1
467.058	1	-1
468.251	1	0
469.444	1	-1
470.637	1	10
471.830	1	-2
473.023	1	10
474.215	1	1
475.408	1	-8
476.601	1	5
477.793	1	10
478.986	1	8
480.179	1	-6
481.371	1	1
482.564	1	0
483.756	1	-8
484.948	1	6
486.141	1	13
487.333	1	1
488.525	1	6
489.718	1	13
490.910	1	1
492.102	1	1
493.294	1	0
494.486	1	8
495.678	1	9
496.870	1	2
498.062	1	0
499.254	1	0
500.446	1	-1
501.638	1	-5
502.829	1	-1
504.021	1	5
505.213	1	-9
506.404	1	0
507.596	1	-8
508.788	1	-4
509.979	1	10
511.171	1	1
512.362	1	1
513.553	1	6
514.745	1	-3
515.936	1	-8
517.127	1	9
518.319	1	4
519.510	1	8
520.701	1	3
521.892	1	-2
523.083	1	2
524.274	1	1
525.465	1	13
526.656	1	11
527.847	1	-3
529.038	1	3
530.229	1	5
531.419	1	7
532.610	1	4
533.801	1	-3
534.991	1	-2
536.182	1	-2
537.373	1	1
538.563	1	4
539.754	1	-2
540.944	1	-5
542.134	1	1
543.325	1	-1
544.515	1	-5
545.705	1	13
546.896	1	5
548.086	1	-3
549.276	1	1
550.466	1	-1
551.656	1	-1
552.846	1	7
554.036	1	-4
555.226	1	-6
556.416	1	7
557.606	1	12
558.796	1	5
559.986	1	-1
561.175	1	-1
562.365	1	10
563.555	1	0
564.744	1	6
565.934	1	6
567.123	1	1
568.313	1	7
569.502	1	-3
570.692	1	7
571.881	1	-7
573.070	1	-2
574.260	1	7
575.449	1	0
576.638	1	11
577.827	1	-10
579.016	1	5
580.205	1	-6
581.394	1	3
582.583	1	2
583.772	1	-6
584.961	1	-2
586.150	1	-2
587.339	1	-5
588.528	1	-2
589.717	1	3
590.905	1	10
592.094	1	3
593.283	1	8
594.471	1	-3
595.660	1	0
596.848	1	-1
598.037	1	1
599.225	1	8
600.413	1	-1
601.602	1	7
602.790	1	16
603.978	1	7
605.166	1	10
606.355	1	6
607.543	1	4
608.731	1	2
609.919	1	-1
611.107	1	-7
612.295	1	5
613.483	1	-6
614.671	1	4
615.858	1	5
617.046	1	0
618.234	1	-3
619.422	1	-9
620.609	1	-7
621.797	1	2
622.985	1	-1
624.172	1	8
625.360	1	0
626.547	1	-6
627.735	1	-8
628.922	1	-15
630.109	1	-5
631.297	1	-6
632.484	1	-11
633.671	1	3
634.858	1	-6
636.045	1	3
637.232	1	0
638.419	1	5
639.606	1	-4
640.793	1	-8
641.980	1	-3
643.167	1	-4
644.354	1	8
645.541	1	2
646.728	1	5
647.914	1	-9
649.101	1	9
650.288	1	4
651.474	1	17
652.661	1	-1
653.847	1	6
655.034	1	3
656.220	1	-3
657.406	1	3
658.593	1	0
659.779	1	0
660.965	1	10
662.152	1	9
663.338	1	-1
664.524	1	6
665.710	1	-2
666.896	1	4
668.082	1	6
669.268	1	-4
670.454	1	-4
671.640	1	12
672.826	1	-5
674.011	1	-4
675.197	1	1
676.383	1	1
677.569	1	-15
678.754	1	1
679.940	1	11
681.125	1	8
682.311	1	-7
683.496	1	1
684.682	1	0
685.867	1	-4
687.053	1	-8
688.238	1	-5
688.746	1	-3