File: Data/GaN_170K_550ms/GaN_sample D_spot 18_UVVIS_170 K_200um_550 ms 2x2mm1_68.txt
340.368	1	10
341.565	1	-1
342.763	1	-4
343.960	1	-1
345.157	1	9
346.354	1	-11
347.552	1	18
348.749	1	5
349.946	1	14
351.143	1	-2
352.340	1	11
353.537	1	11
354.734	1	11
355.931	1	25
357.127	1	15
358.324	1	35
359.521	1	45
360.718	1	54
361.914	1	76
363.111	1	118
364.308	1	161
365.504	1	228
366.701	1	291
367.897	1	343
369.093	1	343
370.290	1	321
371.486	1	257
372.682	1	225
373.879	1	171
375.075	1	152
376.271	1	134
377.467	1	103
378.663	1	91
379.859	1	79
381.055	1	69
382.251	1	58
383.447	1	62
384.643	1	38
385.839	1	35
387.035	1	36
388.230	1	31
389.426	1	31
390.622	1	26
391.817	1	20
393.013	1	17
394.208	1	15
395.404	1	18
396.599	1	13
397.795	1	13
398.990	1	9
400.186	1	4
401.381	1	12
402.576	1	17
403.771	1	10
404.967	1	15
406.162	1	8
407.357	1	0
408.552	1	1
409.747	1	9
410.942	1	8
412.137	1	6
413.332	1	8
414.526	1	-2
415.721	1	-3
416.916	1	-2
418.111	1	12
419.305	1	8
420.500	1	10
421.695	1	-1
422.889	1	6
424.084	1	21
425.278	1	10
426.472	1	4
427.667	1	9
428.861	1	11
430.055	1	9
431.250	1	15
432.444	1	11
433.638	1	4
434.832	1	6
436.026	1	4
437.220	1	4
438.414	1	0
439.608	1	1
440.802	1	13
441.996	1	3
443.190	1	3
444.384	1	5
445.578	1	12
446.771	1	-4
447.965	1	8
449.159	1	4
450.352	1	-8
451.546	1	-8
452.739	1	5
453.933	1	2
455.126	1	10
456.320	1	1
457.513	1	19
458.706	1	0
459.899	1	16
461.093	1	15
462.286	1	1
463.479	1	3
464.672	1	8
465.865	1	11
467.058	1	11
468.251	1	6
469.444	1	3
470.637	1	9
471.830	1	9
473.023	1	5
474.215	1	8
475.408	1	6
476.601	1	19
477.793	1	16
478.986	1	3
480.179	1	6
481.371	1	10
482.564	1	6
483.756	1	13
484.948	1	19
486.141	1	25
487.333	1	11
488.525	1	21
489.718	1	24
490.910	1	20
492.102	1	17
493.294	1	12
494.486	1	25
495.678	1	17
496.870	1	24
498.062	1	15
499.254	1	27
500.446	1	35
501.638	1	16
502.829	1	27
504.021	1	42
505.213	1	30
506.404	1	37
507.596	1	48
508.788	1	36
509.979	1	37
511.171	1	47
512.362	1	39
513.553	1	46
514.745	1	34
515.936	1	44
517.127	1	54
518.319	1	60
519.510	1	49
520.701	1	47
521.892	1	53
523.083	1	55
524.274	1	50
525.465	1	43
526.656	1	59
527.847	1	42
529.038	1	52
530.229	1	62
531.419	1	64
532.610	1	48
533.801	1	61
534.991	1	45
536.182	1	45
537.373	1	46
538.563	1	41
539.754	1	51
540.944	1	35
542.134	1	39
543.325	1	61
544.515	1	45
545.705	1	49
546.896	1	39
548.086	1	52
549.276	1	42
550.466	1	40
551.656	1	47
552.846	1	39
554.036	1	39
555.226	1	33
556.416	1	37
557.606	1	42
558.796	1	30
559.986	1	30
561.175	1	34
562.365	1	33
563.555	1	28
564.744	1	28
565.934	1	32
567.123	1	18
568.313	1	34
569.502	1	27
570.692	1	36
571.881	1	24
573.070	1	34
574.260	1	24
575.449	1	27
576.638	1	32
577.827	1	12
579.016	1	28
580.205	1	10
581.394	1	27
582.583	1	19
583.772	1	27
584.961	1	16
586.150	1	9
587.339	1	13
588.528	1	12
589.717	1	26
590.905	1	18
592.094	1	19
593.283	1	16
594.471	1	22
595.660	1	12
596.848	1	9
598.037	1	8
599.225	1	16
600.413	1	0
601.602	1	5
602.790	1	13
603.978	1	17
605.166	1	23
606.355	1	15
607.543	1	19
608.731	1	18
609.919	1	10
611.107	1	8
612.295	1	11
613.483	1	3
614.671	1	17
615.858	1	9
617.046	1	5
618.234	1	17
619.422	1	3
620.609	1	6
621.797	1	15
622.985	1	17
624.172	1	1
625.360	1	11
626.547	1	4
627.735	1	-6
628.922	1	2
630.109	1	2
631.297	1	1
632.484	1	5
633.671	1	15
634.858	1	11
636.045	1	16
637.232	1	4
638.419	1	11
639.606	1	0
640.793	1	4
641.980	1	8
643.167	1	4
644.354	1	10
645.541	1	12
646.728	1	7
647.914	1	3
649.101	1	1
650.288	1	5
651.474	1	12
652.661	1	13
653.847	1	1
655.034	1	4
656.220	1	8
657.406	1	5
658.593	1	2
659.779	1	10
660.965	1	23
662.152	1	1
663.338	1	14
664.524	1	9
665.710	1	0
666.896	1	0
668.082	1	13
669.268	1	4
670.454	1	1
671.640	1	12
672.826	1	4
674.011	1	6
675.197	1	13
676.383	1	1
677.569	1	6
678.754	1	1
679.940	1	21
681.125	1	10
682.311	1	2
683.496	1	13
684.682	1	9
685.867	1	8
687.053	1	2
688.238	1	6
688.746	1	4