File: Data/GaN_170K_550ms/GaN_sample D_spot 18_UVVIS_170 K_200um_550 ms 2x2mm1_245.txt
340.368	1	8
341.565	1	7
342.763	1	4
343.960	1	3
345.157	1	0
346.354	1	-11
347.552	1	3
348.749	1	2
349.946	1	15
351.143	1	8
352.340	1	0
353.537	1	4
354.734	1	2
355.931	1	-3
357.127	1	5
358.324	1	2
359.521	1	7
360.718	1	-1
361.914	1	3
363.111	1	15
364.308	1	8
365.504	1	10
366.701	1	14
367.897	1	10
369.093	1	-3
370.290	1	15
371.486	1	0
372.682	1	11
373.879	1	23
375.075	1	7
376.271	1	22
377.467	1	11
378.663	1	16
379.859	1	3
381.055	1	3
382.251	1	1
383.447	1	-1
384.643	1	3
385.839	1	-2
387.035	1	0
388.230	1	1
389.426	1	6
390.622	1	0
391.817	1	6
393.013	1	6
394.208	1	6
395.404	1	5
396.599	1	-6
397.795	1	7
398.990	1	-7
400.186	1	2
401.381	1	12
402.576	1	-4
403.771	1	6
404.967	1	0
406.162	1	10
407.357	1	1
408.552	1	6
409.747	1	-1
410.942	1	5
412.137	1	-4
413.332	1	-2
414.526	1	3
415.721	1	1
416.916	1	-7
418.111	1	10
419.305	1	3
420.500	1	1
421.695	1	-6
422.889	1	2
424.084	1	11
425.278	1	-2
426.472	1	6
427.667	1	5
428.861	1	-1
430.055	1	9
431.250	1	9
432.444	1	7
433.638	1	2
434.832	1	6
436.026	1	1
437.220	1	-3
438.414	1	4
439.608	1	-7
440.802	1	10
441.996	1	0
443.190	1	-1
444.384	1	1
445.578	1	7
446.771	1	-7
447.965	1	3
449.159	1	1
450.352	1	-2
451.546	1	-13
452.739	1	6
453.933	1	5
455.126	1	13
456.320	1	1
457.513	1	13
458.706	1	0
459.899	1	2
461.093	1	12
462.286	1	-7
463.479	1	-3
464.672	1	-3
465.865	1	3
467.058	1	6
468.251	1	5
469.444	1	2
470.637	1	-6
471.830	1	-2
473.023	1	3
474.215	1	4
475.408	1	-7
476.601	1	2
477.793	1	6
478.986	1	-1
480.179	1	-3
481.371	1	7
482.564	1	-3
483.756	1	3
484.948	1	-7
486.141	1	3
487.333	1	-2
488.525	1	0
489.718	1	1
490.910	1	8
492.102	1	5
493.294	1	-8
494.486	1	11
495.678	1	0
496.870	1	0
498.062	1	0
499.254	1	9
500.446	1	3
501.638	1	-7
502.829	1	1
504.021	1	2
505.213	1	0
506.404	1	2
507.596	1	-7
508.788	1	-1
509.979	1	8
511.171	1	8
512.362	1	4
513.553	1	6
514.745	1	-1
515.936	1	-7
517.127	1	13
518.319	1	8
519.510	1	8
520.701	1	9
521.892	1	6
523.083	1	5
524.274	1	-4
525.465	1	6
526.656	1	9
527.847	1	4
529.038	1	2
530.229	1	17
531.419	1	3
532.610	1	-2
533.801	1	4
534.991	1	-4
536.182	1	5
537.373	1	4
538.563	1	-7
539.754	1	-2
540.944	1	-5
542.134	1	-2
543.325	1	9
544.515	1	4
545.705	1	6
546.896	1	9
548.086	1	2
549.276	1	5
550.466	1	0
551.656	1	2
552.846	1	9
554.036	1	2
555.226	1	-15
556.416	1	-3
557.606	1	1
558.796	1	2
559.986	1	9
561.175	1	-6
562.365	1	1
563.555	1	8
564.744	1	12
565.934	1	1
567.123	1	4
568.313	1	-1
569.502	1	3
570.692	1	12
571.881	1	3
573.070	1	-1
574.260	1	5
575.449	1	8
576.638	1	0
577.827	1	-1
579.016	1	4
580.205	1	-5
581.394	1	2
582.583	1	-7
583.772	1	-1
584.961	1	4
586.150	1	2
587.339	1	-3
588.528	1	1
589.717	1	12
590.905	1	5
592.094	1	10
593.283	1	0
594.471	1	11
595.660	1	8
596.848	1	4
598.037	1	5
599.225	1	11
600.413	1	0
601.602	1	7
602.790	1	12
603.978	1	3
605.166	1	3
606.355	1	3
607.543	1	6
608.731	1	8
609.919	1	-1
611.107	1	-7
612.295	1	0
613.483	1	-1
614.671	1	8
615.858	1	-5
617.046	1	-7
618.234	1	3
619.422	1	-8
620.609	1	3
621.797	1	10
622.985	1	6
624.172	1	0
625.360	1	8
626.547	1	-3
627.735	1	-15
628.922	1	-9
630.109	1	-3
631.297	1	2
632.484	1	4
633.671	1	-2
634.858	1	-1
636.045	1	2
637.232	1	-3
638.419	1	-6
639.606	1	-3
640.793	1	-3
641.980	1	-9
643.167	1	-4
644.354	1	-2
645.541	1	8
646.728	1	-2
647.914	1	2
649.101	1	5
650.288	1	-6
651.474	1	7
652.661	1	-3
653.847	1	0
655.034	1	2
656.220	1	-6
657.406	1	4
658.593	1	7
659.779	1	4
660.965	1	12
662.152	1	10
663.338	1	7
664.524	1	10
665.710	1	-5
666.896	1	-5
668.082	1	10
669.268	1	0
670.454	1	-10
671.640	1	2
672.826	1	-3
674.011	1	-1
675.197	1	6
676.383	1	-1
677.569	1	-9
678.754	1	7
679.940	1	10
681.125	1	6
682.311	1	-1
683.496	1	3
684.682	1	-5
685.867	1	3
687.053	1	-5
688.238	1	-11
688.746	1	-7