File: Data/GaN_170K_550ms/GaN_sample D_spot 18_UVVIS_170 K_200um_550 ms 2x2mm1_83.txt
340.368	1	-1
341.565	1	8
342.763	1	10
343.960	1	0
345.157	1	6
346.354	1	0
347.552	1	8
348.749	1	15
349.946	1	16
351.143	1	6
352.340	1	10
353.537	1	5
354.734	1	11
355.931	1	10
357.127	1	12
358.324	1	24
359.521	1	27
360.718	1	32
361.914	1	54
363.111	1	78
364.308	1	82
365.504	1	111
366.701	1	146
367.897	1	155
369.093	1	159
370.290	1	148
371.486	1	134
372.682	1	102
373.879	1	97
375.075	1	77
376.271	1	68
377.467	1	62
378.663	1	53
379.859	1	33
381.055	1	34
382.251	1	35
383.447	1	41
384.643	1	16
385.839	1	23
387.035	1	18
388.230	1	7
389.426	1	21
390.622	1	12
391.817	1	22
393.013	1	10
394.208	1	20
395.404	1	16
396.599	1	0
397.795	1	8
398.990	1	-2
400.186	1	6
401.381	1	17
402.576	1	7
403.771	1	4
404.967	1	15
406.162	1	15
407.357	1	3
408.552	1	10
409.747	1	5
410.942	1	-1
412.137	1	1
413.332	1	6
414.526	1	10
415.721	1	0
416.916	1	-2
418.111	1	13
419.305	1	2
420.500	1	-3
421.695	1	1
422.889	1	8
424.084	1	20
425.278	1	7
426.472	1	6
427.667	1	6
428.861	1	3
430.055	1	-2
431.250	1	16
432.444	1	4
433.638	1	9
434.832	1	13
436.026	1	8
437.220	1	5
438.414	1	0
439.608	1	-1
440.802	1	12
441.996	1	0
443.190	1	1
444.384	1	2
445.578	1	13
446.771	1	-10
447.965	1	0
449.159	1	-5
450.352	1	-1
451.546	1	-7
452.739	1	8
453.933	1	6
455.126	1	10
456.320	1	9
457.513	1	12
458.706	1	7
459.899	1	7
461.093	1	3
462.286	1	-6
463.479	1	-2
464.672	1	1
465.865	1	8
467.058	1	2
468.251	1	5
469.444	1	5
470.637	1	4
471.830	1	-3
473.023	1	2
474.215	1	11
475.408	1	-1
476.601	1	11
477.793	1	10
478.986	1	-5
480.179	1	0
481.371	1	6
482.564	1	-1
483.756	1	9
484.948	1	6
486.141	1	15
487.333	1	7
488.525	1	18
489.718	1	16
490.910	1	10
492.102	1	7
493.294	1	11
494.486	1	13
495.678	1	12
496.870	1	9
498.062	1	14
499.254	1	24
500.446	1	3
501.638	1	10
502.829	1	16
504.021	1	17
505.213	1	13
506.404	1	16
507.596	1	13
508.788	1	15
509.979	1	18
511.171	1	17
512.362	1	21
513.553	1	15
514.745	1	14
515.936	1	24
517.127	1	20
518.319	1	28
519.510	1	26
520.701	1	36
521.892	1	29
523.083	1	13
524.274	1	36
525.465	1	27
526.656	1	32
527.847	1	26
529.038	1	21
530.229	1	48
531.419	1	33
532.610	1	33
533.801	1	36
534.991	1	18
536.182	1	20
537.373	1	30
538.563	1	19
539.754	1	15
540.944	1	7
542.134	1	27
543.325	1	22
544.515	1	25
545.705	1	26
546.896	1	19
548.086	1	23
549.276	1	24
550.466	1	27
551.656	1	27
552.846	1	19
554.036	1	18
555.226	1	13
556.416	1	22
557.606	1	13
558.796	1	15
559.986	1	18
561.175	1	5
562.365	1	21
563.555	1	9
564.744	1	16
565.934	1	15
567.123	1	13
568.313	1	7
569.502	1	18
570.692	1	23
571.881	1	5
573.070	1	7
574.260	1	10
575.449	1	14
576.638	1	13
577.827	1	11
579.016	1	14
580.205	1	0
581.394	1	10
582.583	1	11
583.772	1	6
584.961	1	11
586.150	1	10
587.339	1	-1
588.528	1	9
589.717	1	6
590.905	1	15
592.094	1	12
593.283	1	7
594.471	1	10
595.660	1	5
596.848	1	6
598.037	1	1
599.225	1	4
600.413	1	-5
601.602	1	4
602.790	1	10
603.978	1	8
605.166	1	8
606.355	1	4
607.543	1	16
608.731	1	4
609.919	1	7
611.107	1	-5
612.295	1	2
613.483	1	-2
614.671	1	15
615.858	1	0
617.046	1	4
618.234	1	-4
619.422	1	4
620.609	1	10
621.797	1	11
622.985	1	10
624.172	1	1
625.360	1	4
626.547	1	-6
627.735	1	-11
628.922	1	-2
630.109	1	1
631.297	1	-2
632.484	1	-2
633.671	1	11
634.858	1	6
636.045	1	19
637.232	1	8
638.419	1	-1
639.606	1	-10
640.793	1	-5
641.980	1	9
643.167	1	4
644.354	1	8
645.541	1	5
646.728	1	4
647.914	1	0
649.101	1	11
650.288	1	2
651.474	1	19
652.661	1	9
653.847	1	-2
655.034	1	8
656.220	1	13
657.406	1	2
658.593	1	7
659.779	1	12
660.965	1	18
662.152	1	5
663.338	1	5
664.524	1	7
665.710	1	2
666.896	1	10
668.082	1	14
669.268	1	8
670.454	1	1
671.640	1	10
672.826	1	3
674.011	1	13
675.197	1	11
676.383	1	4
677.569	1	7
678.754	1	-1
679.940	1	18
681.125	1	0
682.311	1	1
683.496	1	10
684.682	1	6
685.867	1	12
687.053	1	1
688.238	1	-8
688.746	1	-6