File: Data/GaN_170K_550ms/GaN_sample D_spot 18_UVVIS_170 K_200um_550 ms 2x2mm1_38.txt
340.368	1	2
341.565	1	-2
342.763	1	1
343.960	1	-4
345.157	1	8
346.354	1	4
347.552	1	11
348.749	1	2
349.946	1	11
351.143	1	-3
352.340	1	2
353.537	1	7
354.734	1	4
355.931	1	1
357.127	1	5
358.324	1	11
359.521	1	3
360.718	1	6
361.914	1	0
363.111	1	12
364.308	1	10
365.504	1	2
366.701	1	0
367.897	1	8
369.093	1	-3
370.290	1	-6
371.486	1	-7
372.682	1	0
373.879	1	4
375.075	1	9
376.271	1	5
377.467	1	4
378.663	1	1
379.859	1	-1
381.055	1	3
382.251	1	4
383.447	1	4
384.643	1	3
385.839	1	-12
387.035	1	-2
388.230	1	-4
389.426	1	11
390.622	1	0
391.817	1	4
393.013	1	7
394.208	1	5
395.404	1	6
396.599	1	-9
397.795	1	1
398.990	1	-2
400.186	1	-4
401.381	1	9
402.576	1	-1
403.771	1	3
404.967	1	6
406.162	1	7
407.357	1	1
408.552	1	-6
409.747	1	6
410.942	1	0
412.137	1	-5
413.332	1	-11
414.526	1	6
415.721	1	2
416.916	1	-6
418.111	1	2
419.305	1	4
420.500	1	-7
421.695	1	-9
422.889	1	-3
424.084	1	9
425.278	1	0
426.472	1	3
427.667	1	5
428.861	1	-1
430.055	1	3
431.250	1	6
432.444	1	1
433.638	1	11
434.832	1	10
436.026	1	-1
437.220	1	3
438.414	1	-10
439.608	1	3
440.802	1	-1
441.996	1	-5
443.190	1	-1
444.384	1	2
445.578	1	7
446.771	1	-10
447.965	1	8
449.159	1	-7
450.352	1	-9
451.546	1	-5
452.739	1	-9
453.933	1	2
455.126	1	14
456.320	1	-2
457.513	1	8
458.706	1	4
459.899	1	3
461.093	1	14
462.286	1	-3
463.479	1	3
464.672	1	-1
465.865	1	7
467.058	1	2
468.251	1	5
469.444	1	5
470.637	1	6
471.830	1	1
473.023	1	2
474.215	1	4
475.408	1	-1
476.601	1	-3
477.793	1	8
478.986	1	-5
480.179	1	-7
481.371	1	1
482.564	1	2
483.756	1	3
484.948	1	4
486.141	1	16
487.333	1	-6
488.525	1	2
489.718	1	9
490.910	1	2
492.102	1	2
493.294	1	0
494.486	1	12
495.678	1	2
496.870	1	1
498.062	1	1
499.254	1	5
500.446	1	8
501.638	1	-13
502.829	1	1
504.021	1	4
505.213	1	-3
506.404	1	4
507.596	1	5
508.788	1	-11
509.979	1	5
511.171	1	5
512.362	1	-4
513.553	1	12
514.745	1	4
515.936	1	8
517.127	1	3
518.319	1	8
519.510	1	11
520.701	1	2
521.892	1	-3
523.083	1	3
524.274	1	0
525.465	1	5
526.656	1	1
527.847	1	-4
529.038	1	-9
530.229	1	13
531.419	1	10
532.610	1	7
533.801	1	12
534.991	1	-8
536.182	1	5
537.373	1	2
538.563	1	8
539.754	1	0
540.944	1	-6
542.134	1	-1
543.325	1	-4
544.515	1	12
545.705	1	5
546.896	1	8
548.086	1	-4
549.276	1	-2
550.466	1	2
551.656	1	1
552.846	1	5
554.036	1	4
555.226	1	-10
556.416	1	1
557.606	1	11
558.796	1	-2
559.986	1	3
561.175	1	-10
562.365	1	2
563.555	1	1
564.744	1	0
565.934	1	-3
567.123	1	5
568.313	1	-2
569.502	1	-7
570.692	1	6
571.881	1	0
573.070	1	0
574.260	1	7
575.449	1	5
576.638	1	5
577.827	1	3
579.016	1	5
580.205	1	-6
581.394	1	2
582.583	1	-4
583.772	1	-1
584.961	1	-3
586.150	1	-8
587.339	1	0
588.528	1	0
589.717	1	9
590.905	1	2
592.094	1	10
593.283	1	3
594.471	1	9
595.660	1	7
596.848	1	2
598.037	1	3
599.225	1	5
600.413	1	-1
601.602	1	-1
602.790	1	9
603.978	1	1
605.166	1	7
606.355	1	9
607.543	1	8
608.731	1	0
609.919	1	-6
611.107	1	-9
612.295	1	-1
613.483	1	-5
614.671	1	13
615.858	1	-1
617.046	1	-9
618.234	1	5
619.422	1	-4
620.609	1	0
621.797	1	5
622.985	1	2
624.172	1	-5
625.360	1	-4
626.547	1	-11
627.735	1	-5
628.922	1	-3
630.109	1	1
631.297	1	1
632.484	1	-8
633.671	1	10
634.858	1	1
636.045	1	8
637.232	1	3
638.419	1	-6
639.606	1	-9
640.793	1	-4
641.980	1	-7
643.167	1	2
644.354	1	-4
645.541	1	14
646.728	1	7
647.914	1	0
649.101	1	3
650.288	1	2
651.474	1	5
652.661	1	2
653.847	1	-4
655.034	1	1
656.220	1	-8
657.406	1	3
658.593	1	3
659.779	1	5
660.965	1	14
662.152	1	0
663.338	1	6
664.524	1	5
665.710	1	0
666.896	1	-2
668.082	1	16
669.268	1	-10
670.454	1	-5
671.640	1	5
672.826	1	0
674.011	1	-2
675.197	1	2
676.383	1	-2
677.569	1	-4
678.754	1	10
679.940	1	10
681.125	1	7
682.311	1	0
683.496	1	7
684.682	1	4
685.867	1	7
687.053	1	-1
688.238	1	-2
688.746	1	-8