File: Data/GaN_170K_550ms/GaN_sample D_spot 18_UVVIS_170 K_200um_550 ms 2x2mm1_143.txt
340.368	1	-6
341.565	1	13
342.763	1	6
343.960	1	4
345.157	1	0
346.354	1	-1
347.552	1	7
348.749	1	9
349.946	1	5
351.143	1	5
352.340	1	9
353.537	1	13
354.734	1	7
355.931	1	2
357.127	1	7
358.324	1	18
359.521	1	17
360.718	1	9
361.914	1	15
363.111	1	26
364.308	1	21
365.504	1	29
366.701	1	34
367.897	1	35
369.093	1	30
370.290	1	27
371.486	1	22
372.682	1	38
373.879	1	29
375.075	1	22
376.271	1	23
377.467	1	12
378.663	1	14
379.859	1	10
381.055	1	10
382.251	1	-5
383.447	1	13
384.643	1	2
385.839	1	-8
387.035	1	7
388.230	1	11
389.426	1	14
390.622	1	5
391.817	1	4
393.013	1	-3
394.208	1	11
395.404	1	11
396.599	1	-6
397.795	1	-6
398.990	1	-6
400.186	1	0
401.381	1	14
402.576	1	2
403.771	1	5
404.967	1	4
406.162	1	3
407.357	1	2
408.552	1	-2
409.747	1	0
410.942	1	6
412.137	1	-5
413.332	1	-6
414.526	1	3
415.721	1	3
416.916	1	0
418.111	1	10
419.305	1	4
420.500	1	-2
421.695	1	-5
422.889	1	-4
424.084	1	23
425.278	1	6
426.472	1	2
427.667	1	4
428.861	1	10
430.055	1	9
431.250	1	15
432.444	1	1
433.638	1	7
434.832	1	3
436.026	1	5
437.220	1	4
438.414	1	-1
439.608	1	1
440.802	1	1
441.996	1	-1
443.190	1	9
444.384	1	5
445.578	1	8
446.771	1	-12
447.965	1	6
449.159	1	-4
450.352	1	-2
451.546	1	1
452.739	1	-1
453.933	1	1
455.126	1	6
456.320	1	4
457.513	1	11
458.706	1	3
459.899	1	-3
461.093	1	8
462.286	1	9
463.479	1	-5
464.672	1	-2
465.865	1	9
467.058	1	7
468.251	1	1
469.444	1	0
470.637	1	6
471.830	1	-1
473.023	1	6
474.215	1	-1
475.408	1	-5
476.601	1	3
477.793	1	7
478.986	1	-2
480.179	1	-4
481.371	1	-8
482.564	1	4
483.756	1	10
484.948	1	-1
486.141	1	8
487.333	1	-2
488.525	1	11
489.718	1	13
490.910	1	4
492.102	1	-3
493.294	1	-2
494.486	1	14
495.678	1	9
496.870	1	4
498.062	1	3
499.254	1	10
500.446	1	4
501.638	1	-1
502.829	1	3
504.021	1	8
505.213	1	-1
506.404	1	3
507.596	1	3
508.788	1	7
509.979	1	14
511.171	1	5
512.362	1	2
513.553	1	10
514.745	1	10
515.936	1	1
517.127	1	13
518.319	1	6
519.510	1	6
520.701	1	12
521.892	1	12
523.083	1	0
524.274	1	3
525.465	1	11
526.656	1	2
527.847	1	4
529.038	1	1
530.229	1	21
531.419	1	12
532.610	1	6
533.801	1	8
534.991	1	6
536.182	1	5
537.373	1	3
538.563	1	11
539.754	1	13
540.944	1	2
542.134	1	3
543.325	1	10
544.515	1	4
545.705	1	10
546.896	1	15
548.086	1	12
549.276	1	3
550.466	1	0
551.656	1	10
552.846	1	6
554.036	1	7
555.226	1	2
556.416	1	7
557.606	1	6
558.796	1	2
559.986	1	7
561.175	1	4
562.365	1	10
563.555	1	7
564.744	1	6
565.934	1	6
567.123	1	6
568.313	1	-3
569.502	1	2
570.692	1	13
571.881	1	3
573.070	1	2
574.260	1	5
575.449	1	-1
576.638	1	9
577.827	1	5
579.016	1	4
580.205	1	1
581.394	1	8
582.583	1	4
583.772	1	-3
584.961	1	0
586.150	1	3
587.339	1	7
588.528	1	-7
589.717	1	5
590.905	1	6
592.094	1	8
593.283	1	16
594.471	1	15
595.660	1	6
596.848	1	6
598.037	1	-1
599.225	1	5
600.413	1	7
601.602	1	-6
602.790	1	8
603.978	1	4
605.166	1	9
606.355	1	6
607.543	1	3
608.731	1	4
609.919	1	3
611.107	1	-4
612.295	1	1
613.483	1	5
614.671	1	10
615.858	1	1
617.046	1	1
618.234	1	-1
619.422	1	-11
620.609	1	2
621.797	1	4
622.985	1	8
624.172	1	8
625.360	1	-3
626.547	1	0
627.735	1	-13
628.922	1	-4
630.109	1	-7
631.297	1	4
632.484	1	-8
633.671	1	7
634.858	1	3
636.045	1	3
637.232	1	0
638.419	1	-3
639.606	1	-3
640.793	1	-4
641.980	1	1
643.167	1	-1
644.354	1	-1
645.541	1	7
646.728	1	8
647.914	1	3
649.101	1	0
650.288	1	5
651.474	1	7
652.661	1	0
653.847	1	-2
655.034	1	2
656.220	1	8
657.406	1	-2
658.593	1	6
659.779	1	4
660.965	1	10
662.152	1	8
663.338	1	8
664.524	1	11
665.710	1	4
666.896	1	2
668.082	1	12
669.268	1	3
670.454	1	-8
671.640	1	5
672.826	1	5
674.011	1	9
675.197	1	7
676.383	1	7
677.569	1	-9
678.754	1	7
679.940	1	9
681.125	1	-1
682.311	1	0
683.496	1	5
684.682	1	6
685.867	1	0
687.053	1	-4
688.238	1	-4
688.746	1	-12