File: Data/GaN_170K_550ms/GaN_sample D_spot 18_UVVIS_170 K_200um_550 ms 2x2mm1_217.txt
340.368	1	-5
341.565	1	5
342.763	1	-2
343.960	1	-5
345.157	1	-3
346.354	1	1
347.552	1	13
348.749	1	8
349.946	1	9
351.143	1	0
352.340	1	3
353.537	1	7
354.734	1	3
355.931	1	3
357.127	1	7
358.324	1	7
359.521	1	8
360.718	1	9
361.914	1	6
363.111	1	29
364.308	1	9
365.504	1	13
366.701	1	9
367.897	1	14
369.093	1	6
370.290	1	6
371.486	1	12
372.682	1	16
373.879	1	18
375.075	1	6
376.271	1	6
377.467	1	12
378.663	1	9
379.859	1	4
381.055	1	3
382.251	1	-1
383.447	1	15
384.643	1	3
385.839	1	-3
387.035	1	4
388.230	1	1
389.426	1	4
390.622	1	9
391.817	1	7
393.013	1	2
394.208	1	14
395.404	1	10
396.599	1	-9
397.795	1	2
398.990	1	-5
400.186	1	-2
401.381	1	11
402.576	1	0
403.771	1	3
404.967	1	2
406.162	1	2
407.357	1	1
408.552	1	-1
409.747	1	-2
410.942	1	11
412.137	1	2
413.332	1	1
414.526	1	4
415.721	1	-2
416.916	1	-4
418.111	1	2
419.305	1	2
420.500	1	4
421.695	1	-3
422.889	1	0
424.084	1	11
425.278	1	2
426.472	1	1
427.667	1	-2
428.861	1	0
430.055	1	1
431.250	1	11
432.444	1	5
433.638	1	10
434.832	1	4
436.026	1	0
437.220	1	9
438.414	1	-5
439.608	1	-7
440.802	1	8
441.996	1	-3
443.190	1	4
444.384	1	-3
445.578	1	12
446.771	1	-14
447.965	1	-4
449.159	1	1
450.352	1	-11
451.546	1	-9
452.739	1	-1
453.933	1	6
455.126	1	13
456.320	1	1
457.513	1	5
458.706	1	6
459.899	1	1
461.093	1	12
462.286	1	-6
463.479	1	0
464.672	1	-10
465.865	1	5
467.058	1	4
468.251	1	5
469.444	1	10
470.637	1	1
471.830	1	4
473.023	1	0
474.215	1	4
475.408	1	-5
476.601	1	6
477.793	1	13
478.986	1	1
480.179	1	-2
481.371	1	-1
482.564	1	-7
483.756	1	0
484.948	1	1
486.141	1	10
487.333	1	-6
488.525	1	5
489.718	1	14
490.910	1	-4
492.102	1	2
493.294	1	2
494.486	1	7
495.678	1	6
496.870	1	2
498.062	1	-9
499.254	1	9
500.446	1	-2
501.638	1	-11
502.829	1	6
504.021	1	10
505.213	1	-4
506.404	1	0
507.596	1	10
508.788	1	-4
509.979	1	7
511.171	1	4
512.362	1	1
513.553	1	-5
514.745	1	-4
515.936	1	2
517.127	1	6
518.319	1	2
519.510	1	9
520.701	1	5
521.892	1	0
523.083	1	3
524.274	1	0
525.465	1	7
526.656	1	11
527.847	1	1
529.038	1	5
530.229	1	8
531.419	1	12
532.610	1	1
533.801	1	6
534.991	1	7
536.182	1	0
537.373	1	0
538.563	1	2
539.754	1	9
540.944	1	4
542.134	1	3
543.325	1	1
544.515	1	1
545.705	1	11
546.896	1	5
548.086	1	3
549.276	1	3
550.466	1	-1
551.656	1	7
552.846	1	6
554.036	1	7
555.226	1	-4
556.416	1	0
557.606	1	10
558.796	1	2
559.986	1	-1
561.175	1	-7
562.365	1	4
563.555	1	-6
564.744	1	-1
565.934	1	5
567.123	1	5
568.313	1	-3
569.502	1	1
570.692	1	12
571.881	1	-10
573.070	1	-2
574.260	1	7
575.449	1	0
576.638	1	10
577.827	1	0
579.016	1	5
580.205	1	-4
581.394	1	6
582.583	1	-1
583.772	1	-3
584.961	1	3
586.150	1	-1
587.339	1	-3
588.528	1	2
589.717	1	9
590.905	1	9
592.094	1	10
593.283	1	2
594.471	1	12
595.660	1	5
596.848	1	2
598.037	1	-7
599.225	1	6
600.413	1	-10
601.602	1	3
602.790	1	13
603.978	1	-2
605.166	1	11
606.355	1	1
607.543	1	7
608.731	1	0
609.919	1	-3
611.107	1	-3
612.295	1	-5
613.483	1	-3
614.671	1	12
615.858	1	-4
617.046	1	0
618.234	1	1
619.422	1	-6
620.609	1	7
621.797	1	-1
622.985	1	12
624.172	1	-1
625.360	1	2
626.547	1	-4
627.735	1	-10
628.922	1	-9
630.109	1	7
631.297	1	4
632.484	1	4
633.671	1	4
634.858	1	-1
636.045	1	1
637.232	1	17
638.419	1	-3
639.606	1	-3
640.793	1	-7
641.980	1	-5
643.167	1	1
644.354	1	-2
645.541	1	3
646.728	1	-1
647.914	1	11
649.101	1	-4
650.288	1	8
651.474	1	3
652.661	1	-1
653.847	1	-5
655.034	1	-8
656.220	1	9
657.406	1	3
658.593	1	0
659.779	1	2
660.965	1	8
662.152	1	8
663.338	1	6
664.524	1	2
665.710	1	3
666.896	1	0
668.082	1	14
669.268	1	-4
670.454	1	-7
671.640	1	7
672.826	1	-5
674.011	1	4
675.197	1	4
676.383	1	8
677.569	1	-6
678.754	1	0
679.940	1	14
681.125	1	9
682.311	1	7
683.496	1	-3
684.682	1	5
685.867	1	6
687.053	1	-10
688.238	1	-8
688.746	1	-3