File: Data/GaN_170K_550ms/GaN_sample D_spot 18_UVVIS_170 K_200um_550 ms 2x2mm1_165.txt
340.368	1	-2
341.565	1	2
342.763	1	4
343.960	1	-2
345.157	1	-2
346.354	1	-3
347.552	1	7
348.749	1	4
349.946	1	8
351.143	1	-2
352.340	1	10
353.537	1	4
354.734	1	11
355.931	1	4
357.127	1	-3
358.324	1	5
359.521	1	9
360.718	1	-2
361.914	1	10
363.111	1	22
364.308	1	8
365.504	1	15
366.701	1	25
367.897	1	38
369.093	1	18
370.290	1	25
371.486	1	22
372.682	1	18
373.879	1	21
375.075	1	13
376.271	1	27
377.467	1	21
378.663	1	8
379.859	1	13
381.055	1	14
382.251	1	15
383.447	1	12
384.643	1	1
385.839	1	-9
387.035	1	7
388.230	1	6
389.426	1	10
390.622	1	-3
391.817	1	-2
393.013	1	4
394.208	1	5
395.404	1	7
396.599	1	1
397.795	1	10
398.990	1	-9
400.186	1	-2
401.381	1	3
402.576	1	1
403.771	1	5
404.967	1	-1
406.162	1	0
407.357	1	0
408.552	1	4
409.747	1	6
410.942	1	1
412.137	1	-11
413.332	1	-4
414.526	1	1
415.721	1	-6
416.916	1	-1
418.111	1	6
419.305	1	4
420.500	1	6
421.695	1	-15
422.889	1	-2
424.084	1	10
425.278	1	0
426.472	1	3
427.667	1	-3
428.861	1	2
430.055	1	4
431.250	1	9
432.444	1	7
433.638	1	5
434.832	1	7
436.026	1	-2
437.220	1	-6
438.414	1	-14
439.608	1	-4
440.802	1	4
441.996	1	1
443.190	1	3
444.384	1	1
445.578	1	11
446.771	1	-15
447.965	1	6
449.159	1	-6
450.352	1	4
451.546	1	-7
452.739	1	-2
453.933	1	3
455.126	1	17
456.320	1	-1
457.513	1	3
458.706	1	2
459.899	1	6
461.093	1	9
462.286	1	-4
463.479	1	-1
464.672	1	-6
465.865	1	-2
467.058	1	7
468.251	1	2
469.444	1	2
470.637	1	1
471.830	1	-1
473.023	1	-2
474.215	1	0
475.408	1	4
476.601	1	2
477.793	1	5
478.986	1	-7
480.179	1	-10
481.371	1	4
482.564	1	-1
483.756	1	3
484.948	1	2
486.141	1	13
487.333	1	-3
488.525	1	-4
489.718	1	15
490.910	1	8
492.102	1	-4
493.294	1	-6
494.486	1	13
495.678	1	2
496.870	1	0
498.062	1	1
499.254	1	4
500.446	1	-4
501.638	1	-8
502.829	1	2
504.021	1	6
505.213	1	-2
506.404	1	2
507.596	1	9
508.788	1	-2
509.979	1	9
511.171	1	14
512.362	1	0
513.553	1	-1
514.745	1	-2
515.936	1	-3
517.127	1	5
518.319	1	6
519.510	1	11
520.701	1	4
521.892	1	1
523.083	1	-2
524.274	1	5
525.465	1	5
526.656	1	7
527.847	1	2
529.038	1	2
530.229	1	19
531.419	1	17
532.610	1	9
533.801	1	7
534.991	1	7
536.182	1	7
537.373	1	6
538.563	1	5
539.754	1	5
540.944	1	2
542.134	1	2
543.325	1	7
544.515	1	-1
545.705	1	5
546.896	1	13
548.086	1	3
549.276	1	5
550.466	1	7
551.656	1	2
552.846	1	4
554.036	1	1
555.226	1	-6
556.416	1	1
557.606	1	6
558.796	1	-1
559.986	1	4
561.175	1	-1
562.365	1	-2
563.555	1	3
564.744	1	9
565.934	1	7
567.123	1	0
568.313	1	5
569.502	1	7
570.692	1	12
571.881	1	-8
573.070	1	2
574.260	1	8
575.449	1	1
576.638	1	5
577.827	1	3
579.016	1	5
580.205	1	1
581.394	1	9
582.583	1	-3
583.772	1	6
584.961	1	0
586.150	1	-7
587.339	1	-7
588.528	1	-2
589.717	1	5
590.905	1	15
592.094	1	8
593.283	1	3
594.471	1	7
595.660	1	-1
596.848	1	4
598.037	1	8
599.225	1	-6
600.413	1	0
601.602	1	5
602.790	1	4
603.978	1	5
605.166	1	10
606.355	1	11
607.543	1	4
608.731	1	1
609.919	1	-2
611.107	1	-7
612.295	1	0
613.483	1	1
614.671	1	4
615.858	1	15
617.046	1	-3
618.234	1	6
619.422	1	-8
620.609	1	4
621.797	1	10
622.985	1	12
624.172	1	3
625.360	1	3
626.547	1	-10
627.735	1	-21
628.922	1	-12
630.109	1	-1
631.297	1	-12
632.484	1	5
633.671	1	11
634.858	1	1
636.045	1	5
637.232	1	-5
638.419	1	-4
639.606	1	-3
640.793	1	-1
641.980	1	8
643.167	1	-3
644.354	1	8
645.541	1	1
646.728	1	8
647.914	1	10
649.101	1	-6
650.288	1	1
651.474	1	8
652.661	1	-5
653.847	1	-1
655.034	1	-14
656.220	1	4
657.406	1	-10
658.593	1	-8
659.779	1	5
660.965	1	9
662.152	1	-1
663.338	1	3
664.524	1	5
665.710	1	0
666.896	1	1
668.082	1	9
669.268	1	2
670.454	1	-7
671.640	1	7
672.826	1	-2
674.011	1	10
675.197	1	1
676.383	1	-1
677.569	1	-3
678.754	1	6
679.940	1	3
681.125	1	16
682.311	1	-2
683.496	1	-8
684.682	1	8
685.867	1	4
687.053	1	-9
688.238	1	0
688.746	1	-15