File: Data/GaN_170K_550ms/GaN_sample D_spot 18_UVVIS_170 K_200um_550 ms 2x2mm1_82.txt
340.368	1	0
341.565	1	9
342.763	1	3
343.960	1	-3
345.157	1	1
346.354	1	1
347.552	1	11
348.749	1	2
349.946	1	4
351.143	1	6
352.340	1	11
353.537	1	14
354.734	1	16
355.931	1	14
357.127	1	11
358.324	1	22
359.521	1	27
360.718	1	35
361.914	1	46
363.111	1	72
364.308	1	80
365.504	1	107
366.701	1	141
367.897	1	161
369.093	1	149
370.290	1	154
371.486	1	122
372.682	1	120
373.879	1	99
375.075	1	80
376.271	1	64
377.467	1	65
378.663	1	58
379.859	1	41
381.055	1	43
382.251	1	43
383.447	1	41
384.643	1	28
385.839	1	26
387.035	1	16
388.230	1	13
389.426	1	17
390.622	1	9
391.817	1	17
393.013	1	18
394.208	1	18
395.404	1	19
396.599	1	9
397.795	1	6
398.990	1	-3
400.186	1	5
401.381	1	24
402.576	1	7
403.771	1	16
404.967	1	5
406.162	1	4
407.357	1	-1
408.552	1	1
409.747	1	5
410.942	1	15
412.137	1	3
413.332	1	-1
414.526	1	10
415.721	1	2
416.916	1	4
418.111	1	2
419.305	1	4
420.500	1	10
421.695	1	-6
422.889	1	5
424.084	1	13
425.278	1	0
426.472	1	11
427.667	1	3
428.861	1	1
430.055	1	5
431.250	1	11
432.444	1	8
433.638	1	14
434.832	1	4
436.026	1	1
437.220	1	2
438.414	1	-2
439.608	1	2
440.802	1	6
441.996	1	-2
443.190	1	8
444.384	1	5
445.578	1	10
446.771	1	-4
447.965	1	3
449.159	1	-2
450.352	1	-7
451.546	1	-3
452.739	1	8
453.933	1	12
455.126	1	6
456.320	1	0
457.513	1	11
458.706	1	-2
459.899	1	-1
461.093	1	16
462.286	1	4
463.479	1	1
464.672	1	-1
465.865	1	14
467.058	1	11
468.251	1	2
469.444	1	0
470.637	1	4
471.830	1	-2
473.023	1	9
474.215	1	1
475.408	1	5
476.601	1	6
477.793	1	9
478.986	1	7
480.179	1	2
481.371	1	8
482.564	1	4
483.756	1	-1
484.948	1	-2
486.141	1	14
487.333	1	3
488.525	1	21
489.718	1	13
490.910	1	7
492.102	1	8
493.294	1	7
494.486	1	19
495.678	1	16
496.870	1	9
498.062	1	6
499.254	1	24
500.446	1	9
501.638	1	2
502.829	1	22
504.021	1	21
505.213	1	13
506.404	1	26
507.596	1	17
508.788	1	8
509.979	1	24
511.171	1	24
512.362	1	14
513.553	1	20
514.745	1	9
515.936	1	17
517.127	1	35
518.319	1	34
519.510	1	22
520.701	1	16
521.892	1	37
523.083	1	25
524.274	1	33
525.465	1	30
526.656	1	30
527.847	1	31
529.038	1	13
530.229	1	27
531.419	1	36
532.610	1	29
533.801	1	38
534.991	1	20
536.182	1	16
537.373	1	14
538.563	1	19
539.754	1	12
540.944	1	27
542.134	1	24
543.325	1	15
544.515	1	21
545.705	1	25
546.896	1	38
548.086	1	23
549.276	1	20
550.466	1	16
551.656	1	18
552.846	1	7
554.036	1	17
555.226	1	8
556.416	1	19
557.606	1	26
558.796	1	11
559.986	1	16
561.175	1	14
562.365	1	13
563.555	1	10
564.744	1	13
565.934	1	15
567.123	1	24
568.313	1	11
569.502	1	15
570.692	1	17
571.881	1	4
573.070	1	9
574.260	1	16
575.449	1	13
576.638	1	17
577.827	1	9
579.016	1	2
580.205	1	8
581.394	1	18
582.583	1	-1
583.772	1	10
584.961	1	10
586.150	1	6
587.339	1	10
588.528	1	7
589.717	1	8
590.905	1	12
592.094	1	15
593.283	1	14
594.471	1	16
595.660	1	10
596.848	1	9
598.037	1	10
599.225	1	11
600.413	1	-2
601.602	1	9
602.790	1	16
603.978	1	12
605.166	1	7
606.355	1	12
607.543	1	12
608.731	1	10
609.919	1	4
611.107	1	2
612.295	1	1
613.483	1	9
614.671	1	18
615.858	1	1
617.046	1	6
618.234	1	11
619.422	1	-8
620.609	1	4
621.797	1	-5
622.985	1	3
624.172	1	6
625.360	1	18
626.547	1	4
627.735	1	-6
628.922	1	6
630.109	1	-3
631.297	1	-4
632.484	1	2
633.671	1	11
634.858	1	3
636.045	1	9
637.232	1	0
638.419	1	-1
639.606	1	0
640.793	1	-7
641.980	1	7
643.167	1	2
644.354	1	7
645.541	1	5
646.728	1	1
647.914	1	18
649.101	1	7
650.288	1	4
651.474	1	16
652.661	1	-4
653.847	1	10
655.034	1	3
656.220	1	0
657.406	1	4
658.593	1	4
659.779	1	10
660.965	1	6
662.152	1	2
663.338	1	7
664.524	1	12
665.710	1	4
666.896	1	1
668.082	1	13
669.268	1	6
670.454	1	-4
671.640	1	12
672.826	1	-3
674.011	1	8
675.197	1	7
676.383	1	11
677.569	1	7
678.754	1	6
679.940	1	8
681.125	1	10
682.311	1	0
683.496	1	7
684.682	1	7
685.867	1	11
687.053	1	10
688.238	1	-2
688.746	1	-3