File: Data/GaN_170K_550ms/GaN_sample D_spot 18_UVVIS_170 K_200um_550 ms 2x2mm1_318.txt
340.368	1	5
341.565	1	17
342.763	1	4
343.960	1	-2
345.157	1	-1
346.354	1	-10
347.552	1	9
348.749	1	9
349.946	1	1
351.143	1	-3
352.340	1	6
353.537	1	-2
354.734	1	4
355.931	1	1
357.127	1	3
358.324	1	3
359.521	1	3
360.718	1	6
361.914	1	2
363.111	1	13
364.308	1	7
365.504	1	5
366.701	1	0
367.897	1	2
369.093	1	11
370.290	1	5
371.486	1	3
372.682	1	7
373.879	1	0
375.075	1	-3
376.271	1	10
377.467	1	7
378.663	1	8
379.859	1	3
381.055	1	-1
382.251	1	0
383.447	1	5
384.643	1	4
385.839	1	-3
387.035	1	4
388.230	1	0
389.426	1	-1
390.622	1	-3
391.817	1	12
393.013	1	-1
394.208	1	8
395.404	1	9
396.599	1	-7
397.795	1	-2
398.990	1	-11
400.186	1	-4
401.381	1	9
402.576	1	-3
403.771	1	-5
404.967	1	6
406.162	1	6
407.357	1	-2
408.552	1	-1
409.747	1	0
410.942	1	2
412.137	1	-6
413.332	1	-10
414.526	1	5
415.721	1	-5
416.916	1	0
418.111	1	2
419.305	1	0
420.500	1	-3
421.695	1	-9
422.889	1	7
424.084	1	11
425.278	1	-5
426.472	1	8
427.667	1	7
428.861	1	5
430.055	1	0
431.250	1	11
432.444	1	-2
433.638	1	2
434.832	1	4
436.026	1	-1
437.220	1	1
438.414	1	-14
439.608	1	-5
440.802	1	5
441.996	1	-12
443.190	1	-5
444.384	1	13
445.578	1	11
446.771	1	-16
447.965	1	-1
449.159	1	9
450.352	1	-8
451.546	1	-12
452.739	1	3
453.933	1	0
455.126	1	2
456.320	1	6
457.513	1	4
458.706	1	5
459.899	1	1
461.093	1	5
462.286	1	-4
463.479	1	-5
464.672	1	-8
465.865	1	2
467.058	1	1
468.251	1	-1
469.444	1	0
470.637	1	8
471.830	1	-5
473.023	1	7
474.215	1	-7
475.408	1	-4
476.601	1	-2
477.793	1	9
478.986	1	-1
480.179	1	0
481.371	1	-5
482.564	1	-3
483.756	1	1
484.948	1	-5
486.141	1	9
487.333	1	1
488.525	1	9
489.718	1	9
490.910	1	4
492.102	1	-1
493.294	1	-7
494.486	1	13
495.678	1	-5
496.870	1	0
498.062	1	2
499.254	1	10
500.446	1	-3
501.638	1	-6
502.829	1	0
504.021	1	6
505.213	1	-7
506.404	1	-4
507.596	1	3
508.788	1	-1
509.979	1	-1
511.171	1	4
512.362	1	-1
513.553	1	-1
514.745	1	-4
515.936	1	2
517.127	1	0
518.319	1	12
519.510	1	4
520.701	1	2
521.892	1	5
523.083	1	6
524.274	1	5
525.465	1	3
526.656	1	10
527.847	1	5
529.038	1	5
530.229	1	12
531.419	1	7
532.610	1	0
533.801	1	-2
534.991	1	-5
536.182	1	-3
537.373	1	-3
538.563	1	0
539.754	1	9
540.944	1	-8
542.134	1	-1
543.325	1	-3
544.515	1	-2
545.705	1	2
546.896	1	8
548.086	1	-7
549.276	1	4
550.466	1	1
551.656	1	-1
552.846	1	-3
554.036	1	7
555.226	1	-10
556.416	1	0
557.606	1	0
558.796	1	-2
559.986	1	11
561.175	1	-6
562.365	1	5
563.555	1	-2
564.744	1	0
565.934	1	-2
567.123	1	1
568.313	1	4
569.502	1	6
570.692	1	4
571.881	1	-5
573.070	1	1
574.260	1	1
575.449	1	5
576.638	1	7
577.827	1	-6
579.016	1	4
580.205	1	-10
581.394	1	-2
582.583	1	2
583.772	1	-9
584.961	1	-5
586.150	1	-3
587.339	1	0
588.528	1	4
589.717	1	-4
590.905	1	6
592.094	1	14
593.283	1	6
594.471	1	13
595.660	1	-3
596.848	1	-3
598.037	1	2
599.225	1	1
600.413	1	0
601.602	1	-5
602.790	1	8
603.978	1	4
605.166	1	8
606.355	1	15
607.543	1	10
608.731	1	0
609.919	1	3
611.107	1	-2
612.295	1	-4
613.483	1	-7
614.671	1	9
615.858	1	1
617.046	1	-2
618.234	1	6
619.422	1	-1
620.609	1	1
621.797	1	2
622.985	1	3
624.172	1	8
625.360	1	3
626.547	1	-6
627.735	1	-8
628.922	1	-6
630.109	1	2
631.297	1	-4
632.484	1	1
633.671	1	2
634.858	1	3
636.045	1	7
637.232	1	0
638.419	1	-8
639.606	1	-1
640.793	1	-14
641.980	1	-1
643.167	1	0
644.354	1	3
645.541	1	-4
646.728	1	-3
647.914	1	0
649.101	1	1
650.288	1	-9
651.474	1	4
652.661	1	11
653.847	1	2
655.034	1	-7
656.220	1	-1
657.406	1	1
658.593	1	-3
659.779	1	2
660.965	1	7
662.152	1	1
663.338	1	8
664.524	1	-3
665.710	1	-2
666.896	1	-3
668.082	1	10
669.268	1	-6
670.454	1	-10
671.640	1	1
672.826	1	-6
674.011	1	10
675.197	1	8
676.383	1	-4
677.569	1	-4
678.754	1	2
679.940	1	5
681.125	1	6
682.311	1	-2
683.496	1	3
684.682	1	4
685.867	1	6
687.053	1	-6
688.238	1	-1
688.746	1	-9