File: Data/GaN_170K_550ms/GaN_sample D_spot 18_UVVIS_170 K_200um_550 ms 2x2mm1_327.txt
340.368	1	-3
341.565	1	9
342.763	1	3
343.960	1	-2
345.157	1	-1
346.354	1	-4
347.552	1	14
348.749	1	9
349.946	1	12
351.143	1	0
352.340	1	9
353.537	1	-9
354.734	1	0
355.931	1	-2
357.127	1	-10
358.324	1	6
359.521	1	4
360.718	1	5
361.914	1	5
363.111	1	9
364.308	1	2
365.504	1	4
366.701	1	1
367.897	1	4
369.093	1	1
370.290	1	9
371.486	1	-1
372.682	1	16
373.879	1	8
375.075	1	2
376.271	1	1
377.467	1	0
378.663	1	-2
379.859	1	12
381.055	1	7
382.251	1	1
383.447	1	2
384.643	1	0
385.839	1	-5
387.035	1	3
388.230	1	5
389.426	1	8
390.622	1	0
391.817	1	-2
393.013	1	4
394.208	1	9
395.404	1	6
396.599	1	-9
397.795	1	0
398.990	1	-2
400.186	1	3
401.381	1	6
402.576	1	9
403.771	1	1
404.967	1	-7
406.162	1	6
407.357	1	8
408.552	1	3
409.747	1	-1
410.942	1	5
412.137	1	-9
413.332	1	-6
414.526	1	-2
415.721	1	-4
416.916	1	1
418.111	1	2
419.305	1	1
420.500	1	-8
421.695	1	-6
422.889	1	0
424.084	1	11
425.278	1	1
426.472	1	2
427.667	1	1
428.861	1	-1
430.055	1	9
431.250	1	13
432.444	1	9
433.638	1	9
434.832	1	-2
436.026	1	0
437.220	1	4
438.414	1	-5
439.608	1	-11
440.802	1	-1
441.996	1	1
443.190	1	0
444.384	1	1
445.578	1	10
446.771	1	-9
447.965	1	-1
449.159	1	-1
450.352	1	-2
451.546	1	-7
452.739	1	-3
453.933	1	-1
455.126	1	8
456.320	1	1
457.513	1	7
458.706	1	5
459.899	1	1
461.093	1	0
462.286	1	1
463.479	1	-8
464.672	1	-5
465.865	1	7
467.058	1	2
468.251	1	6
469.444	1	-4
470.637	1	-2
471.830	1	-3
473.023	1	1
474.215	1	3
475.408	1	-5
476.601	1	-1
477.793	1	-2
478.986	1	-3
480.179	1	-2
481.371	1	1
482.564	1	-12
483.756	1	4
484.948	1	-9
486.141	1	6
487.333	1	-4
488.525	1	7
489.718	1	5
490.910	1	5
492.102	1	-2
493.294	1	2
494.486	1	7
495.678	1	7
496.870	1	-2
498.062	1	1
499.254	1	7
500.446	1	4
501.638	1	-15
502.829	1	-4
504.021	1	6
505.213	1	1
506.404	1	4
507.596	1	4
508.788	1	-4
509.979	1	5
511.171	1	4
512.362	1	-9
513.553	1	-3
514.745	1	-5
515.936	1	-3
517.127	1	3
518.319	1	2
519.510	1	5
520.701	1	6
521.892	1	3
523.083	1	2
524.274	1	-3
525.465	1	4
526.656	1	3
527.847	1	-2
529.038	1	-2
530.229	1	9
531.419	1	2
532.610	1	1
533.801	1	7
534.991	1	-3
536.182	1	3
537.373	1	-1
538.563	1	6
539.754	1	1
540.944	1	-3
542.134	1	1
543.325	1	4
544.515	1	-5
545.705	1	-3
546.896	1	4
548.086	1	-1
549.276	1	6
550.466	1	-3
551.656	1	0
552.846	1	-7
554.036	1	5
555.226	1	-1
556.416	1	3
557.606	1	-2
558.796	1	-3
559.986	1	2
561.175	1	-9
562.365	1	2
563.555	1	-3
564.744	1	6
565.934	1	5
567.123	1	-1
568.313	1	0
569.502	1	2
570.692	1	10
571.881	1	1
573.070	1	-2
574.260	1	2
575.449	1	0
576.638	1	8
577.827	1	1
579.016	1	7
580.205	1	0
581.394	1	9
582.583	1	6
583.772	1	-6
584.961	1	1
586.150	1	-7
587.339	1	2
588.528	1	-3
589.717	1	10
590.905	1	4
592.094	1	1
593.283	1	3
594.471	1	1
595.660	1	-3
596.848	1	-2
598.037	1	-4
599.225	1	-9
600.413	1	-1
601.602	1	16
602.790	1	7
603.978	1	5
605.166	1	11
606.355	1	3
607.543	1	9
608.731	1	4
609.919	1	-5
611.107	1	-7
612.295	1	-1
613.483	1	-11
614.671	1	11
615.858	1	0
617.046	1	-6
618.234	1	6
619.422	1	-6
620.609	1	4
621.797	1	8
622.985	1	1
624.172	1	0
625.360	1	-1
626.547	1	-7
627.735	1	-4
628.922	1	-10
630.109	1	-3
631.297	1	-6
632.484	1	-2
633.671	1	5
634.858	1	-2
636.045	1	-1
637.232	1	1
638.419	1	-7
639.606	1	-4
640.793	1	-4
641.980	1	-1
643.167	1	1
644.354	1	7
645.541	1	0
646.728	1	6
647.914	1	-3
649.101	1	2
650.288	1	-1
651.474	1	8
652.661	1	5
653.847	1	-3
655.034	1	4
656.220	1	-5
657.406	1	-3
658.593	1	-3
659.779	1	-5
660.965	1	16
662.152	1	-6
663.338	1	10
664.524	1	-1
665.710	1	8
666.896	1	-1
668.082	1	8
669.268	1	2
670.454	1	-4
671.640	1	6
672.826	1	-5
674.011	1	3
675.197	1	-2
676.383	1	-3
677.569	1	-1
678.754	1	2
679.940	1	3
681.125	1	3
682.311	1	5
683.496	1	10
684.682	1	8
685.867	1	6
687.053	1	-5
688.238	1	-5
688.746	1	-7