File: Data/GaN_170K_550ms/GaN_sample D_spot 18_UVVIS_170 K_200um_550 ms 2x2mm1_98.txt
340.368	1	-1
341.565	1	6
342.763	1	9
343.960	1	0
345.157	1	4
346.354	1	0
347.552	1	3
348.749	1	2
349.946	1	11
351.143	1	5
352.340	1	6
353.537	1	8
354.734	1	7
355.931	1	7
357.127	1	8
358.324	1	24
359.521	1	19
360.718	1	23
361.914	1	30
363.111	1	49
364.308	1	48
365.504	1	69
366.701	1	79
367.897	1	83
369.093	1	85
370.290	1	90
371.486	1	75
372.682	1	69
373.879	1	65
375.075	1	47
376.271	1	39
377.467	1	44
378.663	1	39
379.859	1	23
381.055	1	26
382.251	1	28
383.447	1	24
384.643	1	10
385.839	1	4
387.035	1	22
388.230	1	8
389.426	1	10
390.622	1	7
391.817	1	19
393.013	1	4
394.208	1	18
395.404	1	20
396.599	1	0
397.795	1	2
398.990	1	0
400.186	1	0
401.381	1	15
402.576	1	-3
403.771	1	6
404.967	1	-1
406.162	1	10
407.357	1	-2
408.552	1	3
409.747	1	-1
410.942	1	6
412.137	1	-8
413.332	1	-4
414.526	1	5
415.721	1	1
416.916	1	-5
418.111	1	9
419.305	1	6
420.500	1	-3
421.695	1	-3
422.889	1	8
424.084	1	11
425.278	1	-2
426.472	1	7
427.667	1	14
428.861	1	2
430.055	1	3
431.250	1	12
432.444	1	15
433.638	1	7
434.832	1	2
436.026	1	4
437.220	1	0
438.414	1	-5
439.608	1	-2
440.802	1	13
441.996	1	1
443.190	1	-4
444.384	1	5
445.578	1	-2
446.771	1	-2
447.965	1	7
449.159	1	-5
450.352	1	-4
451.546	1	-5
452.739	1	3
453.933	1	4
455.126	1	7
456.320	1	6
457.513	1	12
458.706	1	10
459.899	1	0
461.093	1	11
462.286	1	0
463.479	1	2
464.672	1	1
465.865	1	-1
467.058	1	17
468.251	1	3
469.444	1	-1
470.637	1	6
471.830	1	-3
473.023	1	9
474.215	1	3
475.408	1	-1
476.601	1	10
477.793	1	16
478.986	1	-8
480.179	1	-5
481.371	1	8
482.564	1	10
483.756	1	8
484.948	1	-2
486.141	1	14
487.333	1	1
488.525	1	7
489.718	1	12
490.910	1	8
492.102	1	9
493.294	1	0
494.486	1	15
495.678	1	10
496.870	1	8
498.062	1	6
499.254	1	9
500.446	1	3
501.638	1	-2
502.829	1	5
504.021	1	11
505.213	1	-1
506.404	1	19
507.596	1	16
508.788	1	15
509.979	1	12
511.171	1	20
512.362	1	3
513.553	1	16
514.745	1	12
515.936	1	11
517.127	1	15
518.319	1	21
519.510	1	17
520.701	1	19
521.892	1	7
523.083	1	6
524.274	1	10
525.465	1	11
526.656	1	24
527.847	1	17
529.038	1	11
530.229	1	24
531.419	1	21
532.610	1	25
533.801	1	24
534.991	1	12
536.182	1	18
537.373	1	2
538.563	1	16
539.754	1	9
540.944	1	10
542.134	1	16
543.325	1	10
544.515	1	13
545.705	1	17
546.896	1	15
548.086	1	12
549.276	1	11
550.466	1	22
551.656	1	13
552.846	1	9
554.036	1	14
555.226	1	8
556.416	1	1
557.606	1	12
558.796	1	8
559.986	1	19
561.175	1	3
562.365	1	9
563.555	1	3
564.744	1	12
565.934	1	10
567.123	1	4
568.313	1	13
569.502	1	10
570.692	1	21
571.881	1	1
573.070	1	8
574.260	1	13
575.449	1	8
576.638	1	12
577.827	1	11
579.016	1	15
580.205	1	7
581.394	1	7
582.583	1	2
583.772	1	10
584.961	1	7
586.150	1	-1
587.339	1	7
588.528	1	2
589.717	1	4
590.905	1	16
592.094	1	11
593.283	1	5
594.471	1	16
595.660	1	4
596.848	1	6
598.037	1	1
599.225	1	2
600.413	1	-2
601.602	1	12
602.790	1	7
603.978	1	4
605.166	1	9
606.355	1	13
607.543	1	7
608.731	1	2
609.919	1	6
611.107	1	1
612.295	1	8
613.483	1	-3
614.671	1	15
615.858	1	-4
617.046	1	-2
618.234	1	5
619.422	1	-3
620.609	1	8
621.797	1	4
622.985	1	6
624.172	1	-3
625.360	1	2
626.547	1	-4
627.735	1	-5
628.922	1	-4
630.109	1	5
631.297	1	3
632.484	1	4
633.671	1	8
634.858	1	2
636.045	1	5
637.232	1	6
638.419	1	-1
639.606	1	-5
640.793	1	8
641.980	1	3
643.167	1	6
644.354	1	-4
645.541	1	13
646.728	1	0
647.914	1	0
649.101	1	-1
650.288	1	-3
651.474	1	-3
652.661	1	1
653.847	1	8
655.034	1	-3
656.220	1	3
657.406	1	-1
658.593	1	2
659.779	1	0
660.965	1	18
662.152	1	4
663.338	1	8
664.524	1	9
665.710	1	-4
666.896	1	10
668.082	1	11
669.268	1	3
670.454	1	1
671.640	1	8
672.826	1	6
674.011	1	12
675.197	1	7
676.383	1	5
677.569	1	-5
678.754	1	11
679.940	1	23
681.125	1	10
682.311	1	2
683.496	1	8
684.682	1	5
685.867	1	3
687.053	1	1
688.238	1	5
688.746	1	2