File: Data/GaN_170K_550ms/GaN_sample D_spot 18_UVVIS_170 K_200um_550 ms 2x2mm1_385.txt
340.368	1	-3
341.565	1	0
342.763	1	5
343.960	1	-4
345.157	1	-9
346.354	1	-8
347.552	1	12
348.749	1	3
349.946	1	7
351.143	1	-1
352.340	1	-2
353.537	1	6
354.734	1	-1
355.931	1	-7
357.127	1	-1
358.324	1	4
359.521	1	2
360.718	1	5
361.914	1	-3
363.111	1	12
364.308	1	-1
365.504	1	0
366.701	1	1
367.897	1	-1
369.093	1	-21
370.290	1	-2
371.486	1	-11
372.682	1	4
373.879	1	2
375.075	1	-4
376.271	1	2
377.467	1	0
378.663	1	7
379.859	1	0
381.055	1	-3
382.251	1	5
383.447	1	0
384.643	1	0
385.839	1	0
387.035	1	-6
388.230	1	-4
389.426	1	6
390.622	1	-6
391.817	1	0
393.013	1	-9
394.208	1	-8
395.404	1	6
396.599	1	-9
397.795	1	-2
398.990	1	-6
400.186	1	0
401.381	1	4
402.576	1	3
403.771	1	4
404.967	1	5
406.162	1	-3
407.357	1	-7
408.552	1	-14
409.747	1	-1
410.942	1	-6
412.137	1	-5
413.332	1	-13
414.526	1	-1
415.721	1	-5
416.916	1	-4
418.111	1	3
419.305	1	-5
420.500	1	2
421.695	1	-8
422.889	1	-3
424.084	1	17
425.278	1	1
426.472	1	-3
427.667	1	-2
428.861	1	0
430.055	1	-4
431.250	1	12
432.444	1	4
433.638	1	3
434.832	1	6
436.026	1	-9
437.220	1	-4
438.414	1	-11
439.608	1	-6
440.802	1	5
441.996	1	-7
443.190	1	4
444.384	1	-5
445.578	1	1
446.771	1	-10
447.965	1	-5
449.159	1	-8
450.352	1	-7
451.546	1	-12
452.739	1	2
453.933	1	3
455.126	1	4
456.320	1	-5
457.513	1	1
458.706	1	12
459.899	1	5
461.093	1	7
462.286	1	-6
463.479	1	-8
464.672	1	2
465.865	1	3
467.058	1	2
468.251	1	5
469.444	1	-6
470.637	1	-8
471.830	1	-4
473.023	1	7
474.215	1	0
475.408	1	-2
476.601	1	-3
477.793	1	-2
478.986	1	-2
480.179	1	-7
481.371	1	1
482.564	1	-7
483.756	1	5
484.948	1	2
486.141	1	9
487.333	1	-12
488.525	1	4
489.718	1	5
490.910	1	5
492.102	1	-1
493.294	1	-1
494.486	1	5
495.678	1	4
496.870	1	-1
498.062	1	-8
499.254	1	6
500.446	1	-4
501.638	1	-13
502.829	1	4
504.021	1	-2
505.213	1	2
506.404	1	-10
507.596	1	2
508.788	1	-18
509.979	1	-7
511.171	1	-4
512.362	1	-5
513.553	1	-8
514.745	1	-12
515.936	1	-1
517.127	1	7
518.319	1	0
519.510	1	9
520.701	1	0
521.892	1	0
523.083	1	-2
524.274	1	-3
525.465	1	2
526.656	1	5
527.847	1	-4
529.038	1	2
530.229	1	12
531.419	1	4
532.610	1	-2
533.801	1	-3
534.991	1	-10
536.182	1	-5
537.373	1	-5
538.563	1	-1
539.754	1	-5
540.944	1	-5
542.134	1	-6
543.325	1	-7
544.515	1	-4
545.705	1	-8
546.896	1	1
548.086	1	-3
549.276	1	-5
550.466	1	1
551.656	1	-1
552.846	1	-4
554.036	1	-11
555.226	1	-12
556.416	1	1
557.606	1	7
558.796	1	5
559.986	1	3
561.175	1	-2
562.365	1	-3
563.555	1	-6
564.744	1	0
565.934	1	3
567.123	1	2
568.313	1	-8
569.502	1	-1
570.692	1	7
571.881	1	-16
573.070	1	0
574.260	1	7
575.449	1	-5
576.638	1	-4
577.827	1	-2
579.016	1	1
580.205	1	-14
581.394	1	-2
582.583	1	-5
583.772	1	-1
584.961	1	8
586.150	1	-14
587.339	1	3
588.528	1	-2
589.717	1	0
590.905	1	3
592.094	1	0
593.283	1	2
594.471	1	13
595.660	1	-4
596.848	1	3
598.037	1	-4
599.225	1	-4
600.413	1	-8
601.602	1	-4
602.790	1	4
603.978	1	-3
605.166	1	14
606.355	1	-3
607.543	1	-1
608.731	1	2
609.919	1	-6
611.107	1	-3
612.295	1	-4
613.483	1	-3
614.671	1	2
615.858	1	-5
617.046	1	-13
618.234	1	-6
619.422	1	-6
620.609	1	2
621.797	1	0
622.985	1	-2
624.172	1	-8
625.360	1	-2
626.547	1	-12
627.735	1	-13
628.922	1	0
630.109	1	-7
631.297	1	-4
632.484	1	-5
633.671	1	10
634.858	1	-9
636.045	1	14
637.232	1	2
638.419	1	-5
639.606	1	-16
640.793	1	-6
641.980	1	-2
643.167	1	2
644.354	1	-4
645.541	1	3
646.728	1	-5
647.914	1	0
649.101	1	1
650.288	1	5
651.474	1	-1
652.661	1	-3
653.847	1	0
655.034	1	-3
656.220	1	4
657.406	1	1
658.593	1	-6
659.779	1	1
660.965	1	10
662.152	1	-3
663.338	1	3
664.524	1	2
665.710	1	-3
666.896	1	-4
668.082	1	-3
669.268	1	-6
670.454	1	-7
671.640	1	1
672.826	1	0
674.011	1	0
675.197	1	-1
676.383	1	-8
677.569	1	-11
678.754	1	0
679.940	1	4
681.125	1	1
682.311	1	-6
683.496	1	2
684.682	1	0
685.867	1	11
687.053	1	-7
688.238	1	-9
688.746	1	-4