File: Data/GaN_170K_550ms/GaN_sample D_spot 18_UVVIS_170 K_200um_550 ms 2x2mm1_367.txt
340.368	1	3
341.565	1	4
342.763	1	-2
343.960	1	-5
345.157	1	-5
346.354	1	-1
347.552	1	6
348.749	1	8
349.946	1	2
351.143	1	-2
352.340	1	0
353.537	1	-5
354.734	1	8
355.931	1	-5
357.127	1	-4
358.324	1	4
359.521	1	-1
360.718	1	3
361.914	1	2
363.111	1	5
364.308	1	8
365.504	1	0
366.701	1	7
367.897	1	3
369.093	1	-4
370.290	1	3
371.486	1	-5
372.682	1	3
373.879	1	3
375.075	1	6
376.271	1	3
377.467	1	3
378.663	1	-6
379.859	1	-5
381.055	1	-1
382.251	1	1
383.447	1	7
384.643	1	-1
385.839	1	-1
387.035	1	2
388.230	1	1
389.426	1	3
390.622	1	-1
391.817	1	-4
393.013	1	-5
394.208	1	4
395.404	1	5
396.599	1	-4
397.795	1	-8
398.990	1	-2
400.186	1	-5
401.381	1	2
402.576	1	-8
403.771	1	-4
404.967	1	1
406.162	1	2
407.357	1	-5
408.552	1	5
409.747	1	-6
410.942	1	5
412.137	1	-8
413.332	1	-1
414.526	1	-2
415.721	1	2
416.916	1	-12
418.111	1	9
419.305	1	-6
420.500	1	2
421.695	1	-12
422.889	1	-4
424.084	1	20
425.278	1	-1
426.472	1	-6
427.667	1	10
428.861	1	4
430.055	1	-4
431.250	1	10
432.444	1	6
433.638	1	7
434.832	1	3
436.026	1	3
437.220	1	-10
438.414	1	-6
439.608	1	-3
440.802	1	6
441.996	1	2
443.190	1	-5
444.384	1	-1
445.578	1	4
446.771	1	-6
447.965	1	1
449.159	1	-1
450.352	1	-3
451.546	1	-14
452.739	1	2
453.933	1	5
455.126	1	12
456.320	1	-1
457.513	1	5
458.706	1	4
459.899	1	1
461.093	1	2
462.286	1	-7
463.479	1	4
464.672	1	-1
465.865	1	2
467.058	1	7
468.251	1	1
469.444	1	0
470.637	1	-2
471.830	1	2
473.023	1	-3
474.215	1	0
475.408	1	-4
476.601	1	4
477.793	1	8
478.986	1	-2
480.179	1	-8
481.371	1	-1
482.564	1	-1
483.756	1	-1
484.948	1	1
486.141	1	8
487.333	1	-1
488.525	1	3
489.718	1	3
490.910	1	0
492.102	1	3
493.294	1	-1
494.486	1	3
495.678	1	0
496.870	1	-10
498.062	1	-5
499.254	1	8
500.446	1	3
501.638	1	2
502.829	1	1
504.021	1	-1
505.213	1	5
506.404	1	-1
507.596	1	6
508.788	1	-8
509.979	1	8
511.171	1	9
512.362	1	-7
513.553	1	-1
514.745	1	-1
515.936	1	0
517.127	1	8
518.319	1	8
519.510	1	-2
520.701	1	9
521.892	1	-8
523.083	1	-1
524.274	1	-3
525.465	1	5
526.656	1	17
527.847	1	0
529.038	1	-11
530.229	1	7
531.419	1	8
532.610	1	0
533.801	1	2
534.991	1	-2
536.182	1	-3
537.373	1	-2
538.563	1	-1
539.754	1	3
540.944	1	-5
542.134	1	-9
543.325	1	-5
544.515	1	3
545.705	1	4
546.896	1	2
548.086	1	10
549.276	1	5
550.466	1	0
551.656	1	6
552.846	1	1
554.036	1	0
555.226	1	-4
556.416	1	-1
557.606	1	10
558.796	1	-3
559.986	1	3
561.175	1	-1
562.365	1	-6
563.555	1	-4
564.744	1	7
565.934	1	-2
567.123	1	-1
568.313	1	-2
569.502	1	2
570.692	1	16
571.881	1	-5
573.070	1	-3
574.260	1	8
575.449	1	2
576.638	1	-5
577.827	1	-13
579.016	1	-1
580.205	1	-3
581.394	1	5
582.583	1	1
583.772	1	-3
584.961	1	-1
586.150	1	-5
587.339	1	0
588.528	1	-1
589.717	1	2
590.905	1	11
592.094	1	1
593.283	1	-6
594.471	1	1
595.660	1	2
596.848	1	4
598.037	1	-4
599.225	1	-2
600.413	1	-8
601.602	1	-5
602.790	1	6
603.978	1	-2
605.166	1	0
606.355	1	6
607.543	1	9
608.731	1	3
609.919	1	-3
611.107	1	-4
612.295	1	-11
613.483	1	-4
614.671	1	6
615.858	1	-2
617.046	1	-6
618.234	1	-2
619.422	1	-6
620.609	1	11
621.797	1	-4
622.985	1	4
624.172	1	-2
625.360	1	3
626.547	1	-5
627.735	1	0
628.922	1	-6
630.109	1	1
631.297	1	-4
632.484	1	4
633.671	1	-2
634.858	1	2
636.045	1	6
637.232	1	3
638.419	1	-3
639.606	1	-1
640.793	1	-3
641.980	1	-7
643.167	1	-1
644.354	1	-1
645.541	1	-4
646.728	1	-2
647.914	1	-9
649.101	1	2
650.288	1	-2
651.474	1	-1
652.661	1	-6
653.847	1	0
655.034	1	-2
656.220	1	-2
657.406	1	-8
658.593	1	-5
659.779	1	-2
660.965	1	5
662.152	1	-4
663.338	1	1
664.524	1	-1
665.710	1	2
666.896	1	5
668.082	1	10
669.268	1	-2
670.454	1	-11
671.640	1	3
672.826	1	-3
674.011	1	9
675.197	1	8
676.383	1	2
677.569	1	-7
678.754	1	4
679.940	1	1
681.125	1	5
682.311	1	4
683.496	1	0
684.682	1	1
685.867	1	0
687.053	1	-12
688.238	1	-2
688.746	1	-14