File: Data/GaN_170K_550ms/GaN_sample D_spot 18_UVVIS_170 K_200um_550 ms 2x2mm1_215.txt
340.368	1	-1
341.565	1	8
342.763	1	-8
343.960	1	5
345.157	1	-6
346.354	1	-2
347.552	1	9
348.749	1	4
349.946	1	2
351.143	1	4
352.340	1	12
353.537	1	4
354.734	1	9
355.931	1	3
357.127	1	-2
358.324	1	9
359.521	1	6
360.718	1	13
361.914	1	7
363.111	1	8
364.308	1	7
365.504	1	6
366.701	1	20
367.897	1	14
369.093	1	10
370.290	1	19
371.486	1	8
372.682	1	13
373.879	1	21
375.075	1	10
376.271	1	12
377.467	1	10
378.663	1	-2
379.859	1	8
381.055	1	5
382.251	1	-5
383.447	1	18
384.643	1	5
385.839	1	3
387.035	1	-1
388.230	1	7
389.426	1	4
390.622	1	-6
391.817	1	1
393.013	1	-3
394.208	1	10
395.404	1	9
396.599	1	9
397.795	1	-1
398.990	1	-6
400.186	1	0
401.381	1	18
402.576	1	-3
403.771	1	-1
404.967	1	2
406.162	1	7
407.357	1	-2
408.552	1	-2
409.747	1	3
410.942	1	5
412.137	1	-5
413.332	1	1
414.526	1	3
415.721	1	-1
416.916	1	-9
418.111	1	2
419.305	1	3
420.500	1	1
421.695	1	-8
422.889	1	0
424.084	1	20
425.278	1	8
426.472	1	2
427.667	1	0
428.861	1	-3
430.055	1	2
431.250	1	11
432.444	1	3
433.638	1	10
434.832	1	13
436.026	1	2
437.220	1	2
438.414	1	-9
439.608	1	2
440.802	1	4
441.996	1	-5
443.190	1	-4
444.384	1	-10
445.578	1	8
446.771	1	-8
447.965	1	7
449.159	1	-1
450.352	1	4
451.546	1	-1
452.739	1	9
453.933	1	2
455.126	1	16
456.320	1	-2
457.513	1	3
458.706	1	7
459.899	1	0
461.093	1	8
462.286	1	-8
463.479	1	-2
464.672	1	-7
465.865	1	-3
467.058	1	5
468.251	1	0
469.444	1	-1
470.637	1	1
471.830	1	-9
473.023	1	-2
474.215	1	4
475.408	1	-11
476.601	1	2
477.793	1	11
478.986	1	-1
480.179	1	-6
481.371	1	-3
482.564	1	0
483.756	1	4
484.948	1	-7
486.141	1	15
487.333	1	-3
488.525	1	6
489.718	1	5
490.910	1	6
492.102	1	-5
493.294	1	-1
494.486	1	4
495.678	1	7
496.870	1	-2
498.062	1	-2
499.254	1	14
500.446	1	0
501.638	1	-5
502.829	1	2
504.021	1	3
505.213	1	8
506.404	1	0
507.596	1	12
508.788	1	-2
509.979	1	0
511.171	1	2
512.362	1	-3
513.553	1	-11
514.745	1	-2
515.936	1	-6
517.127	1	10
518.319	1	10
519.510	1	2
520.701	1	12
521.892	1	-1
523.083	1	1
524.274	1	1
525.465	1	5
526.656	1	11
527.847	1	0
529.038	1	-3
530.229	1	16
531.419	1	8
532.610	1	8
533.801	1	-2
534.991	1	2
536.182	1	-2
537.373	1	1
538.563	1	4
539.754	1	-3
540.944	1	-4
542.134	1	3
543.325	1	9
544.515	1	4
545.705	1	7
546.896	1	10
548.086	1	1
549.276	1	-2
550.466	1	1
551.656	1	3
552.846	1	-1
554.036	1	-1
555.226	1	-12
556.416	1	2
557.606	1	-3
558.796	1	-6
559.986	1	3
561.175	1	2
562.365	1	5
563.555	1	2
564.744	1	4
565.934	1	4
567.123	1	5
568.313	1	2
569.502	1	7
570.692	1	8
571.881	1	-3
573.070	1	-5
574.260	1	5
575.449	1	8
576.638	1	6
577.827	1	2
579.016	1	7
580.205	1	-1
581.394	1	-1
582.583	1	-6
583.772	1	6
584.961	1	6
586.150	1	5
587.339	1	-4
588.528	1	1
589.717	1	11
590.905	1	4
592.094	1	6
593.283	1	1
594.471	1	4
595.660	1	-5
596.848	1	5
598.037	1	0
599.225	1	11
600.413	1	4
601.602	1	1
602.790	1	10
603.978	1	4
605.166	1	7
606.355	1	4
607.543	1	18
608.731	1	4
609.919	1	0
611.107	1	7
612.295	1	0
613.483	1	-4
614.671	1	10
615.858	1	-7
617.046	1	-9
618.234	1	-3
619.422	1	-10
620.609	1	10
621.797	1	8
622.985	1	4
624.172	1	6
625.360	1	7
626.547	1	1
627.735	1	-10
628.922	1	-8
630.109	1	5
631.297	1	-6
632.484	1	-4
633.671	1	8
634.858	1	2
636.045	1	3
637.232	1	4
638.419	1	-4
639.606	1	-6
640.793	1	4
641.980	1	-5
643.167	1	1
644.354	1	3
645.541	1	-1
646.728	1	7
647.914	1	6
649.101	1	1
650.288	1	1
651.474	1	13
652.661	1	-2
653.847	1	4
655.034	1	-8
656.220	1	-2
657.406	1	-7
658.593	1	3
659.779	1	7
660.965	1	8
662.152	1	9
663.338	1	4
664.524	1	-1
665.710	1	-4
666.896	1	-1
668.082	1	9
669.268	1	-8
670.454	1	-10
671.640	1	13
672.826	1	3
674.011	1	7
675.197	1	1
676.383	1	8
677.569	1	-5
678.754	1	8
679.940	1	7
681.125	1	11
682.311	1	2
683.496	1	3
684.682	1	9
685.867	1	1
687.053	1	-7
688.238	1	-4
688.746	1	-3