File: Data/GaN_170K_550ms/GaN_sample D_spot 18_UVVIS_170 K_200um_550 ms 2x2mm1_86.txt
340.368	1	-2
341.565	1	11
342.763	1	0
343.960	1	-3
345.157	1	1
346.354	1	-2
347.552	1	14
348.749	1	16
349.946	1	6
351.143	1	4
352.340	1	7
353.537	1	11
354.734	1	17
355.931	1	12
357.127	1	18
358.324	1	21
359.521	1	22
360.718	1	34
361.914	1	44
363.111	1	70
364.308	1	71
365.504	1	91
366.701	1	118
367.897	1	141
369.093	1	139
370.290	1	132
371.486	1	109
372.682	1	98
373.879	1	84
375.075	1	65
376.271	1	61
377.467	1	68
378.663	1	43
379.859	1	27
381.055	1	30
382.251	1	25
383.447	1	34
384.643	1	22
385.839	1	7
387.035	1	21
388.230	1	19
389.426	1	11
390.622	1	4
391.817	1	20
393.013	1	14
394.208	1	16
395.404	1	8
396.599	1	-1
397.795	1	3
398.990	1	3
400.186	1	0
401.381	1	18
402.576	1	7
403.771	1	10
404.967	1	8
406.162	1	8
407.357	1	5
408.552	1	3
409.747	1	7
410.942	1	-3
412.137	1	-7
413.332	1	-2
414.526	1	7
415.721	1	-1
416.916	1	-7
418.111	1	11
419.305	1	8
420.500	1	-7
421.695	1	-12
422.889	1	3
424.084	1	11
425.278	1	3
426.472	1	1
427.667	1	10
428.861	1	5
430.055	1	4
431.250	1	15
432.444	1	5
433.638	1	12
434.832	1	9
436.026	1	2
437.220	1	4
438.414	1	-4
439.608	1	0
440.802	1	12
441.996	1	4
443.190	1	4
444.384	1	11
445.578	1	10
446.771	1	-14
447.965	1	6
449.159	1	-2
450.352	1	1
451.546	1	-6
452.739	1	13
453.933	1	9
455.126	1	9
456.320	1	2
457.513	1	17
458.706	1	8
459.899	1	12
461.093	1	8
462.286	1	-3
463.479	1	7
464.672	1	7
465.865	1	4
467.058	1	8
468.251	1	2
469.444	1	5
470.637	1	5
471.830	1	8
473.023	1	7
474.215	1	7
475.408	1	-6
476.601	1	4
477.793	1	6
478.986	1	3
480.179	1	0
481.371	1	8
482.564	1	2
483.756	1	8
484.948	1	4
486.141	1	19
487.333	1	5
488.525	1	25
489.718	1	24
490.910	1	8
492.102	1	14
493.294	1	14
494.486	1	14
495.678	1	7
496.870	1	10
498.062	1	11
499.254	1	23
500.446	1	9
501.638	1	10
502.829	1	18
504.021	1	20
505.213	1	6
506.404	1	19
507.596	1	15
508.788	1	11
509.979	1	18
511.171	1	24
512.362	1	22
513.553	1	14
514.745	1	14
515.936	1	22
517.127	1	21
518.319	1	19
519.510	1	25
520.701	1	19
521.892	1	38
523.083	1	27
524.274	1	18
525.465	1	14
526.656	1	29
527.847	1	27
529.038	1	17
530.229	1	27
531.419	1	31
532.610	1	33
533.801	1	25
534.991	1	12
536.182	1	19
537.373	1	26
538.563	1	17
539.754	1	19
540.944	1	6
542.134	1	7
543.325	1	23
544.515	1	14
545.705	1	27
546.896	1	20
548.086	1	21
549.276	1	22
550.466	1	10
551.656	1	13
552.846	1	14
554.036	1	16
555.226	1	8
556.416	1	18
557.606	1	25
558.796	1	6
559.986	1	8
561.175	1	7
562.365	1	12
563.555	1	8
564.744	1	17
565.934	1	17
567.123	1	9
568.313	1	12
569.502	1	20
570.692	1	18
571.881	1	18
573.070	1	11
574.260	1	16
575.449	1	14
576.638	1	16
577.827	1	14
579.016	1	5
580.205	1	13
581.394	1	12
582.583	1	9
583.772	1	4
584.961	1	13
586.150	1	1
587.339	1	11
588.528	1	2
589.717	1	12
590.905	1	13
592.094	1	16
593.283	1	6
594.471	1	7
595.660	1	5
596.848	1	4
598.037	1	3
599.225	1	9
600.413	1	-4
601.602	1	8
602.790	1	15
603.978	1	11
605.166	1	15
606.355	1	9
607.543	1	5
608.731	1	12
609.919	1	6
611.107	1	0
612.295	1	10
613.483	1	0
614.671	1	11
615.858	1	2
617.046	1	2
618.234	1	2
619.422	1	-6
620.609	1	11
621.797	1	5
622.985	1	8
624.172	1	3
625.360	1	2
626.547	1	-4
627.735	1	-13
628.922	1	-11
630.109	1	5
631.297	1	-4
632.484	1	-8
633.671	1	3
634.858	1	-1
636.045	1	14
637.232	1	3
638.419	1	1
639.606	1	4
640.793	1	9
641.980	1	2
643.167	1	8
644.354	1	8
645.541	1	8
646.728	1	10
647.914	1	5
649.101	1	2
650.288	1	6
651.474	1	18
652.661	1	7
653.847	1	9
655.034	1	-2
656.220	1	3
657.406	1	3
658.593	1	2
659.779	1	7
660.965	1	12
662.152	1	-1
663.338	1	3
664.524	1	1
665.710	1	4
666.896	1	-1
668.082	1	12
669.268	1	-10
670.454	1	-14
671.640	1	3
672.826	1	6
674.011	1	17
675.197	1	14
676.383	1	8
677.569	1	2
678.754	1	2
679.940	1	10
681.125	1	5
682.311	1	3
683.496	1	8
684.682	1	11
685.867	1	4
687.053	1	-5
688.238	1	-11
688.746	1	-9