File: Data/GaN_170K_550ms/GaN_sample D_spot 18_UVVIS_170 K_200um_550 ms 2x2mm1_190.txt
340.368	1	3
341.565	1	9
342.763	1	7
343.960	1	2
345.157	1	-3
346.354	1	-3
347.552	1	9
348.749	1	6
349.946	1	6
351.143	1	5
352.340	1	4
353.537	1	7
354.734	1	5
355.931	1	2
357.127	1	1
358.324	1	11
359.521	1	9
360.718	1	13
361.914	1	9
363.111	1	25
364.308	1	18
365.504	1	9
366.701	1	24
367.897	1	17
369.093	1	20
370.290	1	14
371.486	1	10
372.682	1	18
373.879	1	17
375.075	1	11
376.271	1	14
377.467	1	8
378.663	1	8
379.859	1	6
381.055	1	-1
382.251	1	9
383.447	1	16
384.643	1	3
385.839	1	4
387.035	1	11
388.230	1	2
389.426	1	6
390.622	1	2
391.817	1	2
393.013	1	1
394.208	1	12
395.404	1	-1
396.599	1	-1
397.795	1	-3
398.990	1	-9
400.186	1	9
401.381	1	8
402.576	1	0
403.771	1	0
404.967	1	8
406.162	1	7
407.357	1	-5
408.552	1	-6
409.747	1	6
410.942	1	7
412.137	1	-2
413.332	1	-7
414.526	1	4
415.721	1	-11
416.916	1	-9
418.111	1	7
419.305	1	-3
420.500	1	-8
421.695	1	-9
422.889	1	-1
424.084	1	17
425.278	1	0
426.472	1	6
427.667	1	-6
428.861	1	-3
430.055	1	0
431.250	1	11
432.444	1	3
433.638	1	13
434.832	1	3
436.026	1	-11
437.220	1	4
438.414	1	0
439.608	1	-5
440.802	1	2
441.996	1	-4
443.190	1	4
444.384	1	3
445.578	1	7
446.771	1	-6
447.965	1	-1
449.159	1	7
450.352	1	-5
451.546	1	-6
452.739	1	8
453.933	1	4
455.126	1	10
456.320	1	-2
457.513	1	11
458.706	1	11
459.899	1	6
461.093	1	7
462.286	1	-10
463.479	1	3
464.672	1	2
465.865	1	2
467.058	1	5
468.251	1	12
469.444	1	1
470.637	1	-2
471.830	1	3
473.023	1	5
474.215	1	-4
475.408	1	0
476.601	1	5
477.793	1	3
478.986	1	-8
480.179	1	-4
481.371	1	4
482.564	1	3
483.756	1	0
484.948	1	7
486.141	1	12
487.333	1	0
488.525	1	9
489.718	1	4
490.910	1	6
492.102	1	8
493.294	1	6
494.486	1	11
495.678	1	10
496.870	1	8
498.062	1	-12
499.254	1	10
500.446	1	3
501.638	1	-9
502.829	1	5
504.021	1	9
505.213	1	-1
506.404	1	7
507.596	1	10
508.788	1	0
509.979	1	6
511.171	1	15
512.362	1	-3
513.553	1	5
514.745	1	-2
515.936	1	0
517.127	1	0
518.319	1	6
519.510	1	11
520.701	1	9
521.892	1	3
523.083	1	2
524.274	1	4
525.465	1	8
526.656	1	12
527.847	1	1
529.038	1	-3
530.229	1	19
531.419	1	9
532.610	1	5
533.801	1	0
534.991	1	-3
536.182	1	-1
537.373	1	-5
538.563	1	6
539.754	1	-2
540.944	1	0
542.134	1	-1
543.325	1	4
544.515	1	5
545.705	1	6
546.896	1	1
548.086	1	-1
549.276	1	1
550.466	1	0
551.656	1	17
552.846	1	4
554.036	1	7
555.226	1	-8
556.416	1	1
557.606	1	-2
558.796	1	-1
559.986	1	5
561.175	1	-4
562.365	1	3
563.555	1	-1
564.744	1	5
565.934	1	0
567.123	1	10
568.313	1	6
569.502	1	-7
570.692	1	5
571.881	1	-6
573.070	1	4
574.260	1	6
575.449	1	1
576.638	1	-2
577.827	1	-1
579.016	1	0
580.205	1	-3
581.394	1	-5
582.583	1	5
583.772	1	1
584.961	1	-4
586.150	1	-4
587.339	1	-12
588.528	1	-7
589.717	1	2
590.905	1	5
592.094	1	11
593.283	1	5
594.471	1	2
595.660	1	4
596.848	1	9
598.037	1	1
599.225	1	11
600.413	1	-8
601.602	1	-2
602.790	1	10
603.978	1	5
605.166	1	6
606.355	1	11
607.543	1	5
608.731	1	10
609.919	1	-3
611.107	1	-3
612.295	1	3
613.483	1	1
614.671	1	6
615.858	1	-2
617.046	1	-6
618.234	1	5
619.422	1	-1
620.609	1	7
621.797	1	-4
622.985	1	10
624.172	1	0
625.360	1	0
626.547	1	-1
627.735	1	-7
628.922	1	-6
630.109	1	3
631.297	1	-3
632.484	1	-4
633.671	1	6
634.858	1	-2
636.045	1	6
637.232	1	1
638.419	1	0
639.606	1	-3
640.793	1	4
641.980	1	2
643.167	1	0
644.354	1	-6
645.541	1	-1
646.728	1	-3
647.914	1	-1
649.101	1	-3
650.288	1	-2
651.474	1	10
652.661	1	6
653.847	1	6
655.034	1	1
656.220	1	-5
657.406	1	8
658.593	1	1
659.779	1	4
660.965	1	13
662.152	1	-4
663.338	1	7
664.524	1	6
665.710	1	0
666.896	1	8
668.082	1	5
669.268	1	2
670.454	1	-14
671.640	1	3
672.826	1	0
674.011	1	8
675.197	1	7
676.383	1	-3
677.569	1	-9
678.754	1	6
679.940	1	2
681.125	1	6
682.311	1	-5
683.496	1	-8
684.682	1	5
685.867	1	10
687.053	1	-15
688.238	1	-3
688.746	1	-7