File: Data/GaN_170K_550ms/GaN_sample D_spot 18_UVVIS_170 K_200um_550 ms 2x2mm1_32.txt
340.368	1	-2
341.565	1	7
342.763	1	3
343.960	1	-8
345.157	1	-2
346.354	1	-12
347.552	1	2
348.749	1	8
349.946	1	12
351.143	1	-1
352.340	1	1
353.537	1	9
354.734	1	-3
355.931	1	1
357.127	1	-5
358.324	1	6
359.521	1	3
360.718	1	-1
361.914	1	-9
363.111	1	8
364.308	1	1
365.504	1	4
366.701	1	8
367.897	1	4
369.093	1	-3
370.290	1	-3
371.486	1	-1
372.682	1	7
373.879	1	8
375.075	1	-2
376.271	1	8
377.467	1	-7
378.663	1	4
379.859	1	4
381.055	1	9
382.251	1	2
383.447	1	12
384.643	1	3
385.839	1	1
387.035	1	-1
388.230	1	1
389.426	1	7
390.622	1	4
391.817	1	0
393.013	1	-3
394.208	1	2
395.404	1	5
396.599	1	-9
397.795	1	-6
398.990	1	-2
400.186	1	-1
401.381	1	9
402.576	1	-2
403.771	1	3
404.967	1	4
406.162	1	8
407.357	1	-7
408.552	1	-1
409.747	1	-3
410.942	1	-1
412.137	1	-12
413.332	1	-2
414.526	1	-4
415.721	1	0
416.916	1	-12
418.111	1	9
419.305	1	5
420.500	1	6
421.695	1	-12
422.889	1	4
424.084	1	8
425.278	1	-2
426.472	1	1
427.667	1	0
428.861	1	1
430.055	1	0
431.250	1	10
432.444	1	1
433.638	1	15
434.832	1	13
436.026	1	0
437.220	1	2
438.414	1	-1
439.608	1	1
440.802	1	9
441.996	1	-1
443.190	1	0
444.384	1	-4
445.578	1	4
446.771	1	-18
447.965	1	6
449.159	1	3
450.352	1	-11
451.546	1	-7
452.739	1	2
453.933	1	-4
455.126	1	6
456.320	1	0
457.513	1	9
458.706	1	0
459.899	1	3
461.093	1	9
462.286	1	-15
463.479	1	-5
464.672	1	0
465.865	1	-1
467.058	1	2
468.251	1	4
469.444	1	0
470.637	1	5
471.830	1	-4
473.023	1	6
474.215	1	3
475.408	1	-8
476.601	1	-2
477.793	1	8
478.986	1	2
480.179	1	-1
481.371	1	0
482.564	1	1
483.756	1	3
484.948	1	6
486.141	1	11
487.333	1	-5
488.525	1	2
489.718	1	7
490.910	1	-1
492.102	1	0
493.294	1	-4
494.486	1	11
495.678	1	-3
496.870	1	-1
498.062	1	-12
499.254	1	6
500.446	1	5
501.638	1	-7
502.829	1	3
504.021	1	1
505.213	1	-3
506.404	1	4
507.596	1	5
508.788	1	-2
509.979	1	9
511.171	1	10
512.362	1	-3
513.553	1	1
514.745	1	-9
515.936	1	5
517.127	1	2
518.319	1	3
519.510	1	-1
520.701	1	6
521.892	1	-1
523.083	1	-2
524.274	1	-4
525.465	1	0
526.656	1	10
527.847	1	-6
529.038	1	-10
530.229	1	7
531.419	1	1
532.610	1	0
533.801	1	12
534.991	1	1
536.182	1	6
537.373	1	-2
538.563	1	2
539.754	1	5
540.944	1	-2
542.134	1	4
543.325	1	3
544.515	1	7
545.705	1	2
546.896	1	6
548.086	1	4
549.276	1	4
550.466	1	-3
551.656	1	-2
552.846	1	6
554.036	1	-1
555.226	1	-3
556.416	1	3
557.606	1	0
558.796	1	-7
559.986	1	6
561.175	1	-16
562.365	1	0
563.555	1	-1
564.744	1	11
565.934	1	-1
567.123	1	0
568.313	1	2
569.502	1	-10
570.692	1	5
571.881	1	-2
573.070	1	0
574.260	1	9
575.449	1	4
576.638	1	4
577.827	1	3
579.016	1	5
580.205	1	-5
581.394	1	2
582.583	1	0
583.772	1	-8
584.961	1	5
586.150	1	-8
587.339	1	-1
588.528	1	-4
589.717	1	6
590.905	1	9
592.094	1	2
593.283	1	2
594.471	1	10
595.660	1	-2
596.848	1	4
598.037	1	-2
599.225	1	7
600.413	1	-2
601.602	1	4
602.790	1	5
603.978	1	4
605.166	1	9
606.355	1	7
607.543	1	0
608.731	1	2
609.919	1	-4
611.107	1	2
612.295	1	-11
613.483	1	5
614.671	1	9
615.858	1	3
617.046	1	-6
618.234	1	-2
619.422	1	2
620.609	1	4
621.797	1	9
622.985	1	-2
624.172	1	5
625.360	1	3
626.547	1	-6
627.735	1	-4
628.922	1	-8
630.109	1	-1
631.297	1	-1
632.484	1	-4
633.671	1	6
634.858	1	-2
636.045	1	16
637.232	1	11
638.419	1	-6
639.606	1	-6
640.793	1	4
641.980	1	-6
643.167	1	-5
644.354	1	9
645.541	1	7
646.728	1	6
647.914	1	-2
649.101	1	-6
650.288	1	3
651.474	1	14
652.661	1	3
653.847	1	2
655.034	1	0
656.220	1	2
657.406	1	0
658.593	1	-5
659.779	1	12
660.965	1	8
662.152	1	5
663.338	1	5
664.524	1	4
665.710	1	4
666.896	1	-1
668.082	1	7
669.268	1	-6
670.454	1	-11
671.640	1	2
672.826	1	4
674.011	1	14
675.197	1	12
676.383	1	-4
677.569	1	-7
678.754	1	-1
679.940	1	8
681.125	1	2
682.311	1	8
683.496	1	4
684.682	1	0
685.867	1	7
687.053	1	-8
688.238	1	0
688.746	1	-2