File: Data/GaN_170K_550ms/GaN_sample D_spot 18_UVVIS_170 K_200um_550 ms 2x2mm1_61.txt
340.368	1	-4
341.565	1	12
342.763	1	7
343.960	1	8
345.157	1	7
346.354	1	-1
347.552	1	12
348.749	1	12
349.946	1	14
351.143	1	4
352.340	1	9
353.537	1	13
354.734	1	15
355.931	1	13
357.127	1	28
358.324	1	54
359.521	1	52
360.718	1	79
361.914	1	110
363.111	1	175
364.308	1	255
365.504	1	389
366.701	1	546
367.897	1	673
369.093	1	670
370.290	1	599
371.486	1	481
372.682	1	386
373.879	1	327
375.075	1	275
376.271	1	218
377.467	1	176
378.663	1	137
379.859	1	116
381.055	1	95
382.251	1	79
383.447	1	98
384.643	1	70
385.839	1	60
387.035	1	46
388.230	1	33
389.426	1	46
390.622	1	36
391.817	1	35
393.013	1	31
394.208	1	42
395.404	1	36
396.599	1	20
397.795	1	27
398.990	1	19
400.186	1	24
401.381	1	18
402.576	1	15
403.771	1	16
404.967	1	12
406.162	1	17
407.357	1	3
408.552	1	18
409.747	1	12
410.942	1	6
412.137	1	8
413.332	1	7
414.526	1	11
415.721	1	8
416.916	1	10
418.111	1	19
419.305	1	17
420.500	1	4
421.695	1	-1
422.889	1	6
424.084	1	15
425.278	1	4
426.472	1	5
427.667	1	4
428.861	1	13
430.055	1	2
431.250	1	14
432.444	1	6
433.638	1	11
434.832	1	6
436.026	1	7
437.220	1	3
438.414	1	-1
439.608	1	7
440.802	1	10
441.996	1	3
443.190	1	-1
444.384	1	9
445.578	1	20
446.771	1	-3
447.965	1	9
449.159	1	8
450.352	1	5
451.546	1	8
452.739	1	7
453.933	1	8
455.126	1	14
456.320	1	12
457.513	1	20
458.706	1	14
459.899	1	13
461.093	1	21
462.286	1	-1
463.479	1	12
464.672	1	2
465.865	1	9
467.058	1	12
468.251	1	10
469.444	1	6
470.637	1	11
471.830	1	6
473.023	1	7
474.215	1	3
475.408	1	4
476.601	1	19
477.793	1	19
478.986	1	9
480.179	1	9
481.371	1	16
482.564	1	-2
483.756	1	21
484.948	1	9
486.141	1	22
487.333	1	19
488.525	1	29
489.718	1	36
490.910	1	26
492.102	1	36
493.294	1	30
494.486	1	43
495.678	1	34
496.870	1	32
498.062	1	49
499.254	1	50
500.446	1	43
501.638	1	41
502.829	1	49
504.021	1	60
505.213	1	47
506.404	1	53
507.596	1	57
508.788	1	55
509.979	1	68
511.171	1	70
512.362	1	52
513.553	1	68
514.745	1	64
515.936	1	73
517.127	1	75
518.319	1	74
519.510	1	84
520.701	1	76
521.892	1	73
523.083	1	85
524.274	1	73
525.465	1	80
526.656	1	82
527.847	1	85
529.038	1	89
530.229	1	93
531.419	1	85
532.610	1	82
533.801	1	77
534.991	1	81
536.182	1	75
537.373	1	65
538.563	1	76
539.754	1	64
540.944	1	68
542.134	1	69
543.325	1	69
544.515	1	63
545.705	1	65
546.896	1	78
548.086	1	77
549.276	1	71
550.466	1	76
551.656	1	74
552.846	1	74
554.036	1	66
555.226	1	55
556.416	1	67
557.606	1	63
558.796	1	61
559.986	1	60
561.175	1	54
562.365	1	59
563.555	1	59
564.744	1	53
565.934	1	53
567.123	1	51
568.313	1	42
569.502	1	50
570.692	1	54
571.881	1	41
573.070	1	41
574.260	1	43
575.449	1	39
576.638	1	40
577.827	1	41
579.016	1	38
580.205	1	33
581.394	1	34
582.583	1	30
583.772	1	28
584.961	1	38
586.150	1	35
587.339	1	27
588.528	1	29
589.717	1	32
590.905	1	31
592.094	1	41
593.283	1	36
594.471	1	28
595.660	1	20
596.848	1	18
598.037	1	30
599.225	1	18
600.413	1	17
601.602	1	31
602.790	1	36
603.978	1	25
605.166	1	38
606.355	1	25
607.543	1	28
608.731	1	32
609.919	1	11
611.107	1	17
612.295	1	7
613.483	1	11
614.671	1	29
615.858	1	14
617.046	1	17
618.234	1	15
619.422	1	10
620.609	1	15
621.797	1	25
622.985	1	15
624.172	1	16
625.360	1	14
626.547	1	8
627.735	1	8
628.922	1	15
630.109	1	9
631.297	1	14
632.484	1	5
633.671	1	16
634.858	1	16
636.045	1	16
637.232	1	12
638.419	1	3
639.606	1	8
640.793	1	9
641.980	1	13
643.167	1	9
644.354	1	19
645.541	1	10
646.728	1	22
647.914	1	14
649.101	1	11
650.288	1	2
651.474	1	26
652.661	1	11
653.847	1	1
655.034	1	14
656.220	1	5
657.406	1	10
658.593	1	14
659.779	1	7
660.965	1	22
662.152	1	19
663.338	1	19
664.524	1	12
665.710	1	5
666.896	1	7
668.082	1	14
669.268	1	1
670.454	1	-4
671.640	1	14
672.826	1	11
674.011	1	21
675.197	1	19
676.383	1	7
677.569	1	4
678.754	1	15
679.940	1	18
681.125	1	18
682.311	1	8
683.496	1	15
684.682	1	12
685.867	1	12
687.053	1	3
688.238	1	7
688.746	1	6