File: Data/GaN_170K_550ms/GaN_sample D_spot 18_UVVIS_170 K_200um_550 ms 2x2mm1_69.txt
340.368	1	6
341.565	1	9
342.763	1	8
343.960	1	-1
345.157	1	1
346.354	1	2
347.552	1	18
348.749	1	21
349.946	1	10
351.143	1	9
352.340	1	5
353.537	1	16
354.734	1	12
355.931	1	15
357.127	1	20
358.324	1	33
359.521	1	45
360.718	1	57
361.914	1	82
363.111	1	114
364.308	1	136
365.504	1	213
366.701	1	269
367.897	1	327
369.093	1	322
370.290	1	290
371.486	1	260
372.682	1	211
373.879	1	178
375.075	1	139
376.271	1	119
377.467	1	100
378.663	1	85
379.859	1	75
381.055	1	60
382.251	1	53
383.447	1	59
384.643	1	40
385.839	1	33
387.035	1	41
388.230	1	26
389.426	1	32
390.622	1	22
391.817	1	30
393.013	1	24
394.208	1	25
395.404	1	19
396.599	1	8
397.795	1	10
398.990	1	13
400.186	1	8
401.381	1	20
402.576	1	9
403.771	1	3
404.967	1	9
406.162	1	16
407.357	1	8
408.552	1	3
409.747	1	10
410.942	1	7
412.137	1	5
413.332	1	-6
414.526	1	7
415.721	1	1
416.916	1	-9
418.111	1	6
419.305	1	5
420.500	1	8
421.695	1	-2
422.889	1	9
424.084	1	26
425.278	1	8
426.472	1	5
427.667	1	11
428.861	1	5
430.055	1	8
431.250	1	11
432.444	1	12
433.638	1	10
434.832	1	9
436.026	1	8
437.220	1	6
438.414	1	-5
439.608	1	0
440.802	1	8
441.996	1	1
443.190	1	6
444.384	1	7
445.578	1	4
446.771	1	-2
447.965	1	4
449.159	1	-3
450.352	1	-5
451.546	1	-9
452.739	1	7
453.933	1	10
455.126	1	7
456.320	1	6
457.513	1	13
458.706	1	7
459.899	1	9
461.093	1	7
462.286	1	-2
463.479	1	8
464.672	1	-2
465.865	1	8
467.058	1	14
468.251	1	11
469.444	1	9
470.637	1	18
471.830	1	4
473.023	1	5
474.215	1	4
475.408	1	-3
476.601	1	4
477.793	1	13
478.986	1	1
480.179	1	5
481.371	1	12
482.564	1	8
483.756	1	16
484.948	1	11
486.141	1	14
487.333	1	17
488.525	1	24
489.718	1	18
490.910	1	12
492.102	1	10
493.294	1	21
494.486	1	33
495.678	1	32
496.870	1	14
498.062	1	16
499.254	1	36
500.446	1	22
501.638	1	27
502.829	1	33
504.021	1	31
505.213	1	28
506.404	1	33
507.596	1	35
508.788	1	33
509.979	1	42
511.171	1	40
512.362	1	43
513.553	1	38
514.745	1	35
515.936	1	38
517.127	1	45
518.319	1	54
519.510	1	42
520.701	1	52
521.892	1	45
523.083	1	53
524.274	1	43
525.465	1	55
526.656	1	53
527.847	1	40
529.038	1	46
530.229	1	54
531.419	1	54
532.610	1	52
533.801	1	50
534.991	1	43
536.182	1	45
537.373	1	39
538.563	1	39
539.754	1	36
540.944	1	37
542.134	1	35
543.325	1	37
544.515	1	42
545.705	1	44
546.896	1	51
548.086	1	43
549.276	1	39
550.466	1	40
551.656	1	43
552.846	1	39
554.036	1	43
555.226	1	39
556.416	1	28
557.606	1	42
558.796	1	37
559.986	1	45
561.175	1	33
562.365	1	30
563.555	1	34
564.744	1	29
565.934	1	23
567.123	1	22
568.313	1	26
569.502	1	29
570.692	1	28
571.881	1	28
573.070	1	24
574.260	1	25
575.449	1	24
576.638	1	27
577.827	1	21
579.016	1	21
580.205	1	19
581.394	1	15
582.583	1	12
583.772	1	23
584.961	1	17
586.150	1	10
587.339	1	9
588.528	1	17
589.717	1	15
590.905	1	24
592.094	1	22
593.283	1	27
594.471	1	28
595.660	1	22
596.848	1	9
598.037	1	8
599.225	1	5
600.413	1	8
601.602	1	23
602.790	1	22
603.978	1	19
605.166	1	22
606.355	1	9
607.543	1	21
608.731	1	14
609.919	1	2
611.107	1	7
612.295	1	17
613.483	1	6
614.671	1	18
615.858	1	7
617.046	1	7
618.234	1	7
619.422	1	9
620.609	1	10
621.797	1	11
622.985	1	7
624.172	1	4
625.360	1	14
626.547	1	9
627.735	1	-6
628.922	1	1
630.109	1	7
631.297	1	0
632.484	1	3
633.671	1	13
634.858	1	11
636.045	1	20
637.232	1	14
638.419	1	10
639.606	1	6
640.793	1	2
641.980	1	-1
643.167	1	-1
644.354	1	8
645.541	1	20
646.728	1	3
647.914	1	3
649.101	1	-1
650.288	1	3
651.474	1	15
652.661	1	3
653.847	1	9
655.034	1	3
656.220	1	3
657.406	1	9
658.593	1	5
659.779	1	6
660.965	1	7
662.152	1	8
663.338	1	8
664.524	1	1
665.710	1	5
666.896	1	12
668.082	1	16
669.268	1	5
670.454	1	-2
671.640	1	15
672.826	1	3
674.011	1	6
675.197	1	8
676.383	1	10
677.569	1	0
678.754	1	7
679.940	1	17
681.125	1	5
682.311	1	5
683.496	1	9
684.682	1	11
685.867	1	12
687.053	1	-5
688.238	1	9
688.746	1	0