File: Data/GaN_170K_550ms/GaN_sample D_spot 18_UVVIS_170 K_200um_550 ms 2x2mm1_304.txt
340.368	1	1
341.565	1	11
342.763	1	-2
343.960	1	0
345.157	1	-2
346.354	1	-6
347.552	1	10
348.749	1	-4
349.946	1	4
351.143	1	-11
352.340	1	3
353.537	1	3
354.734	1	2
355.931	1	3
357.127	1	-2
358.324	1	2
359.521	1	9
360.718	1	0
361.914	1	-2
363.111	1	12
364.308	1	13
365.504	1	7
366.701	1	14
367.897	1	12
369.093	1	-4
370.290	1	7
371.486	1	-5
372.682	1	7
373.879	1	10
375.075	1	5
376.271	1	6
377.467	1	10
378.663	1	-3
379.859	1	6
381.055	1	9
382.251	1	5
383.447	1	8
384.643	1	0
385.839	1	-10
387.035	1	0
388.230	1	-9
389.426	1	9
390.622	1	-3
391.817	1	10
393.013	1	-4
394.208	1	4
395.404	1	6
396.599	1	-4
397.795	1	-2
398.990	1	-3
400.186	1	1
401.381	1	5
402.576	1	0
403.771	1	1
404.967	1	9
406.162	1	8
407.357	1	-8
408.552	1	1
409.747	1	-9
410.942	1	6
412.137	1	-8
413.332	1	0
414.526	1	-1
415.721	1	-5
416.916	1	-5
418.111	1	7
419.305	1	4
420.500	1	-2
421.695	1	-8
422.889	1	-3
424.084	1	9
425.278	1	-1
426.472	1	-2
427.667	1	4
428.861	1	1
430.055	1	-4
431.250	1	14
432.444	1	5
433.638	1	1
434.832	1	9
436.026	1	-5
437.220	1	-2
438.414	1	1
439.608	1	-5
440.802	1	5
441.996	1	6
443.190	1	4
444.384	1	5
445.578	1	10
446.771	1	-11
447.965	1	8
449.159	1	4
450.352	1	-2
451.546	1	-4
452.739	1	1
453.933	1	6
455.126	1	15
456.320	1	-2
457.513	1	12
458.706	1	11
459.899	1	-2
461.093	1	11
462.286	1	0
463.479	1	-3
464.672	1	-15
465.865	1	-6
467.058	1	6
468.251	1	5
469.444	1	4
470.637	1	1
471.830	1	0
473.023	1	3
474.215	1	1
475.408	1	-10
476.601	1	6
477.793	1	11
478.986	1	0
480.179	1	-11
481.371	1	0
482.564	1	-2
483.756	1	-4
484.948	1	-6
486.141	1	14
487.333	1	-5
488.525	1	6
489.718	1	-1
490.910	1	4
492.102	1	-5
493.294	1	-4
494.486	1	5
495.678	1	-1
496.870	1	-10
498.062	1	3
499.254	1	3
500.446	1	-5
501.638	1	-8
502.829	1	-7
504.021	1	4
505.213	1	3
506.404	1	0
507.596	1	11
508.788	1	-3
509.979	1	4
511.171	1	8
512.362	1	-7
513.553	1	8
514.745	1	2
515.936	1	-3
517.127	1	4
518.319	1	5
519.510	1	5
520.701	1	5
521.892	1	1
523.083	1	-2
524.274	1	0
525.465	1	5
526.656	1	6
527.847	1	7
529.038	1	-7
530.229	1	10
531.419	1	17
532.610	1	10
533.801	1	4
534.991	1	0
536.182	1	-2
537.373	1	-6
538.563	1	-3
539.754	1	-1
540.944	1	-2
542.134	1	1
543.325	1	6
544.515	1	2
545.705	1	3
546.896	1	2
548.086	1	-1
549.276	1	8
550.466	1	-7
551.656	1	-2
552.846	1	0
554.036	1	1
555.226	1	-2
556.416	1	9
557.606	1	-1
558.796	1	-4
559.986	1	-1
561.175	1	-7
562.365	1	2
563.555	1	2
564.744	1	12
565.934	1	3
567.123	1	6
568.313	1	3
569.502	1	-4
570.692	1	13
571.881	1	-6
573.070	1	-9
574.260	1	11
575.449	1	2
576.638	1	8
577.827	1	-3
579.016	1	5
580.205	1	-4
581.394	1	2
582.583	1	-3
583.772	1	3
584.961	1	4
586.150	1	-6
587.339	1	-4
588.528	1	-3
589.717	1	7
590.905	1	3
592.094	1	4
593.283	1	-2
594.471	1	-4
595.660	1	0
596.848	1	0
598.037	1	-2
599.225	1	4
600.413	1	-10
601.602	1	3
602.790	1	-1
603.978	1	5
605.166	1	10
606.355	1	-3
607.543	1	9
608.731	1	-1
609.919	1	-1
611.107	1	-3
612.295	1	1
613.483	1	-2
614.671	1	-1
615.858	1	-2
617.046	1	1
618.234	1	-5
619.422	1	-10
620.609	1	-4
621.797	1	-3
622.985	1	10
624.172	1	-5
625.360	1	0
626.547	1	-1
627.735	1	-14
628.922	1	-4
630.109	1	3
631.297	1	-9
632.484	1	-5
633.671	1	2
634.858	1	4
636.045	1	12
637.232	1	10
638.419	1	-13
639.606	1	-9
640.793	1	4
641.980	1	-12
643.167	1	-2
644.354	1	13
645.541	1	-2
646.728	1	6
647.914	1	-1
649.101	1	7
650.288	1	2
651.474	1	8
652.661	1	3
653.847	1	5
655.034	1	0
656.220	1	1
657.406	1	0
658.593	1	-4
659.779	1	3
660.965	1	5
662.152	1	-8
663.338	1	7
664.524	1	4
665.710	1	-4
666.896	1	-2
668.082	1	5
669.268	1	1
670.454	1	-3
671.640	1	3
672.826	1	-5
674.011	1	2
675.197	1	1
676.383	1	5
677.569	1	-4
678.754	1	8
679.940	1	5
681.125	1	7
682.311	1	-3
683.496	1	1
684.682	1	1
685.867	1	3
687.053	1	-5
688.238	1	-10
688.746	1	-9