File: Data/GaN_170K_550ms/GaN_sample D_spot 18_UVVIS_170 K_200um_550 ms 2x2mm1_164.txt
340.368	1	6
341.565	1	3
342.763	1	7
343.960	1	-5
345.157	1	6
346.354	1	-7
347.552	1	12
348.749	1	15
349.946	1	8
351.143	1	4
352.340	1	3
353.537	1	4
354.734	1	10
355.931	1	8
357.127	1	4
358.324	1	8
359.521	1	11
360.718	1	6
361.914	1	10
363.111	1	21
364.308	1	9
365.504	1	31
366.701	1	35
367.897	1	21
369.093	1	24
370.290	1	35
371.486	1	16
372.682	1	32
373.879	1	26
375.075	1	19
376.271	1	16
377.467	1	15
378.663	1	9
379.859	1	14
381.055	1	2
382.251	1	5
383.447	1	9
384.643	1	4
385.839	1	0
387.035	1	-3
388.230	1	5
389.426	1	6
390.622	1	0
391.817	1	3
393.013	1	-3
394.208	1	12
395.404	1	15
396.599	1	-5
397.795	1	2
398.990	1	-6
400.186	1	8
401.381	1	-2
402.576	1	-4
403.771	1	3
404.967	1	1
406.162	1	5
407.357	1	1
408.552	1	-3
409.747	1	0
410.942	1	-2
412.137	1	-8
413.332	1	-2
414.526	1	4
415.721	1	-1
416.916	1	3
418.111	1	1
419.305	1	0
420.500	1	0
421.695	1	-8
422.889	1	5
424.084	1	18
425.278	1	5
426.472	1	-5
427.667	1	1
428.861	1	7
430.055	1	4
431.250	1	14
432.444	1	3
433.638	1	8
434.832	1	1
436.026	1	4
437.220	1	-4
438.414	1	-7
439.608	1	-6
440.802	1	17
441.996	1	3
443.190	1	-4
444.384	1	-3
445.578	1	3
446.771	1	-15
447.965	1	-6
449.159	1	-7
450.352	1	-1
451.546	1	-7
452.739	1	11
453.933	1	7
455.126	1	8
456.320	1	7
457.513	1	14
458.706	1	3
459.899	1	1
461.093	1	1
462.286	1	-1
463.479	1	-3
464.672	1	-6
465.865	1	-8
467.058	1	-1
468.251	1	6
469.444	1	-1
470.637	1	-2
471.830	1	0
473.023	1	5
474.215	1	9
475.408	1	-1
476.601	1	7
477.793	1	2
478.986	1	2
480.179	1	-2
481.371	1	-1
482.564	1	-2
483.756	1	6
484.948	1	2
486.141	1	7
487.333	1	-3
488.525	1	6
489.718	1	5
490.910	1	3
492.102	1	-2
493.294	1	1
494.486	1	13
495.678	1	6
496.870	1	2
498.062	1	4
499.254	1	9
500.446	1	-2
501.638	1	0
502.829	1	3
504.021	1	-1
505.213	1	5
506.404	1	3
507.596	1	12
508.788	1	6
509.979	1	4
511.171	1	4
512.362	1	6
513.553	1	-5
514.745	1	2
515.936	1	-6
517.127	1	11
518.319	1	5
519.510	1	14
520.701	1	6
521.892	1	1
523.083	1	1
524.274	1	9
525.465	1	12
526.656	1	16
527.847	1	5
529.038	1	3
530.229	1	20
531.419	1	18
532.610	1	3
533.801	1	5
534.991	1	9
536.182	1	2
537.373	1	-4
538.563	1	11
539.754	1	4
540.944	1	-1
542.134	1	6
543.325	1	5
544.515	1	5
545.705	1	10
546.896	1	1
548.086	1	3
549.276	1	10
550.466	1	1
551.656	1	2
552.846	1	-9
554.036	1	8
555.226	1	-10
556.416	1	5
557.606	1	4
558.796	1	4
559.986	1	1
561.175	1	-7
562.365	1	5
563.555	1	-4
564.744	1	6
565.934	1	10
567.123	1	-1
568.313	1	-2
569.502	1	4
570.692	1	4
571.881	1	-3
573.070	1	5
574.260	1	8
575.449	1	4
576.638	1	1
577.827	1	-2
579.016	1	8
580.205	1	-3
581.394	1	8
582.583	1	-5
583.772	1	2
584.961	1	1
586.150	1	-1
587.339	1	-3
588.528	1	3
589.717	1	9
590.905	1	14
592.094	1	8
593.283	1	8
594.471	1	16
595.660	1	0
596.848	1	12
598.037	1	-6
599.225	1	8
600.413	1	-4
601.602	1	4
602.790	1	14
603.978	1	8
605.166	1	16
606.355	1	0
607.543	1	6
608.731	1	5
609.919	1	2
611.107	1	-1
612.295	1	2
613.483	1	-7
614.671	1	17
615.858	1	-1
617.046	1	5
618.234	1	6
619.422	1	-3
620.609	1	4
621.797	1	0
622.985	1	7
624.172	1	9
625.360	1	2
626.547	1	-5
627.735	1	-13
628.922	1	-2
630.109	1	-3
631.297	1	-5
632.484	1	-2
633.671	1	10
634.858	1	-9
636.045	1	0
637.232	1	4
638.419	1	-5
639.606	1	-8
640.793	1	-4
641.980	1	-2
643.167	1	2
644.354	1	-3
645.541	1	-3
646.728	1	2
647.914	1	-2
649.101	1	4
650.288	1	8
651.474	1	9
652.661	1	9
653.847	1	7
655.034	1	3
656.220	1	-10
657.406	1	-3
658.593	1	3
659.779	1	-1
660.965	1	9
662.152	1	7
663.338	1	5
664.524	1	11
665.710	1	5
666.896	1	6
668.082	1	15
669.268	1	-4
670.454	1	-3
671.640	1	13
672.826	1	-4
674.011	1	5
675.197	1	11
676.383	1	-1
677.569	1	4
678.754	1	3
679.940	1	10
681.125	1	9
682.311	1	3
683.496	1	7
684.682	1	4
685.867	1	2
687.053	1	-1
688.238	1	-5
688.746	1	-5