File: Data/GaN_170K_550ms/GaN_sample D_spot 18_UVVIS_170 K_200um_550 ms 2x2mm1_369.txt
340.368	1	3
341.565	1	2
342.763	1	4
343.960	1	-5
345.157	1	2
346.354	1	-8
347.552	1	2
348.749	1	-3
349.946	1	4
351.143	1	3
352.340	1	6
353.537	1	4
354.734	1	6
355.931	1	-6
357.127	1	-10
358.324	1	7
359.521	1	4
360.718	1	4
361.914	1	4
363.111	1	1
364.308	1	5
365.504	1	0
366.701	1	8
367.897	1	-1
369.093	1	-7
370.290	1	4
371.486	1	-2
372.682	1	7
373.879	1	9
375.075	1	-2
376.271	1	6
377.467	1	1
378.663	1	-4
379.859	1	11
381.055	1	-3
382.251	1	6
383.447	1	0
384.643	1	-3
385.839	1	-12
387.035	1	0
388.230	1	-5
389.426	1	2
390.622	1	-1
391.817	1	2
393.013	1	-3
394.208	1	2
395.404	1	1
396.599	1	-1
397.795	1	0
398.990	1	-11
400.186	1	2
401.381	1	9
402.576	1	-9
403.771	1	-1
404.967	1	0
406.162	1	2
407.357	1	-4
408.552	1	1
409.747	1	-10
410.942	1	1
412.137	1	0
413.332	1	-9
414.526	1	3
415.721	1	-6
416.916	1	-1
418.111	1	2
419.305	1	-3
420.500	1	1
421.695	1	-12
422.889	1	-4
424.084	1	12
425.278	1	-2
426.472	1	-1
427.667	1	6
428.861	1	-4
430.055	1	7
431.250	1	20
432.444	1	3
433.638	1	2
434.832	1	3
436.026	1	-1
437.220	1	-2
438.414	1	-6
439.608	1	2
440.802	1	5
441.996	1	2
443.190	1	5
444.384	1	0
445.578	1	2
446.771	1	-18
447.965	1	5
449.159	1	1
450.352	1	-7
451.546	1	-10
452.739	1	6
453.933	1	0
455.126	1	8
456.320	1	1
457.513	1	1
458.706	1	2
459.899	1	-1
461.093	1	10
462.286	1	-11
463.479	1	-9
464.672	1	-8
465.865	1	-5
467.058	1	0
468.251	1	-2
469.444	1	-4
470.637	1	7
471.830	1	-1
473.023	1	4
474.215	1	3
475.408	1	-1
476.601	1	0
477.793	1	10
478.986	1	-8
480.179	1	-9
481.371	1	-5
482.564	1	1
483.756	1	-1
484.948	1	-7
486.141	1	12
487.333	1	-15
488.525	1	2
489.718	1	6
490.910	1	9
492.102	1	-2
493.294	1	-5
494.486	1	8
495.678	1	4
496.870	1	4
498.062	1	4
499.254	1	0
500.446	1	-7
501.638	1	-2
502.829	1	-3
504.021	1	-2
505.213	1	6
506.404	1	-7
507.596	1	8
508.788	1	2
509.979	1	4
511.171	1	-3
512.362	1	-1
513.553	1	4
514.745	1	-1
515.936	1	1
517.127	1	8
518.319	1	1
519.510	1	4
520.701	1	-2
521.892	1	2
523.083	1	-7
524.274	1	0
525.465	1	4
526.656	1	6
527.847	1	-7
529.038	1	-4
530.229	1	12
531.419	1	5
532.610	1	2
533.801	1	4
534.991	1	4
536.182	1	-1
537.373	1	-5
538.563	1	-3
539.754	1	4
540.944	1	-14
542.134	1	0
543.325	1	0
544.515	1	-2
545.705	1	3
546.896	1	10
548.086	1	3
549.276	1	4
550.466	1	-1
551.656	1	0
552.846	1	0
554.036	1	-4
555.226	1	-1
556.416	1	2
557.606	1	9
558.796	1	-4
559.986	1	-1
561.175	1	-6
562.365	1	4
563.555	1	-2
564.744	1	-1
565.934	1	-1
567.123	1	-2
568.313	1	-4
569.502	1	-8
570.692	1	8
571.881	1	-9
573.070	1	7
574.260	1	0
575.449	1	2
576.638	1	-2
577.827	1	0
579.016	1	5
580.205	1	-8
581.394	1	3
582.583	1	3
583.772	1	1
584.961	1	-2
586.150	1	3
587.339	1	-3
588.528	1	-1
589.717	1	5
590.905	1	10
592.094	1	10
593.283	1	9
594.471	1	5
595.660	1	2
596.848	1	-3
598.037	1	1
599.225	1	-1
600.413	1	1
601.602	1	2
602.790	1	13
603.978	1	-8
605.166	1	5
606.355	1	3
607.543	1	8
608.731	1	2
609.919	1	-1
611.107	1	-5
612.295	1	0
613.483	1	-7
614.671	1	6
615.858	1	1
617.046	1	2
618.234	1	2
619.422	1	-2
620.609	1	-7
621.797	1	1
622.985	1	-3
624.172	1	-7
625.360	1	2
626.547	1	-3
627.735	1	-17
628.922	1	-14
630.109	1	-5
631.297	1	-8
632.484	1	-4
633.671	1	6
634.858	1	4
636.045	1	6
637.232	1	2
638.419	1	-3
639.606	1	-4
640.793	1	-10
641.980	1	0
643.167	1	-9
644.354	1	-6
645.541	1	4
646.728	1	1
647.914	1	0
649.101	1	-1
650.288	1	6
651.474	1	6
652.661	1	4
653.847	1	5
655.034	1	-6
656.220	1	-2
657.406	1	3
658.593	1	2
659.779	1	1
660.965	1	7
662.152	1	-3
663.338	1	8
664.524	1	6
665.710	1	3
666.896	1	-2
668.082	1	8
669.268	1	-6
670.454	1	-5
671.640	1	-1
672.826	1	1
674.011	1	2
675.197	1	2
676.383	1	-4
677.569	1	-10
678.754	1	5
679.940	1	6
681.125	1	3
682.311	1	1
683.496	1	-4
684.682	1	0
685.867	1	4
687.053	1	-5
688.238	1	-3
688.746	1	-12