File: Data/GaN_170K_550ms/GaN_sample D_spot 18_UVVIS_170 K_200um_550 ms 2x2mm1_189.txt
340.368	1	-2
341.565	1	4
342.763	1	7
343.960	1	-1
345.157	1	2
346.354	1	-4
347.552	1	14
348.749	1	3
349.946	1	1
351.143	1	8
352.340	1	2
353.537	1	4
354.734	1	3
355.931	1	6
357.127	1	-7
358.324	1	8
359.521	1	12
360.718	1	7
361.914	1	13
363.111	1	14
364.308	1	11
365.504	1	12
366.701	1	18
367.897	1	25
369.093	1	19
370.290	1	17
371.486	1	10
372.682	1	10
373.879	1	15
375.075	1	19
376.271	1	11
377.467	1	18
378.663	1	12
379.859	1	11
381.055	1	9
382.251	1	8
383.447	1	12
384.643	1	-3
385.839	1	4
387.035	1	10
388.230	1	1
389.426	1	12
390.622	1	2
391.817	1	8
393.013	1	8
394.208	1	10
395.404	1	10
396.599	1	4
397.795	1	-5
398.990	1	-1
400.186	1	2
401.381	1	14
402.576	1	5
403.771	1	0
404.967	1	4
406.162	1	-1
407.357	1	-4
408.552	1	0
409.747	1	-2
410.942	1	-1
412.137	1	-7
413.332	1	-1
414.526	1	1
415.721	1	7
416.916	1	2
418.111	1	7
419.305	1	0
420.500	1	-2
421.695	1	-7
422.889	1	0
424.084	1	8
425.278	1	-2
426.472	1	0
427.667	1	9
428.861	1	3
430.055	1	1
431.250	1	5
432.444	1	6
433.638	1	18
434.832	1	4
436.026	1	3
437.220	1	4
438.414	1	-4
439.608	1	0
440.802	1	9
441.996	1	-3
443.190	1	-1
444.384	1	-5
445.578	1	8
446.771	1	-10
447.965	1	-2
449.159	1	-3
450.352	1	-1
451.546	1	-11
452.739	1	1
453.933	1	9
455.126	1	13
456.320	1	-2
457.513	1	5
458.706	1	3
459.899	1	-9
461.093	1	4
462.286	1	-4
463.479	1	-8
464.672	1	-2
465.865	1	2
467.058	1	1
468.251	1	6
469.444	1	4
470.637	1	-3
471.830	1	2
473.023	1	2
474.215	1	2
475.408	1	-3
476.601	1	6
477.793	1	12
478.986	1	-6
480.179	1	0
481.371	1	-4
482.564	1	-4
483.756	1	0
484.948	1	-3
486.141	1	10
487.333	1	-4
488.525	1	8
489.718	1	3
490.910	1	0
492.102	1	6
493.294	1	2
494.486	1	13
495.678	1	-3
496.870	1	0
498.062	1	-1
499.254	1	8
500.446	1	7
501.638	1	-4
502.829	1	1
504.021	1	3
505.213	1	-1
506.404	1	3
507.596	1	6
508.788	1	-2
509.979	1	5
511.171	1	0
512.362	1	6
513.553	1	11
514.745	1	-2
515.936	1	12
517.127	1	7
518.319	1	2
519.510	1	11
520.701	1	3
521.892	1	-3
523.083	1	-2
524.274	1	6
525.465	1	4
526.656	1	11
527.847	1	0
529.038	1	1
530.229	1	23
531.419	1	12
532.610	1	4
533.801	1	4
534.991	1	-2
536.182	1	3
537.373	1	0
538.563	1	-1
539.754	1	-1
540.944	1	2
542.134	1	3
543.325	1	2
544.515	1	9
545.705	1	5
546.896	1	8
548.086	1	5
549.276	1	1
550.466	1	-1
551.656	1	12
552.846	1	-2
554.036	1	9
555.226	1	1
556.416	1	5
557.606	1	5
558.796	1	-5
559.986	1	3
561.175	1	-8
562.365	1	8
563.555	1	3
564.744	1	-1
565.934	1	9
567.123	1	-3
568.313	1	-2
569.502	1	7
570.692	1	7
571.881	1	3
573.070	1	12
574.260	1	8
575.449	1	12
576.638	1	-3
577.827	1	2
579.016	1	5
580.205	1	3
581.394	1	2
582.583	1	1
583.772	1	3
584.961	1	6
586.150	1	-5
587.339	1	2
588.528	1	2
589.717	1	10
590.905	1	8
592.094	1	13
593.283	1	5
594.471	1	5
595.660	1	1
596.848	1	11
598.037	1	-7
599.225	1	5
600.413	1	3
601.602	1	0
602.790	1	14
603.978	1	7
605.166	1	-2
606.355	1	3
607.543	1	5
608.731	1	-3
609.919	1	-2
611.107	1	-5
612.295	1	-7
613.483	1	-4
614.671	1	6
615.858	1	-4
617.046	1	3
618.234	1	-4
619.422	1	-3
620.609	1	1
621.797	1	5
622.985	1	4
624.172	1	-3
625.360	1	2
626.547	1	-4
627.735	1	-5
628.922	1	-8
630.109	1	0
631.297	1	-2
632.484	1	-11
633.671	1	6
634.858	1	-5
636.045	1	8
637.232	1	3
638.419	1	-4
639.606	1	4
640.793	1	6
641.980	1	-6
643.167	1	-4
644.354	1	0
645.541	1	5
646.728	1	0
647.914	1	1
649.101	1	0
650.288	1	0
651.474	1	2
652.661	1	3
653.847	1	-7
655.034	1	-4
656.220	1	0
657.406	1	-3
658.593	1	6
659.779	1	5
660.965	1	6
662.152	1	-3
663.338	1	13
664.524	1	8
665.710	1	0
666.896	1	6
668.082	1	11
669.268	1	-1
670.454	1	-2
671.640	1	4
672.826	1	-2
674.011	1	10
675.197	1	6
676.383	1	1
677.569	1	-5
678.754	1	4
679.940	1	7
681.125	1	5
682.311	1	3
683.496	1	9
684.682	1	4
685.867	1	8
687.053	1	-6
688.238	1	3
688.746	1	-8