File: Data/GaN_170K_550ms/GaN_sample D_spot 18_UVVIS_170 K_200um_550 ms 2x2mm1_350.txt
340.368	1	0
341.565	1	-4
342.763	1	4
343.960	1	4
345.157	1	4
346.354	1	-1
347.552	1	5
348.749	1	6
349.946	1	4
351.143	1	-3
352.340	1	7
353.537	1	1
354.734	1	5
355.931	1	1
357.127	1	-1
358.324	1	8
359.521	1	7
360.718	1	3
361.914	1	2
363.111	1	13
364.308	1	12
365.504	1	10
366.701	1	7
367.897	1	4
369.093	1	-10
370.290	1	1
371.486	1	3
372.682	1	8
373.879	1	11
375.075	1	1
376.271	1	7
377.467	1	5
378.663	1	7
379.859	1	4
381.055	1	-3
382.251	1	4
383.447	1	3
384.643	1	5
385.839	1	-5
387.035	1	6
388.230	1	-2
389.426	1	2
390.622	1	-6
391.817	1	2
393.013	1	4
394.208	1	5
395.404	1	4
396.599	1	1
397.795	1	-1
398.990	1	-12
400.186	1	0
401.381	1	2
402.576	1	4
403.771	1	2
404.967	1	2
406.162	1	-6
407.357	1	-9
408.552	1	-10
409.747	1	2
410.942	1	0
412.137	1	-9
413.332	1	2
414.526	1	3
415.721	1	0
416.916	1	-6
418.111	1	4
419.305	1	3
420.500	1	3
421.695	1	-3
422.889	1	-2
424.084	1	10
425.278	1	0
426.472	1	-5
427.667	1	-10
428.861	1	-1
430.055	1	-1
431.250	1	19
432.444	1	7
433.638	1	0
434.832	1	6
436.026	1	1
437.220	1	-1
438.414	1	-3
439.608	1	-4
440.802	1	1
441.996	1	4
443.190	1	2
444.384	1	-5
445.578	1	1
446.771	1	-13
447.965	1	-1
449.159	1	-3
450.352	1	0
451.546	1	-12
452.739	1	2
453.933	1	3
455.126	1	3
456.320	1	4
457.513	1	10
458.706	1	8
459.899	1	-4
461.093	1	9
462.286	1	3
463.479	1	-6
464.672	1	0
465.865	1	3
467.058	1	-3
468.251	1	-4
469.444	1	-4
470.637	1	2
471.830	1	-5
473.023	1	3
474.215	1	6
475.408	1	-7
476.601	1	1
477.793	1	6
478.986	1	-6
480.179	1	-2
481.371	1	-1
482.564	1	0
483.756	1	2
484.948	1	-2
486.141	1	14
487.333	1	-7
488.525	1	9
489.718	1	2
490.910	1	-8
492.102	1	4
493.294	1	2
494.486	1	6
495.678	1	3
496.870	1	3
498.062	1	-6
499.254	1	8
500.446	1	0
501.638	1	-11
502.829	1	5
504.021	1	-5
505.213	1	-4
506.404	1	3
507.596	1	5
508.788	1	-11
509.979	1	-1
511.171	1	11
512.362	1	-1
513.553	1	2
514.745	1	-1
515.936	1	-5
517.127	1	-3
518.319	1	0
519.510	1	8
520.701	1	-2
521.892	1	-5
523.083	1	3
524.274	1	2
525.465	1	2
526.656	1	0
527.847	1	-7
529.038	1	-4
530.229	1	7
531.419	1	8
532.610	1	1
533.801	1	-7
534.991	1	-4
536.182	1	-8
537.373	1	-7
538.563	1	0
539.754	1	1
540.944	1	-3
542.134	1	1
543.325	1	5
544.515	1	3
545.705	1	11
546.896	1	7
548.086	1	3
549.276	1	0
550.466	1	3
551.656	1	0
552.846	1	5
554.036	1	-3
555.226	1	1
556.416	1	-1
557.606	1	-4
558.796	1	-11
559.986	1	1
561.175	1	-7
562.365	1	2
563.555	1	-4
564.744	1	4
565.934	1	7
567.123	1	-1
568.313	1	-1
569.502	1	-2
570.692	1	4
571.881	1	-11
573.070	1	4
574.260	1	3
575.449	1	-4
576.638	1	7
577.827	1	-6
579.016	1	0
580.205	1	1
581.394	1	1
582.583	1	-1
583.772	1	0
584.961	1	3
586.150	1	-2
587.339	1	-5
588.528	1	-3
589.717	1	1
590.905	1	5
592.094	1	5
593.283	1	5
594.471	1	9
595.660	1	-1
596.848	1	-1
598.037	1	-8
599.225	1	-3
600.413	1	-7
601.602	1	5
602.790	1	5
603.978	1	6
605.166	1	7
606.355	1	3
607.543	1	4
608.731	1	7
609.919	1	-4
611.107	1	10
612.295	1	6
613.483	1	-2
614.671	1	3
615.858	1	-4
617.046	1	-5
618.234	1	0
619.422	1	-8
620.609	1	-1
621.797	1	-1
622.985	1	10
624.172	1	-7
625.360	1	-1
626.547	1	-16
627.735	1	-10
628.922	1	-14
630.109	1	0
631.297	1	-2
632.484	1	2
633.671	1	7
634.858	1	0
636.045	1	10
637.232	1	3
638.419	1	-5
639.606	1	0
640.793	1	-8
641.980	1	0
643.167	1	0
644.354	1	0
645.541	1	8
646.728	1	-2
647.914	1	7
649.101	1	9
650.288	1	-1
651.474	1	12
652.661	1	1
653.847	1	-2
655.034	1	4
656.220	1	-4
657.406	1	-4
658.593	1	-2
659.779	1	0
660.965	1	12
662.152	1	1
663.338	1	6
664.524	1	4
665.710	1	3
666.896	1	2
668.082	1	4
669.268	1	-8
670.454	1	-6
671.640	1	2
672.826	1	2
674.011	1	6
675.197	1	2
676.383	1	2
677.569	1	-4
678.754	1	7
679.940	1	3
681.125	1	6
682.311	1	7
683.496	1	5
684.682	1	-1
685.867	1	6
687.053	1	-6
688.238	1	2
688.746	1	-2