File: Data/GaN_170K_550ms/GaN_sample D_spot 18_UVVIS_170 K_200um_550 ms 2x2mm1_66.txt
340.368	1	0
341.565	1	8
342.763	1	9
343.960	1	1
345.157	1	2
346.354	1	5
347.552	1	12
348.749	1	7
349.946	1	5
351.143	1	3
352.340	1	9
353.537	1	13
354.734	1	12
355.931	1	16
357.127	1	29
358.324	1	34
359.521	1	48
360.718	1	58
361.914	1	92
363.111	1	135
364.308	1	182
365.504	1	260
366.701	1	354
367.897	1	413
369.093	1	419
370.290	1	380
371.486	1	303
372.682	1	256
373.879	1	219
375.075	1	191
376.271	1	146
377.467	1	125
378.663	1	106
379.859	1	77
381.055	1	69
382.251	1	65
383.447	1	66
384.643	1	56
385.839	1	39
387.035	1	44
388.230	1	38
389.426	1	39
390.622	1	32
391.817	1	23
393.013	1	19
394.208	1	24
395.404	1	20
396.599	1	16
397.795	1	11
398.990	1	16
400.186	1	-2
401.381	1	24
402.576	1	13
403.771	1	7
404.967	1	10
406.162	1	7
407.357	1	9
408.552	1	15
409.747	1	7
410.942	1	12
412.137	1	1
413.332	1	2
414.526	1	10
415.721	1	11
416.916	1	-7
418.111	1	10
419.305	1	-3
420.500	1	14
421.695	1	-2
422.889	1	6
424.084	1	24
425.278	1	11
426.472	1	5
427.667	1	10
428.861	1	13
430.055	1	10
431.250	1	11
432.444	1	3
433.638	1	11
434.832	1	14
436.026	1	5
437.220	1	0
438.414	1	0
439.608	1	4
440.802	1	12
441.996	1	12
443.190	1	5
444.384	1	7
445.578	1	14
446.771	1	-3
447.965	1	5
449.159	1	5
450.352	1	4
451.546	1	-12
452.739	1	13
453.933	1	1
455.126	1	17
456.320	1	4
457.513	1	16
458.706	1	5
459.899	1	3
461.093	1	6
462.286	1	11
463.479	1	8
464.672	1	3
465.865	1	6
467.058	1	9
468.251	1	12
469.444	1	5
470.637	1	10
471.830	1	3
473.023	1	15
474.215	1	4
475.408	1	-3
476.601	1	-2
477.793	1	14
478.986	1	2
480.179	1	3
481.371	1	8
482.564	1	12
483.756	1	-2
484.948	1	10
486.141	1	31
487.333	1	13
488.525	1	24
489.718	1	20
490.910	1	18
492.102	1	14
493.294	1	19
494.486	1	26
495.678	1	27
496.870	1	23
498.062	1	19
499.254	1	37
500.446	1	30
501.638	1	29
502.829	1	26
504.021	1	44
505.213	1	39
506.404	1	29
507.596	1	39
508.788	1	34
509.979	1	43
511.171	1	44
512.362	1	41
513.553	1	51
514.745	1	45
515.936	1	55
517.127	1	56
518.319	1	54
519.510	1	60
520.701	1	53
521.892	1	46
523.083	1	58
524.274	1	56
525.465	1	53
526.656	1	61
527.847	1	56
529.038	1	56
530.229	1	68
531.419	1	59
532.610	1	60
533.801	1	65
534.991	1	50
536.182	1	49
537.373	1	37
538.563	1	57
539.754	1	45
540.944	1	45
542.134	1	44
543.325	1	46
544.515	1	51
545.705	1	44
546.896	1	54
548.086	1	46
549.276	1	52
550.466	1	46
551.656	1	59
552.846	1	43
554.036	1	52
555.226	1	40
556.416	1	37
557.606	1	34
558.796	1	40
559.986	1	43
561.175	1	30
562.365	1	38
563.555	1	30
564.744	1	36
565.934	1	38
567.123	1	38
568.313	1	25
569.502	1	36
570.692	1	40
571.881	1	26
573.070	1	21
574.260	1	25
575.449	1	20
576.638	1	42
577.827	1	25
579.016	1	35
580.205	1	12
581.394	1	18
582.583	1	13
583.772	1	25
584.961	1	24
586.150	1	17
587.339	1	27
588.528	1	12
589.717	1	22
590.905	1	16
592.094	1	19
593.283	1	12
594.471	1	18
595.660	1	11
596.848	1	21
598.037	1	14
599.225	1	19
600.413	1	11
601.602	1	10
602.790	1	21
603.978	1	16
605.166	1	27
606.355	1	23
607.543	1	27
608.731	1	13
609.919	1	12
611.107	1	8
612.295	1	6
613.483	1	11
614.671	1	11
615.858	1	2
617.046	1	5
618.234	1	6
619.422	1	17
620.609	1	6
621.797	1	10
622.985	1	3
624.172	1	10
625.360	1	21
626.547	1	5
627.735	1	-4
628.922	1	5
630.109	1	12
631.297	1	1
632.484	1	5
633.671	1	11
634.858	1	16
636.045	1	16
637.232	1	15
638.419	1	-1
639.606	1	6
640.793	1	0
641.980	1	5
643.167	1	-1
644.354	1	11
645.541	1	9
646.728	1	8
647.914	1	8
649.101	1	8
650.288	1	8
651.474	1	12
652.661	1	10
653.847	1	8
655.034	1	2
656.220	1	10
657.406	1	1
658.593	1	1
659.779	1	13
660.965	1	18
662.152	1	1
663.338	1	13
664.524	1	13
665.710	1	7
666.896	1	2
668.082	1	15
669.268	1	-3
670.454	1	8
671.640	1	13
672.826	1	5
674.011	1	19
675.197	1	9
676.383	1	13
677.569	1	3
678.754	1	8
679.940	1	14
681.125	1	16
682.311	1	13
683.496	1	11
684.682	1	11
685.867	1	6
687.053	1	1
688.238	1	2
688.746	1	-1