File: Data/GaN_170K_550ms/GaN_sample D_spot 18_UVVIS_170 K_200um_550 ms 2x2mm1_72.txt
340.368	1	1
341.565	1	6
342.763	1	7
343.960	1	4
345.157	1	1
346.354	1	3
347.552	1	18
348.749	1	11
349.946	1	14
351.143	1	5
352.340	1	5
353.537	1	15
354.734	1	17
355.931	1	14
357.127	1	15
358.324	1	25
359.521	1	42
360.718	1	43
361.914	1	61
363.111	1	93
364.308	1	129
365.504	1	163
366.701	1	227
367.897	1	264
369.093	1	279
370.290	1	250
371.486	1	193
372.682	1	180
373.879	1	153
375.075	1	126
376.271	1	103
377.467	1	87
378.663	1	64
379.859	1	64
381.055	1	56
382.251	1	49
383.447	1	48
384.643	1	33
385.839	1	26
387.035	1	31
388.230	1	25
389.426	1	26
390.622	1	20
391.817	1	12
393.013	1	7
394.208	1	19
395.404	1	15
396.599	1	-5
397.795	1	11
398.990	1	5
400.186	1	-4
401.381	1	19
402.576	1	8
403.771	1	9
404.967	1	9
406.162	1	4
407.357	1	3
408.552	1	7
409.747	1	7
410.942	1	5
412.137	1	7
413.332	1	2
414.526	1	12
415.721	1	0
416.916	1	-6
418.111	1	11
419.305	1	7
420.500	1	7
421.695	1	-1
422.889	1	3
424.084	1	11
425.278	1	2
426.472	1	0
427.667	1	7
428.861	1	4
430.055	1	6
431.250	1	16
432.444	1	8
433.638	1	12
434.832	1	7
436.026	1	3
437.220	1	11
438.414	1	-4
439.608	1	3
440.802	1	13
441.996	1	8
443.190	1	3
444.384	1	5
445.578	1	6
446.771	1	-6
447.965	1	3
449.159	1	-1
450.352	1	-6
451.546	1	-12
452.739	1	7
453.933	1	3
455.126	1	16
456.320	1	1
457.513	1	17
458.706	1	13
459.899	1	6
461.093	1	13
462.286	1	12
463.479	1	-1
464.672	1	-2
465.865	1	8
467.058	1	5
468.251	1	9
469.444	1	9
470.637	1	4
471.830	1	1
473.023	1	16
474.215	1	9
475.408	1	5
476.601	1	4
477.793	1	14
478.986	1	3
480.179	1	2
481.371	1	9
482.564	1	8
483.756	1	14
484.948	1	11
486.141	1	17
487.333	1	3
488.525	1	28
489.718	1	14
490.910	1	7
492.102	1	14
493.294	1	6
494.486	1	18
495.678	1	15
496.870	1	14
498.062	1	18
499.254	1	31
500.446	1	29
501.638	1	19
502.829	1	30
504.021	1	24
505.213	1	23
506.404	1	33
507.596	1	39
508.788	1	25
509.979	1	40
511.171	1	39
512.362	1	36
513.553	1	38
514.745	1	26
515.936	1	32
517.127	1	38
518.319	1	34
519.510	1	46
520.701	1	40
521.892	1	46
523.083	1	46
524.274	1	46
525.465	1	42
526.656	1	45
527.847	1	38
529.038	1	34
530.229	1	47
531.419	1	50
532.610	1	45
533.801	1	42
534.991	1	38
536.182	1	45
537.373	1	36
538.563	1	37
539.754	1	32
540.944	1	30
542.134	1	33
543.325	1	39
544.515	1	23
545.705	1	38
546.896	1	24
548.086	1	45
549.276	1	35
550.466	1	41
551.656	1	38
552.846	1	36
554.036	1	43
555.226	1	30
556.416	1	31
557.606	1	21
558.796	1	34
559.986	1	28
561.175	1	16
562.365	1	24
563.555	1	29
564.744	1	22
565.934	1	24
567.123	1	16
568.313	1	14
569.502	1	16
570.692	1	18
571.881	1	7
573.070	1	11
574.260	1	17
575.449	1	18
576.638	1	22
577.827	1	13
579.016	1	17
580.205	1	20
581.394	1	15
582.583	1	14
583.772	1	1
584.961	1	14
586.150	1	13
587.339	1	15
588.528	1	10
589.717	1	9
590.905	1	13
592.094	1	17
593.283	1	10
594.471	1	17
595.660	1	12
596.848	1	10
598.037	1	18
599.225	1	15
600.413	1	-1
601.602	1	13
602.790	1	16
603.978	1	11
605.166	1	20
606.355	1	17
607.543	1	8
608.731	1	13
609.919	1	6
611.107	1	6
612.295	1	7
613.483	1	7
614.671	1	14
615.858	1	3
617.046	1	3
618.234	1	6
619.422	1	-1
620.609	1	1
621.797	1	5
622.985	1	5
624.172	1	4
625.360	1	2
626.547	1	-1
627.735	1	4
628.922	1	3
630.109	1	8
631.297	1	7
632.484	1	5
633.671	1	17
634.858	1	6
636.045	1	11
637.232	1	14
638.419	1	3
639.606	1	-7
640.793	1	4
641.980	1	-4
643.167	1	5
644.354	1	5
645.541	1	1
646.728	1	19
647.914	1	1
649.101	1	3
650.288	1	8
651.474	1	10
652.661	1	5
653.847	1	3
655.034	1	8
656.220	1	2
657.406	1	6
658.593	1	2
659.779	1	8
660.965	1	12
662.152	1	3
663.338	1	6
664.524	1	7
665.710	1	5
666.896	1	8
668.082	1	19
669.268	1	2
670.454	1	-3
671.640	1	7
672.826	1	9
674.011	1	10
675.197	1	12
676.383	1	3
677.569	1	1
678.754	1	9
679.940	1	9
681.125	1	18
682.311	1	7
683.496	1	7
684.682	1	16
685.867	1	10
687.053	1	5
688.238	1	1
688.746	1	8