File: Data/GaN_170K_550ms/GaN_sample D_spot 18_UVVIS_170 K_200um_550 ms 2x2mm1_100.txt
340.368	1	2
341.565	1	5
342.763	1	5
343.960	1	5
345.157	1	3
346.354	1	-6
347.552	1	10
348.749	1	14
349.946	1	13
351.143	1	6
352.340	1	7
353.537	1	7
354.734	1	15
355.931	1	15
357.127	1	10
358.324	1	17
359.521	1	23
360.718	1	25
361.914	1	33
363.111	1	38
364.308	1	55
365.504	1	63
366.701	1	75
367.897	1	84
369.093	1	82
370.290	1	90
371.486	1	70
372.682	1	62
373.879	1	66
375.075	1	54
376.271	1	50
377.467	1	37
378.663	1	28
379.859	1	34
381.055	1	26
382.251	1	28
383.447	1	24
384.643	1	10
385.839	1	7
387.035	1	11
388.230	1	2
389.426	1	15
390.622	1	6
391.817	1	5
393.013	1	9
394.208	1	17
395.404	1	7
396.599	1	2
397.795	1	-5
398.990	1	-14
400.186	1	3
401.381	1	20
402.576	1	4
403.771	1	3
404.967	1	-1
406.162	1	5
407.357	1	0
408.552	1	2
409.747	1	8
410.942	1	1
412.137	1	3
413.332	1	-4
414.526	1	6
415.721	1	0
416.916	1	-3
418.111	1	9
419.305	1	9
420.500	1	-1
421.695	1	-3
422.889	1	10
424.084	1	9
425.278	1	4
426.472	1	1
427.667	1	7
428.861	1	10
430.055	1	4
431.250	1	8
432.444	1	6
433.638	1	5
434.832	1	8
436.026	1	-3
437.220	1	-1
438.414	1	-3
439.608	1	-1
440.802	1	4
441.996	1	3
443.190	1	-2
444.384	1	6
445.578	1	17
446.771	1	-12
447.965	1	5
449.159	1	-12
450.352	1	1
451.546	1	-2
452.739	1	12
453.933	1	-2
455.126	1	11
456.320	1	-4
457.513	1	19
458.706	1	6
459.899	1	0
461.093	1	4
462.286	1	-3
463.479	1	-5
464.672	1	-5
465.865	1	5
467.058	1	6
468.251	1	2
469.444	1	-3
470.637	1	10
471.830	1	4
473.023	1	9
474.215	1	8
475.408	1	-3
476.601	1	9
477.793	1	14
478.986	1	2
480.179	1	-11
481.371	1	-5
482.564	1	-1
483.756	1	4
484.948	1	-1
486.141	1	14
487.333	1	2
488.525	1	2
489.718	1	4
490.910	1	15
492.102	1	7
493.294	1	2
494.486	1	12
495.678	1	9
496.870	1	7
498.062	1	4
499.254	1	22
500.446	1	9
501.638	1	3
502.829	1	7
504.021	1	14
505.213	1	6
506.404	1	13
507.596	1	15
508.788	1	2
509.979	1	8
511.171	1	20
512.362	1	12
513.553	1	15
514.745	1	7
515.936	1	5
517.127	1	16
518.319	1	13
519.510	1	18
520.701	1	7
521.892	1	14
523.083	1	15
524.274	1	17
525.465	1	10
526.656	1	21
527.847	1	9
529.038	1	7
530.229	1	20
531.419	1	18
532.610	1	19
533.801	1	16
534.991	1	17
536.182	1	7
537.373	1	11
538.563	1	3
539.754	1	12
540.944	1	6
542.134	1	5
543.325	1	15
544.515	1	15
545.705	1	22
546.896	1	19
548.086	1	15
549.276	1	15
550.466	1	12
551.656	1	12
552.846	1	6
554.036	1	13
555.226	1	2
556.416	1	11
557.606	1	13
558.796	1	5
559.986	1	17
561.175	1	-1
562.365	1	5
563.555	1	16
564.744	1	9
565.934	1	11
567.123	1	11
568.313	1	6
569.502	1	7
570.692	1	20
571.881	1	5
573.070	1	2
574.260	1	18
575.449	1	15
576.638	1	6
577.827	1	6
579.016	1	6
580.205	1	0
581.394	1	14
582.583	1	9
583.772	1	12
584.961	1	13
586.150	1	3
587.339	1	11
588.528	1	8
589.717	1	14
590.905	1	8
592.094	1	7
593.283	1	5
594.471	1	12
595.660	1	3
596.848	1	3
598.037	1	3
599.225	1	8
600.413	1	5
601.602	1	1
602.790	1	8
603.978	1	13
605.166	1	14
606.355	1	10
607.543	1	13
608.731	1	7
609.919	1	-3
611.107	1	-3
612.295	1	4
613.483	1	5
614.671	1	4
615.858	1	1
617.046	1	-6
618.234	1	6
619.422	1	0
620.609	1	24
621.797	1	7
622.985	1	10
624.172	1	7
625.360	1	5
626.547	1	1
627.735	1	-7
628.922	1	-9
630.109	1	-8
631.297	1	-3
632.484	1	4
633.671	1	15
634.858	1	4
636.045	1	7
637.232	1	0
638.419	1	0
639.606	1	-1
640.793	1	-2
641.980	1	5
643.167	1	-2
644.354	1	14
645.541	1	12
646.728	1	4
647.914	1	-1
649.101	1	-1
650.288	1	3
651.474	1	-2
652.661	1	1
653.847	1	6
655.034	1	1
656.220	1	7
657.406	1	9
658.593	1	12
659.779	1	18
660.965	1	6
662.152	1	7
663.338	1	2
664.524	1	11
665.710	1	4
666.896	1	-1
668.082	1	12
669.268	1	-7
670.454	1	-7
671.640	1	5
672.826	1	7
674.011	1	3
675.197	1	5
676.383	1	5
677.569	1	0
678.754	1	12
679.940	1	14
681.125	1	14
682.311	1	5
683.496	1	10
684.682	1	8
685.867	1	11
687.053	1	-7
688.238	1	-5
688.746	1	-2