File: Data/GaN_170K_550ms/GaN_sample D_spot 18_UVVIS_170 K_200um_550 ms 2x2mm1_295.txt
340.368	1	-7
341.565	1	1
342.763	1	8
343.960	1	4
345.157	1	3
346.354	1	-7
347.552	1	9
348.749	1	9
349.946	1	8
351.143	1	-5
352.340	1	3
353.537	1	2
354.734	1	1
355.931	1	10
357.127	1	-5
358.324	1	11
359.521	1	5
360.718	1	4
361.914	1	2
363.111	1	10
364.308	1	13
365.504	1	-1
366.701	1	9
367.897	1	12
369.093	1	4
370.290	1	5
371.486	1	1
372.682	1	10
373.879	1	10
375.075	1	5
376.271	1	7
377.467	1	5
378.663	1	4
379.859	1	3
381.055	1	3
382.251	1	3
383.447	1	4
384.643	1	-9
385.839	1	1
387.035	1	0
388.230	1	-4
389.426	1	10
390.622	1	-4
391.817	1	5
393.013	1	-6
394.208	1	14
395.404	1	1
396.599	1	-11
397.795	1	-2
398.990	1	-11
400.186	1	2
401.381	1	9
402.576	1	-2
403.771	1	-4
404.967	1	3
406.162	1	13
407.357	1	1
408.552	1	5
409.747	1	-5
410.942	1	0
412.137	1	-6
413.332	1	-3
414.526	1	3
415.721	1	-3
416.916	1	-6
418.111	1	4
419.305	1	1
420.500	1	-4
421.695	1	-11
422.889	1	3
424.084	1	24
425.278	1	7
426.472	1	-1
427.667	1	4
428.861	1	4
430.055	1	-1
431.250	1	14
432.444	1	7
433.638	1	4
434.832	1	2
436.026	1	-6
437.220	1	-1
438.414	1	-10
439.608	1	-5
440.802	1	5
441.996	1	-1
443.190	1	-4
444.384	1	-2
445.578	1	10
446.771	1	-3
447.965	1	4
449.159	1	2
450.352	1	3
451.546	1	-8
452.739	1	3
453.933	1	0
455.126	1	10
456.320	1	-3
457.513	1	5
458.706	1	7
459.899	1	-4
461.093	1	0
462.286	1	-7
463.479	1	3
464.672	1	-13
465.865	1	11
467.058	1	13
468.251	1	-2
469.444	1	-3
470.637	1	4
471.830	1	3
473.023	1	-4
474.215	1	9
475.408	1	-14
476.601	1	-1
477.793	1	7
478.986	1	-1
480.179	1	-5
481.371	1	1
482.564	1	-2
483.756	1	0
484.948	1	1
486.141	1	11
487.333	1	-5
488.525	1	8
489.718	1	5
490.910	1	1
492.102	1	3
493.294	1	1
494.486	1	16
495.678	1	-2
496.870	1	-5
498.062	1	4
499.254	1	8
500.446	1	6
501.638	1	-6
502.829	1	8
504.021	1	7
505.213	1	-2
506.404	1	2
507.596	1	8
508.788	1	-10
509.979	1	2
511.171	1	6
512.362	1	5
513.553	1	-3
514.745	1	0
515.936	1	0
517.127	1	5
518.319	1	4
519.510	1	4
520.701	1	7
521.892	1	3
523.083	1	2
524.274	1	-4
525.465	1	0
526.656	1	12
527.847	1	6
529.038	1	-5
530.229	1	5
531.419	1	10
532.610	1	6
533.801	1	5
534.991	1	-1
536.182	1	4
537.373	1	-7
538.563	1	-1
539.754	1	5
540.944	1	2
542.134	1	-8
543.325	1	-3
544.515	1	7
545.705	1	4
546.896	1	5
548.086	1	2
549.276	1	-1
550.466	1	1
551.656	1	5
552.846	1	3
554.036	1	0
555.226	1	-5
556.416	1	1
557.606	1	7
558.796	1	2
559.986	1	4
561.175	1	-10
562.365	1	-3
563.555	1	1
564.744	1	-1
565.934	1	13
567.123	1	4
568.313	1	-7
569.502	1	-1
570.692	1	11
571.881	1	-1
573.070	1	6
574.260	1	10
575.449	1	5
576.638	1	-4
577.827	1	-4
579.016	1	6
580.205	1	2
581.394	1	-1
582.583	1	6
583.772	1	-5
584.961	1	5
586.150	1	-5
587.339	1	4
588.528	1	-2
589.717	1	10
590.905	1	11
592.094	1	9
593.283	1	-1
594.471	1	9
595.660	1	-3
596.848	1	0
598.037	1	5
599.225	1	7
600.413	1	-7
601.602	1	1
602.790	1	13
603.978	1	4
605.166	1	9
606.355	1	6
607.543	1	7
608.731	1	-4
609.919	1	-5
611.107	1	-10
612.295	1	-1
613.483	1	0
614.671	1	12
615.858	1	2
617.046	1	3
618.234	1	-4
619.422	1	-5
620.609	1	2
621.797	1	4
622.985	1	1
624.172	1	-8
625.360	1	5
626.547	1	-2
627.735	1	-9
628.922	1	-6
630.109	1	-1
631.297	1	-3
632.484	1	-2
633.671	1	-1
634.858	1	1
636.045	1	14
637.232	1	6
638.419	1	-1
639.606	1	-5
640.793	1	3
641.980	1	4
643.167	1	-14
644.354	1	-4
645.541	1	4
646.728	1	-6
647.914	1	-3
649.101	1	3
650.288	1	4
651.474	1	0
652.661	1	0
653.847	1	-1
655.034	1	-8
656.220	1	0
657.406	1	3
658.593	1	-1
659.779	1	-1
660.965	1	11
662.152	1	1
663.338	1	4
664.524	1	1
665.710	1	3
666.896	1	1
668.082	1	4
669.268	1	0
670.454	1	-10
671.640	1	11
672.826	1	2
674.011	1	15
675.197	1	1
676.383	1	1
677.569	1	-2
678.754	1	0
679.940	1	7
681.125	1	9
682.311	1	7
683.496	1	4
684.682	1	-1
685.867	1	5
687.053	1	-4
688.238	1	4
688.746	1	-2