File: Data/GaN_170K_550ms/GaN_sample D_spot 18_UVVIS_170 K_200um_550 ms 2x2mm1_106.txt
340.368	1	5
341.565	1	-4
342.763	1	4
343.960	1	-11
345.157	1	1
346.354	1	-3
347.552	1	12
348.749	1	14
349.946	1	6
351.143	1	-3
352.340	1	6
353.537	1	10
354.734	1	14
355.931	1	4
357.127	1	9
358.324	1	16
359.521	1	17
360.718	1	18
361.914	1	16
363.111	1	34
364.308	1	46
365.504	1	63
366.701	1	62
367.897	1	75
369.093	1	76
370.290	1	81
371.486	1	56
372.682	1	61
373.879	1	56
375.075	1	32
376.271	1	42
377.467	1	39
378.663	1	27
379.859	1	27
381.055	1	10
382.251	1	17
383.447	1	20
384.643	1	12
385.839	1	5
387.035	1	17
388.230	1	4
389.426	1	6
390.622	1	10
391.817	1	3
393.013	1	8
394.208	1	9
395.404	1	11
396.599	1	-2
397.795	1	-4
398.990	1	1
400.186	1	9
401.381	1	19
402.576	1	7
403.771	1	3
404.967	1	7
406.162	1	10
407.357	1	1
408.552	1	3
409.747	1	-2
410.942	1	9
412.137	1	-4
413.332	1	2
414.526	1	8
415.721	1	7
416.916	1	-5
418.111	1	7
419.305	1	5
420.500	1	1
421.695	1	-7
422.889	1	6
424.084	1	23
425.278	1	3
426.472	1	-1
427.667	1	-5
428.861	1	3
430.055	1	6
431.250	1	14
432.444	1	5
433.638	1	9
434.832	1	8
436.026	1	9
437.220	1	5
438.414	1	-5
439.608	1	3
440.802	1	11
441.996	1	3
443.190	1	-9
444.384	1	5
445.578	1	7
446.771	1	-11
447.965	1	3
449.159	1	4
450.352	1	-5
451.546	1	-2
452.739	1	-3
453.933	1	0
455.126	1	23
456.320	1	8
457.513	1	13
458.706	1	0
459.899	1	4
461.093	1	7
462.286	1	-2
463.479	1	-2
464.672	1	-2
465.865	1	-3
467.058	1	9
468.251	1	5
469.444	1	7
470.637	1	5
471.830	1	-12
473.023	1	0
474.215	1	6
475.408	1	2
476.601	1	-1
477.793	1	3
478.986	1	-1
480.179	1	-7
481.371	1	-1
482.564	1	-2
483.756	1	0
484.948	1	3
486.141	1	8
487.333	1	5
488.525	1	8
489.718	1	14
490.910	1	3
492.102	1	-2
493.294	1	9
494.486	1	11
495.678	1	5
496.870	1	4
498.062	1	6
499.254	1	10
500.446	1	7
501.638	1	3
502.829	1	4
504.021	1	13
505.213	1	8
506.404	1	8
507.596	1	10
508.788	1	0
509.979	1	10
511.171	1	12
512.362	1	8
513.553	1	12
514.745	1	9
515.936	1	6
517.127	1	12
518.319	1	17
519.510	1	11
520.701	1	12
521.892	1	14
523.083	1	6
524.274	1	14
525.465	1	14
526.656	1	13
527.847	1	0
529.038	1	7
530.229	1	27
531.419	1	13
532.610	1	10
533.801	1	12
534.991	1	13
536.182	1	4
537.373	1	9
538.563	1	15
539.754	1	7
540.944	1	3
542.134	1	8
543.325	1	15
544.515	1	12
545.705	1	17
546.896	1	10
548.086	1	14
549.276	1	9
550.466	1	8
551.656	1	10
552.846	1	6
554.036	1	10
555.226	1	4
556.416	1	11
557.606	1	7
558.796	1	9
559.986	1	8
561.175	1	-1
562.365	1	7
563.555	1	8
564.744	1	13
565.934	1	5
567.123	1	7
568.313	1	10
569.502	1	2
570.692	1	18
571.881	1	6
573.070	1	7
574.260	1	5
575.449	1	6
576.638	1	15
577.827	1	0
579.016	1	2
580.205	1	-5
581.394	1	3
582.583	1	3
583.772	1	-2
584.961	1	0
586.150	1	-5
587.339	1	2
588.528	1	10
589.717	1	10
590.905	1	11
592.094	1	10
593.283	1	9
594.471	1	8
595.660	1	2
596.848	1	7
598.037	1	4
599.225	1	6
600.413	1	3
601.602	1	3
602.790	1	20
603.978	1	16
605.166	1	5
606.355	1	8
607.543	1	12
608.731	1	8
609.919	1	4
611.107	1	1
612.295	1	-4
613.483	1	0
614.671	1	15
615.858	1	-6
617.046	1	-2
618.234	1	-1
619.422	1	-10
620.609	1	6
621.797	1	7
622.985	1	6
624.172	1	8
625.360	1	-2
626.547	1	-2
627.735	1	-4
628.922	1	-16
630.109	1	-4
631.297	1	2
632.484	1	-9
633.671	1	15
634.858	1	9
636.045	1	10
637.232	1	12
638.419	1	3
639.606	1	-10
640.793	1	-2
641.980	1	3
643.167	1	0
644.354	1	7
645.541	1	5
646.728	1	1
647.914	1	5
649.101	1	7
650.288	1	10
651.474	1	2
652.661	1	-5
653.847	1	10
655.034	1	0
656.220	1	11
657.406	1	2
658.593	1	11
659.779	1	-3
660.965	1	14
662.152	1	0
663.338	1	9
664.524	1	7
665.710	1	3
666.896	1	4
668.082	1	16
669.268	1	1
670.454	1	-5
671.640	1	14
672.826	1	6
674.011	1	1
675.197	1	1
676.383	1	9
677.569	1	5
678.754	1	6
679.940	1	8
681.125	1	9
682.311	1	13
683.496	1	13
684.682	1	8
685.867	1	10
687.053	1	-5
688.238	1	1
688.746	1	0