File: Data/GaN_170K_550ms/GaN_sample D_spot 18_UVVIS_170 K_200um_550 ms 2x2mm1_76.txt
340.368	1	8
341.565	1	9
342.763	1	4
343.960	1	4
345.157	1	6
346.354	1	4
347.552	1	13
348.749	1	0
349.946	1	17
351.143	1	0
352.340	1	7
353.537	1	12
354.734	1	19
355.931	1	8
357.127	1	18
358.324	1	30
359.521	1	32
360.718	1	42
361.914	1	49
363.111	1	80
364.308	1	116
365.504	1	145
366.701	1	196
367.897	1	223
369.093	1	228
370.290	1	198
371.486	1	174
372.682	1	138
373.879	1	123
375.075	1	87
376.271	1	105
377.467	1	79
378.663	1	70
379.859	1	61
381.055	1	43
382.251	1	39
383.447	1	38
384.643	1	42
385.839	1	28
387.035	1	21
388.230	1	31
389.426	1	25
390.622	1	10
391.817	1	12
393.013	1	15
394.208	1	21
395.404	1	16
396.599	1	4
397.795	1	10
398.990	1	-2
400.186	1	6
401.381	1	15
402.576	1	12
403.771	1	11
404.967	1	9
406.162	1	8
407.357	1	0
408.552	1	9
409.747	1	4
410.942	1	12
412.137	1	2
413.332	1	2
414.526	1	4
415.721	1	3
416.916	1	-6
418.111	1	5
419.305	1	8
420.500	1	10
421.695	1	1
422.889	1	8
424.084	1	24
425.278	1	8
426.472	1	2
427.667	1	6
428.861	1	7
430.055	1	-4
431.250	1	14
432.444	1	4
433.638	1	13
434.832	1	8
436.026	1	1
437.220	1	4
438.414	1	1
439.608	1	7
440.802	1	11
441.996	1	3
443.190	1	5
444.384	1	9
445.578	1	8
446.771	1	-9
447.965	1	9
449.159	1	0
450.352	1	-7
451.546	1	-3
452.739	1	8
453.933	1	3
455.126	1	6
456.320	1	6
457.513	1	5
458.706	1	7
459.899	1	5
461.093	1	8
462.286	1	-2
463.479	1	-7
464.672	1	1
465.865	1	-3
467.058	1	13
468.251	1	9
469.444	1	9
470.637	1	8
471.830	1	4
473.023	1	11
474.215	1	8
475.408	1	8
476.601	1	6
477.793	1	11
478.986	1	2
480.179	1	1
481.371	1	5
482.564	1	4
483.756	1	10
484.948	1	-1
486.141	1	19
487.333	1	-3
488.525	1	13
489.718	1	26
490.910	1	14
492.102	1	10
493.294	1	8
494.486	1	20
495.678	1	14
496.870	1	16
498.062	1	12
499.254	1	24
500.446	1	15
501.638	1	19
502.829	1	20
504.021	1	23
505.213	1	15
506.404	1	18
507.596	1	31
508.788	1	14
509.979	1	21
511.171	1	26
512.362	1	15
513.553	1	36
514.745	1	24
515.936	1	27
517.127	1	37
518.319	1	46
519.510	1	39
520.701	1	35
521.892	1	39
523.083	1	30
524.274	1	34
525.465	1	40
526.656	1	37
527.847	1	37
529.038	1	36
530.229	1	46
531.419	1	47
532.610	1	42
533.801	1	42
534.991	1	31
536.182	1	20
537.373	1	25
538.563	1	38
539.754	1	39
540.944	1	24
542.134	1	35
543.325	1	32
544.515	1	26
545.705	1	27
546.896	1	28
548.086	1	37
549.276	1	38
550.466	1	27
551.656	1	32
552.846	1	21
554.036	1	29
555.226	1	14
556.416	1	25
557.606	1	24
558.796	1	17
559.986	1	32
561.175	1	19
562.365	1	21
563.555	1	25
564.744	1	17
565.934	1	14
567.123	1	20
568.313	1	11
569.502	1	16
570.692	1	25
571.881	1	7
573.070	1	16
574.260	1	21
575.449	1	18
576.638	1	16
577.827	1	9
579.016	1	12
580.205	1	10
581.394	1	5
582.583	1	11
583.772	1	5
584.961	1	11
586.150	1	9
587.339	1	11
588.528	1	15
589.717	1	11
590.905	1	12
592.094	1	17
593.283	1	12
594.471	1	11
595.660	1	6
596.848	1	6
598.037	1	12
599.225	1	9
600.413	1	13
601.602	1	9
602.790	1	17
603.978	1	12
605.166	1	15
606.355	1	9
607.543	1	17
608.731	1	6
609.919	1	13
611.107	1	7
612.295	1	4
613.483	1	2
614.671	1	11
615.858	1	10
617.046	1	8
618.234	1	6
619.422	1	-7
620.609	1	5
621.797	1	9
622.985	1	6
624.172	1	13
625.360	1	-3
626.547	1	4
627.735	1	-2
628.922	1	2
630.109	1	6
631.297	1	10
632.484	1	-2
633.671	1	5
634.858	1	7
636.045	1	16
637.232	1	2
638.419	1	-6
639.606	1	3
640.793	1	5
641.980	1	2
643.167	1	-4
644.354	1	9
645.541	1	5
646.728	1	11
647.914	1	6
649.101	1	5
650.288	1	5
651.474	1	-3
652.661	1	12
653.847	1	5
655.034	1	6
656.220	1	1
657.406	1	8
658.593	1	1
659.779	1	10
660.965	1	14
662.152	1	6
663.338	1	10
664.524	1	6
665.710	1	2
666.896	1	17
668.082	1	20
669.268	1	4
670.454	1	-7
671.640	1	8
672.826	1	6
674.011	1	16
675.197	1	16
676.383	1	1
677.569	1	-4
678.754	1	5
679.940	1	16
681.125	1	7
682.311	1	-2
683.496	1	12
684.682	1	8
685.867	1	18
687.053	1	-2
688.238	1	-1
688.746	1	4