File: Data/GaN_170K_550ms/GaN_sample D_spot 18_UVVIS_170 K_200um_550 ms 2x2mm1_181.txt
340.368	1	1
341.565	1	2
342.763	1	7
343.960	1	1
345.157	1	4
346.354	1	0
347.552	1	6
348.749	1	5
349.946	1	10
351.143	1	1
352.340	1	6
353.537	1	11
354.734	1	-5
355.931	1	5
357.127	1	0
358.324	1	4
359.521	1	8
360.718	1	11
361.914	1	7
363.111	1	13
364.308	1	20
365.504	1	15
366.701	1	21
367.897	1	21
369.093	1	15
370.290	1	25
371.486	1	11
372.682	1	16
373.879	1	25
375.075	1	16
376.271	1	16
377.467	1	17
378.663	1	17
379.859	1	6
381.055	1	3
382.251	1	5
383.447	1	1
384.643	1	6
385.839	1	-2
387.035	1	8
388.230	1	-1
389.426	1	-2
390.622	1	9
391.817	1	2
393.013	1	-2
394.208	1	12
395.404	1	6
396.599	1	0
397.795	1	3
398.990	1	-1
400.186	1	-2
401.381	1	9
402.576	1	3
403.771	1	-4
404.967	1	13
406.162	1	15
407.357	1	1
408.552	1	5
409.747	1	-1
410.942	1	2
412.137	1	-5
413.332	1	-3
414.526	1	6
415.721	1	-3
416.916	1	-1
418.111	1	9
419.305	1	4
420.500	1	-3
421.695	1	-6
422.889	1	-7
424.084	1	9
425.278	1	-4
426.472	1	1
427.667	1	-1
428.861	1	-4
430.055	1	-10
431.250	1	16
432.444	1	-2
433.638	1	1
434.832	1	9
436.026	1	4
437.220	1	-2
438.414	1	-4
439.608	1	1
440.802	1	13
441.996	1	-4
443.190	1	0
444.384	1	-1
445.578	1	8
446.771	1	-8
447.965	1	-4
449.159	1	-4
450.352	1	-4
451.546	1	-5
452.739	1	6
453.933	1	-1
455.126	1	7
456.320	1	8
457.513	1	2
458.706	1	9
459.899	1	0
461.093	1	-1
462.286	1	-7
463.479	1	-5
464.672	1	-3
465.865	1	3
467.058	1	1
468.251	1	-5
469.444	1	1
470.637	1	1
471.830	1	-8
473.023	1	4
474.215	1	9
475.408	1	-4
476.601	1	-6
477.793	1	10
478.986	1	7
480.179	1	-5
481.371	1	3
482.564	1	2
483.756	1	7
484.948	1	7
486.141	1	9
487.333	1	3
488.525	1	5
489.718	1	3
490.910	1	-2
492.102	1	8
493.294	1	4
494.486	1	6
495.678	1	5
496.870	1	6
498.062	1	-6
499.254	1	9
500.446	1	3
501.638	1	-6
502.829	1	7
504.021	1	4
505.213	1	8
506.404	1	9
507.596	1	1
508.788	1	3
509.979	1	3
511.171	1	3
512.362	1	5
513.553	1	12
514.745	1	5
515.936	1	-2
517.127	1	-2
518.319	1	7
519.510	1	5
520.701	1	1
521.892	1	2
523.083	1	-2
524.274	1	3
525.465	1	0
526.656	1	13
527.847	1	-1
529.038	1	1
530.229	1	12
531.419	1	10
532.610	1	1
533.801	1	6
534.991	1	5
536.182	1	0
537.373	1	1
538.563	1	8
539.754	1	0
540.944	1	-7
542.134	1	-3
543.325	1	7
544.515	1	3
545.705	1	13
546.896	1	4
548.086	1	13
549.276	1	6
550.466	1	11
551.656	1	18
552.846	1	-5
554.036	1	-1
555.226	1	0
556.416	1	3
557.606	1	9
558.796	1	-5
559.986	1	8
561.175	1	-6
562.365	1	4
563.555	1	0
564.744	1	0
565.934	1	11
567.123	1	6
568.313	1	0
569.502	1	3
570.692	1	4
571.881	1	2
573.070	1	0
574.260	1	4
575.449	1	8
576.638	1	11
577.827	1	-4
579.016	1	7
580.205	1	-5
581.394	1	8
582.583	1	6
583.772	1	-6
584.961	1	-2
586.150	1	-1
587.339	1	-1
588.528	1	-1
589.717	1	11
590.905	1	8
592.094	1	10
593.283	1	2
594.471	1	11
595.660	1	8
596.848	1	4
598.037	1	8
599.225	1	4
600.413	1	1
601.602	1	8
602.790	1	8
603.978	1	16
605.166	1	2
606.355	1	3
607.543	1	5
608.731	1	1
609.919	1	0
611.107	1	-1
612.295	1	-3
613.483	1	-1
614.671	1	14
615.858	1	8
617.046	1	-8
618.234	1	4
619.422	1	1
620.609	1	8
621.797	1	-5
622.985	1	1
624.172	1	11
625.360	1	6
626.547	1	-10
627.735	1	-6
628.922	1	-6
630.109	1	10
631.297	1	-3
632.484	1	5
633.671	1	7
634.858	1	3
636.045	1	5
637.232	1	2
638.419	1	-6
639.606	1	-2
640.793	1	-6
641.980	1	-5
643.167	1	-2
644.354	1	7
645.541	1	6
646.728	1	6
647.914	1	-4
649.101	1	-2
650.288	1	11
651.474	1	6
652.661	1	3
653.847	1	9
655.034	1	2
656.220	1	-2
657.406	1	-1
658.593	1	-6
659.779	1	3
660.965	1	10
662.152	1	-3
663.338	1	9
664.524	1	-5
665.710	1	2
666.896	1	5
668.082	1	2
669.268	1	0
670.454	1	-11
671.640	1	8
672.826	1	2
674.011	1	0
675.197	1	4
676.383	1	3
677.569	1	-1
678.754	1	0
679.940	1	4
681.125	1	7
682.311	1	4
683.496	1	8
684.682	1	3
685.867	1	4
687.053	1	-3
688.238	1	-1
688.746	1	-1