File: Data/GaN_170K_550ms/GaN_sample D_spot 18_UVVIS_170 K_200um_550 ms 2x2mm1_90.txt
340.368	1	2
341.565	1	12
342.763	1	4
343.960	1	6
345.157	1	6
346.354	1	5
347.552	1	7
348.749	1	9
349.946	1	13
351.143	1	1
352.340	1	16
353.537	1	0
354.734	1	17
355.931	1	10
357.127	1	18
358.324	1	23
359.521	1	34
360.718	1	30
361.914	1	35
363.111	1	60
364.308	1	69
365.504	1	82
366.701	1	113
367.897	1	135
369.093	1	126
370.290	1	117
371.486	1	95
372.682	1	96
373.879	1	73
375.075	1	60
376.271	1	67
377.467	1	58
378.663	1	40
379.859	1	35
381.055	1	29
382.251	1	27
383.447	1	34
384.643	1	17
385.839	1	13
387.035	1	16
388.230	1	18
389.426	1	12
390.622	1	9
391.817	1	16
393.013	1	8
394.208	1	13
395.404	1	19
396.599	1	9
397.795	1	7
398.990	1	2
400.186	1	-8
401.381	1	3
402.576	1	4
403.771	1	0
404.967	1	0
406.162	1	15
407.357	1	-1
408.552	1	8
409.747	1	7
410.942	1	-1
412.137	1	-3
413.332	1	-4
414.526	1	5
415.721	1	3
416.916	1	4
418.111	1	6
419.305	1	1
420.500	1	8
421.695	1	1
422.889	1	-3
424.084	1	18
425.278	1	4
426.472	1	5
427.667	1	5
428.861	1	3
430.055	1	4
431.250	1	27
432.444	1	4
433.638	1	9
434.832	1	4
436.026	1	0
437.220	1	6
438.414	1	-3
439.608	1	5
440.802	1	9
441.996	1	-3
443.190	1	3
444.384	1	2
445.578	1	14
446.771	1	-13
447.965	1	9
449.159	1	4
450.352	1	-10
451.546	1	-6
452.739	1	2
453.933	1	4
455.126	1	6
456.320	1	11
457.513	1	12
458.706	1	11
459.899	1	4
461.093	1	4
462.286	1	-2
463.479	1	3
464.672	1	8
465.865	1	-2
467.058	1	9
468.251	1	1
469.444	1	3
470.637	1	11
471.830	1	3
473.023	1	2
474.215	1	-4
475.408	1	-4
476.601	1	4
477.793	1	9
478.986	1	5
480.179	1	4
481.371	1	-1
482.564	1	7
483.756	1	4
484.948	1	5
486.141	1	16
487.333	1	12
488.525	1	11
489.718	1	12
490.910	1	12
492.102	1	9
493.294	1	1
494.486	1	17
495.678	1	13
496.870	1	12
498.062	1	11
499.254	1	18
500.446	1	7
501.638	1	0
502.829	1	11
504.021	1	13
505.213	1	14
506.404	1	19
507.596	1	17
508.788	1	12
509.979	1	16
511.171	1	10
512.362	1	7
513.553	1	21
514.745	1	12
515.936	1	8
517.127	1	25
518.319	1	21
519.510	1	19
520.701	1	18
521.892	1	19
523.083	1	15
524.274	1	20
525.465	1	14
526.656	1	26
527.847	1	17
529.038	1	7
530.229	1	24
531.419	1	33
532.610	1	20
533.801	1	20
534.991	1	16
536.182	1	12
537.373	1	14
538.563	1	15
539.754	1	22
540.944	1	15
542.134	1	10
543.325	1	17
544.515	1	9
545.705	1	24
546.896	1	17
548.086	1	12
549.276	1	22
550.466	1	15
551.656	1	17
552.846	1	17
554.036	1	14
555.226	1	9
556.416	1	13
557.606	1	19
558.796	1	20
559.986	1	15
561.175	1	1
562.365	1	14
563.555	1	9
564.744	1	19
565.934	1	16
567.123	1	7
568.313	1	16
569.502	1	8
570.692	1	20
571.881	1	5
573.070	1	16
574.260	1	13
575.449	1	10
576.638	1	18
577.827	1	5
579.016	1	14
580.205	1	6
581.394	1	2
582.583	1	5
583.772	1	9
584.961	1	7
586.150	1	6
587.339	1	12
588.528	1	9
589.717	1	10
590.905	1	16
592.094	1	4
593.283	1	8
594.471	1	13
595.660	1	5
596.848	1	10
598.037	1	9
599.225	1	4
600.413	1	-7
601.602	1	11
602.790	1	16
603.978	1	4
605.166	1	8
606.355	1	7
607.543	1	11
608.731	1	7
609.919	1	2
611.107	1	-2
612.295	1	7
613.483	1	9
614.671	1	9
615.858	1	5
617.046	1	-6
618.234	1	-3
619.422	1	-2
620.609	1	11
621.797	1	1
622.985	1	9
624.172	1	5
625.360	1	6
626.547	1	4
627.735	1	-3
628.922	1	-10
630.109	1	5
631.297	1	3
632.484	1	-2
633.671	1	11
634.858	1	14
636.045	1	8
637.232	1	7
638.419	1	3
639.606	1	-1
640.793	1	5
641.980	1	2
643.167	1	-1
644.354	1	12
645.541	1	7
646.728	1	6
647.914	1	2
649.101	1	5
650.288	1	3
651.474	1	13
652.661	1	3
653.847	1	5
655.034	1	0
656.220	1	0
657.406	1	9
658.593	1	10
659.779	1	5
660.965	1	18
662.152	1	-2
663.338	1	5
664.524	1	3
665.710	1	8
666.896	1	10
668.082	1	14
669.268	1	5
670.454	1	-5
671.640	1	-1
672.826	1	1
674.011	1	12
675.197	1	5
676.383	1	10
677.569	1	2
678.754	1	1
679.940	1	10
681.125	1	12
682.311	1	11
683.496	1	10
684.682	1	8
685.867	1	11
687.053	1	0
688.238	1	10
688.746	1	0