File: Data/GaN_170K_550ms/GaN_sample D_spot 18_UVVIS_170 K_200um_550 ms 2x2mm1_249.txt
340.368	1	-7
341.565	1	2
342.763	1	2
343.960	1	-12
345.157	1	-6
346.354	1	4
347.552	1	4
348.749	1	3
349.946	1	10
351.143	1	3
352.340	1	-1
353.537	1	11
354.734	1	-1
355.931	1	0
357.127	1	3
358.324	1	13
359.521	1	2
360.718	1	5
361.914	1	10
363.111	1	13
364.308	1	18
365.504	1	5
366.701	1	7
367.897	1	14
369.093	1	2
370.290	1	12
371.486	1	0
372.682	1	18
373.879	1	7
375.075	1	9
376.271	1	8
377.467	1	9
378.663	1	7
379.859	1	10
381.055	1	5
382.251	1	0
383.447	1	5
384.643	1	5
385.839	1	-3
387.035	1	6
388.230	1	-7
389.426	1	1
390.622	1	2
391.817	1	-5
393.013	1	12
394.208	1	7
395.404	1	15
396.599	1	-13
397.795	1	-10
398.990	1	-5
400.186	1	1
401.381	1	19
402.576	1	-3
403.771	1	9
404.967	1	10
406.162	1	3
407.357	1	-1
408.552	1	2
409.747	1	5
410.942	1	1
412.137	1	-10
413.332	1	0
414.526	1	10
415.721	1	-9
416.916	1	0
418.111	1	0
419.305	1	4
420.500	1	3
421.695	1	-9
422.889	1	-1
424.084	1	12
425.278	1	3
426.472	1	8
427.667	1	9
428.861	1	5
430.055	1	2
431.250	1	12
432.444	1	5
433.638	1	-1
434.832	1	3
436.026	1	2
437.220	1	-4
438.414	1	-11
439.608	1	0
440.802	1	6
441.996	1	1
443.190	1	7
444.384	1	-1
445.578	1	-4
446.771	1	-4
447.965	1	2
449.159	1	6
450.352	1	-3
451.546	1	-3
452.739	1	-7
453.933	1	-1
455.126	1	16
456.320	1	0
457.513	1	9
458.706	1	-1
459.899	1	-8
461.093	1	4
462.286	1	0
463.479	1	-3
464.672	1	-4
465.865	1	5
467.058	1	5
468.251	1	3
469.444	1	1
470.637	1	4
471.830	1	-4
473.023	1	-1
474.215	1	-3
475.408	1	-3
476.601	1	6
477.793	1	12
478.986	1	-1
480.179	1	-7
481.371	1	-2
482.564	1	-1
483.756	1	6
484.948	1	4
486.141	1	2
487.333	1	-7
488.525	1	8
489.718	1	6
490.910	1	6
492.102	1	6
493.294	1	1
494.486	1	9
495.678	1	1
496.870	1	-5
498.062	1	-1
499.254	1	6
500.446	1	-2
501.638	1	-5
502.829	1	-1
504.021	1	6
505.213	1	-3
506.404	1	-3
507.596	1	7
508.788	1	-6
509.979	1	5
511.171	1	-7
512.362	1	-3
513.553	1	-2
514.745	1	6
515.936	1	-3
517.127	1	-1
518.319	1	8
519.510	1	7
520.701	1	-4
521.892	1	4
523.083	1	0
524.274	1	5
525.465	1	1
526.656	1	12
527.847	1	-2
529.038	1	3
530.229	1	18
531.419	1	8
532.610	1	-3
533.801	1	1
534.991	1	-7
536.182	1	0
537.373	1	-6
538.563	1	7
539.754	1	2
540.944	1	-4
542.134	1	-6
543.325	1	0
544.515	1	3
545.705	1	3
546.896	1	3
548.086	1	3
549.276	1	-1
550.466	1	0
551.656	1	-1
552.846	1	2
554.036	1	9
555.226	1	5
556.416	1	-8
557.606	1	2
558.796	1	5
559.986	1	5
561.175	1	-6
562.365	1	0
563.555	1	1
564.744	1	4
565.934	1	4
567.123	1	12
568.313	1	-3
569.502	1	4
570.692	1	8
571.881	1	-10
573.070	1	-8
574.260	1	9
575.449	1	7
576.638	1	2
577.827	1	7
579.016	1	8
580.205	1	-7
581.394	1	2
582.583	1	4
583.772	1	2
584.961	1	6
586.150	1	-15
587.339	1	-2
588.528	1	-11
589.717	1	6
590.905	1	-1
592.094	1	6
593.283	1	3
594.471	1	3
595.660	1	0
596.848	1	5
598.037	1	7
599.225	1	6
600.413	1	-1
601.602	1	8
602.790	1	1
603.978	1	0
605.166	1	3
606.355	1	15
607.543	1	5
608.731	1	10
609.919	1	-5
611.107	1	0
612.295	1	-2
613.483	1	-4
614.671	1	-5
615.858	1	3
617.046	1	-3
618.234	1	-2
619.422	1	-4
620.609	1	1
621.797	1	2
622.985	1	-5
624.172	1	-2
625.360	1	0
626.547	1	-5
627.735	1	-7
628.922	1	-6
630.109	1	1
631.297	1	-7
632.484	1	-3
633.671	1	9
634.858	1	-5
636.045	1	7
637.232	1	-1
638.419	1	-4
639.606	1	5
640.793	1	2
641.980	1	2
643.167	1	-9
644.354	1	-1
645.541	1	4
646.728	1	7
647.914	1	-4
649.101	1	6
650.288	1	7
651.474	1	1
652.661	1	0
653.847	1	8
655.034	1	1
656.220	1	6
657.406	1	-2
658.593	1	7
659.779	1	5
660.965	1	8
662.152	1	-3
663.338	1	5
664.524	1	-2
665.710	1	5
666.896	1	0
668.082	1	12
669.268	1	-2
670.454	1	-2
671.640	1	8
672.826	1	-1
674.011	1	9
675.197	1	13
676.383	1	6
677.569	1	-6
678.754	1	12
679.940	1	7
681.125	1	7
682.311	1	4
683.496	1	0
684.682	1	4
685.867	1	9
687.053	1	-3
688.238	1	-5
688.746	1	-8