File: Data/GaN_170K_550ms/GaN_sample D_spot 18_UVVIS_170 K_200um_550 ms 2x2mm1_179.txt
340.368	1	0
341.565	1	1
342.763	1	9
343.960	1	3
345.157	1	-1
346.354	1	-2
347.552	1	12
348.749	1	0
349.946	1	11
351.143	1	6
352.340	1	11
353.537	1	3
354.734	1	-1
355.931	1	-9
357.127	1	4
358.324	1	21
359.521	1	9
360.718	1	11
361.914	1	15
363.111	1	14
364.308	1	21
365.504	1	12
366.701	1	17
367.897	1	27
369.093	1	9
370.290	1	9
371.486	1	14
372.682	1	24
373.879	1	21
375.075	1	19
376.271	1	22
377.467	1	11
378.663	1	13
379.859	1	11
381.055	1	7
382.251	1	11
383.447	1	14
384.643	1	10
385.839	1	0
387.035	1	4
388.230	1	5
389.426	1	4
390.622	1	4
391.817	1	4
393.013	1	9
394.208	1	4
395.404	1	14
396.599	1	2
397.795	1	2
398.990	1	-14
400.186	1	0
401.381	1	6
402.576	1	7
403.771	1	-2
404.967	1	3
406.162	1	1
407.357	1	-1
408.552	1	1
409.747	1	-5
410.942	1	9
412.137	1	-13
413.332	1	-4
414.526	1	5
415.721	1	3
416.916	1	-7
418.111	1	10
419.305	1	4
420.500	1	4
421.695	1	-5
422.889	1	-8
424.084	1	10
425.278	1	-9
426.472	1	-2
427.667	1	1
428.861	1	2
430.055	1	6
431.250	1	14
432.444	1	1
433.638	1	5
434.832	1	8
436.026	1	4
437.220	1	-2
438.414	1	-6
439.608	1	-1
440.802	1	1
441.996	1	4
443.190	1	7
444.384	1	-6
445.578	1	11
446.771	1	-13
447.965	1	-3
449.159	1	-2
450.352	1	0
451.546	1	-6
452.739	1	-3
453.933	1	4
455.126	1	11
456.320	1	7
457.513	1	8
458.706	1	9
459.899	1	7
461.093	1	11
462.286	1	-2
463.479	1	10
464.672	1	-7
465.865	1	6
467.058	1	3
468.251	1	2
469.444	1	0
470.637	1	3
471.830	1	-3
473.023	1	2
474.215	1	7
475.408	1	-4
476.601	1	1
477.793	1	12
478.986	1	0
480.179	1	-4
481.371	1	-3
482.564	1	-3
483.756	1	7
484.948	1	5
486.141	1	6
487.333	1	-3
488.525	1	4
489.718	1	8
490.910	1	-6
492.102	1	9
493.294	1	-7
494.486	1	5
495.678	1	14
496.870	1	4
498.062	1	-3
499.254	1	13
500.446	1	2
501.638	1	3
502.829	1	0
504.021	1	7
505.213	1	-4
506.404	1	-5
507.596	1	7
508.788	1	-6
509.979	1	7
511.171	1	6
512.362	1	-10
513.553	1	7
514.745	1	5
515.936	1	0
517.127	1	5
518.319	1	12
519.510	1	-1
520.701	1	13
521.892	1	0
523.083	1	2
524.274	1	0
525.465	1	3
526.656	1	15
527.847	1	4
529.038	1	2
530.229	1	22
531.419	1	10
532.610	1	14
533.801	1	10
534.991	1	-7
536.182	1	9
537.373	1	-9
538.563	1	0
539.754	1	-2
540.944	1	-4
542.134	1	6
543.325	1	7
544.515	1	8
545.705	1	3
546.896	1	3
548.086	1	4
549.276	1	5
550.466	1	2
551.656	1	0
552.846	1	-2
554.036	1	1
555.226	1	-8
556.416	1	3
557.606	1	2
558.796	1	4
559.986	1	2
561.175	1	-3
562.365	1	3
563.555	1	5
564.744	1	3
565.934	1	4
567.123	1	2
568.313	1	-7
569.502	1	7
570.692	1	5
571.881	1	-6
573.070	1	-1
574.260	1	6
575.449	1	-1
576.638	1	12
577.827	1	-4
579.016	1	5
580.205	1	-2
581.394	1	3
582.583	1	-3
583.772	1	-1
584.961	1	5
586.150	1	-3
587.339	1	0
588.528	1	8
589.717	1	3
590.905	1	12
592.094	1	9
593.283	1	8
594.471	1	4
595.660	1	1
596.848	1	-4
598.037	1	6
599.225	1	2
600.413	1	-12
601.602	1	3
602.790	1	6
603.978	1	9
605.166	1	5
606.355	1	-4
607.543	1	4
608.731	1	2
609.919	1	-4
611.107	1	3
612.295	1	-4
613.483	1	-1
614.671	1	11
615.858	1	3
617.046	1	5
618.234	1	-2
619.422	1	-3
620.609	1	5
621.797	1	-3
622.985	1	-2
624.172	1	2
625.360	1	-2
626.547	1	-6
627.735	1	-7
628.922	1	-3
630.109	1	-1
631.297	1	4
632.484	1	-2
633.671	1	13
634.858	1	-2
636.045	1	9
637.232	1	5
638.419	1	-5
639.606	1	-8
640.793	1	-7
641.980	1	-3
643.167	1	-7
644.354	1	1
645.541	1	8
646.728	1	3
647.914	1	-1
649.101	1	4
650.288	1	5
651.474	1	8
652.661	1	6
653.847	1	-3
655.034	1	-3
656.220	1	2
657.406	1	9
658.593	1	1
659.779	1	9
660.965	1	12
662.152	1	5
663.338	1	10
664.524	1	-5
665.710	1	3
666.896	1	-4
668.082	1	1
669.268	1	3
670.454	1	-5
671.640	1	1
672.826	1	-3
674.011	1	8
675.197	1	5
676.383	1	0
677.569	1	3
678.754	1	4
679.940	1	5
681.125	1	5
682.311	1	-2
683.496	1	8
684.682	1	4
685.867	1	8
687.053	1	-6
688.238	1	-2
688.746	1	-9