File: Data/GaN_170K_550ms/GaN_sample D_spot 18_UVVIS_170 K_200um_550 ms 2x2mm1_63.txt
340.368	1	3
341.565	1	7
342.763	1	4
343.960	1	1
345.157	1	4
346.354	1	-9
347.552	1	8
348.749	1	11
349.946	1	-1
351.143	1	5
352.340	1	8
353.537	1	9
354.734	1	17
355.931	1	22
357.127	1	32
358.324	1	37
359.521	1	60
360.718	1	69
361.914	1	92
363.111	1	159
364.308	1	226
365.504	1	320
366.701	1	448
367.897	1	560
369.093	1	547
370.290	1	497
371.486	1	401
372.682	1	340
373.879	1	289
375.075	1	226
376.271	1	179
377.467	1	164
378.663	1	132
379.859	1	98
381.055	1	84
382.251	1	73
383.447	1	66
384.643	1	56
385.839	1	47
387.035	1	49
388.230	1	45
389.426	1	41
390.622	1	28
391.817	1	33
393.013	1	34
394.208	1	36
395.404	1	28
396.599	1	34
397.795	1	10
398.990	1	10
400.186	1	17
401.381	1	28
402.576	1	11
403.771	1	14
404.967	1	6
406.162	1	11
407.357	1	14
408.552	1	20
409.747	1	1
410.942	1	11
412.137	1	5
413.332	1	-3
414.526	1	14
415.721	1	11
416.916	1	7
418.111	1	13
419.305	1	7
420.500	1	7
421.695	1	-5
422.889	1	2
424.084	1	18
425.278	1	3
426.472	1	2
427.667	1	6
428.861	1	14
430.055	1	2
431.250	1	15
432.444	1	3
433.638	1	14
434.832	1	15
436.026	1	7
437.220	1	2
438.414	1	4
439.608	1	2
440.802	1	13
441.996	1	0
443.190	1	3
444.384	1	5
445.578	1	7
446.771	1	-5
447.965	1	-5
449.159	1	1
450.352	1	2
451.546	1	-1
452.739	1	12
453.933	1	-5
455.126	1	14
456.320	1	5
457.513	1	19
458.706	1	16
459.899	1	4
461.093	1	18
462.286	1	-1
463.479	1	2
464.672	1	4
465.865	1	4
467.058	1	3
468.251	1	11
469.444	1	11
470.637	1	13
471.830	1	8
473.023	1	12
474.215	1	7
475.408	1	7
476.601	1	4
477.793	1	16
478.986	1	4
480.179	1	3
481.371	1	5
482.564	1	10
483.756	1	16
484.948	1	20
486.141	1	31
487.333	1	16
488.525	1	28
489.718	1	23
490.910	1	18
492.102	1	32
493.294	1	30
494.486	1	29
495.678	1	37
496.870	1	24
498.062	1	28
499.254	1	35
500.446	1	35
501.638	1	35
502.829	1	51
504.021	1	47
505.213	1	50
506.404	1	49
507.596	1	55
508.788	1	36
509.979	1	58
511.171	1	64
512.362	1	58
513.553	1	56
514.745	1	54
515.936	1	61
517.127	1	61
518.319	1	61
519.510	1	70
520.701	1	60
521.892	1	72
523.083	1	72
524.274	1	66
525.465	1	76
526.656	1	71
527.847	1	63
529.038	1	70
530.229	1	82
531.419	1	87
532.610	1	70
533.801	1	66
534.991	1	59
536.182	1	60
537.373	1	60
538.563	1	66
539.754	1	69
540.944	1	69
542.134	1	67
543.325	1	56
544.515	1	59
545.705	1	71
546.896	1	60
548.086	1	66
549.276	1	60
550.466	1	56
551.656	1	59
552.846	1	50
554.036	1	54
555.226	1	48
556.416	1	60
557.606	1	49
558.796	1	44
559.986	1	53
561.175	1	42
562.365	1	45
563.555	1	44
564.744	1	47
565.934	1	50
567.123	1	44
568.313	1	36
569.502	1	45
570.692	1	49
571.881	1	41
573.070	1	38
574.260	1	43
575.449	1	32
576.638	1	40
577.827	1	36
579.016	1	33
580.205	1	29
581.394	1	35
582.583	1	30
583.772	1	26
584.961	1	32
586.150	1	19
587.339	1	27
588.528	1	31
589.717	1	27
590.905	1	30
592.094	1	20
593.283	1	23
594.471	1	18
595.660	1	14
596.848	1	19
598.037	1	23
599.225	1	25
600.413	1	12
601.602	1	23
602.790	1	29
603.978	1	25
605.166	1	23
606.355	1	27
607.543	1	23
608.731	1	20
609.919	1	16
611.107	1	14
612.295	1	3
613.483	1	14
614.671	1	29
615.858	1	9
617.046	1	8
618.234	1	9
619.422	1	6
620.609	1	9
621.797	1	18
622.985	1	13
624.172	1	10
625.360	1	18
626.547	1	2
627.735	1	7
628.922	1	2
630.109	1	11
631.297	1	12
632.484	1	3
633.671	1	13
634.858	1	5
636.045	1	16
637.232	1	9
638.419	1	5
639.606	1	2
640.793	1	9
641.980	1	11
643.167	1	5
644.354	1	14
645.541	1	11
646.728	1	10
647.914	1	10
649.101	1	14
650.288	1	2
651.474	1	14
652.661	1	6
653.847	1	8
655.034	1	5
656.220	1	11
657.406	1	8
658.593	1	10
659.779	1	11
660.965	1	18
662.152	1	8
663.338	1	17
664.524	1	6
665.710	1	10
666.896	1	6
668.082	1	20
669.268	1	4
670.454	1	9
671.640	1	21
672.826	1	9
674.011	1	13
675.197	1	2
676.383	1	22
677.569	1	0
678.754	1	9
679.940	1	10
681.125	1	14
682.311	1	7
683.496	1	19
684.682	1	17
685.867	1	11
687.053	1	5
688.238	1	13
688.746	1	12