File: Data/GaN_170K_550ms/GaN_sample D_spot 18_UVVIS_170 K_200um_550 ms 2x2mm1_261.txt
340.368	1	-3
341.565	1	-2
342.763	1	4
343.960	1	-4
345.157	1	3
346.354	1	0
347.552	1	10
348.749	1	0
349.946	1	1
351.143	1	-2
352.340	1	12
353.537	1	10
354.734	1	5
355.931	1	1
357.127	1	-7
358.324	1	1
359.521	1	0
360.718	1	1
361.914	1	5
363.111	1	18
364.308	1	-1
365.504	1	17
366.701	1	14
367.897	1	17
369.093	1	4
370.290	1	10
371.486	1	6
372.682	1	14
373.879	1	10
375.075	1	10
376.271	1	4
377.467	1	6
378.663	1	7
379.859	1	5
381.055	1	4
382.251	1	3
383.447	1	2
384.643	1	2
385.839	1	2
387.035	1	3
388.230	1	-3
389.426	1	17
390.622	1	-6
391.817	1	-2
393.013	1	0
394.208	1	11
395.404	1	-1
396.599	1	-7
397.795	1	-2
398.990	1	-14
400.186	1	-16
401.381	1	7
402.576	1	2
403.771	1	-4
404.967	1	1
406.162	1	8
407.357	1	-5
408.552	1	-6
409.747	1	0
410.942	1	3
412.137	1	-7
413.332	1	-1
414.526	1	4
415.721	1	0
416.916	1	-7
418.111	1	0
419.305	1	-4
420.500	1	2
421.695	1	-4
422.889	1	1
424.084	1	11
425.278	1	-3
426.472	1	4
427.667	1	6
428.861	1	-2
430.055	1	4
431.250	1	20
432.444	1	3
433.638	1	11
434.832	1	-6
436.026	1	2
437.220	1	-8
438.414	1	0
439.608	1	-6
440.802	1	6
441.996	1	-1
443.190	1	7
444.384	1	6
445.578	1	13
446.771	1	-15
447.965	1	-2
449.159	1	0
450.352	1	-5
451.546	1	-8
452.739	1	1
453.933	1	-1
455.126	1	2
456.320	1	-4
457.513	1	2
458.706	1	7
459.899	1	-1
461.093	1	11
462.286	1	-6
463.479	1	1
464.672	1	-2
465.865	1	3
467.058	1	9
468.251	1	4
469.444	1	-2
470.637	1	-9
471.830	1	0
473.023	1	2
474.215	1	2
475.408	1	-3
476.601	1	0
477.793	1	9
478.986	1	1
480.179	1	-2
481.371	1	-6
482.564	1	-8
483.756	1	2
484.948	1	-3
486.141	1	15
487.333	1	-7
488.525	1	6
489.718	1	9
490.910	1	-2
492.102	1	-5
493.294	1	-10
494.486	1	10
495.678	1	-2
496.870	1	-4
498.062	1	2
499.254	1	7
500.446	1	1
501.638	1	-1
502.829	1	1
504.021	1	1
505.213	1	-2
506.404	1	-7
507.596	1	7
508.788	1	-5
509.979	1	5
511.171	1	-2
512.362	1	-6
513.553	1	-2
514.745	1	0
515.936	1	4
517.127	1	4
518.319	1	2
519.510	1	0
520.701	1	3
521.892	1	-2
523.083	1	0
524.274	1	-4
525.465	1	4
526.656	1	9
527.847	1	-2
529.038	1	-2
530.229	1	11
531.419	1	12
532.610	1	-1
533.801	1	4
534.991	1	-6
536.182	1	-9
537.373	1	2
538.563	1	2
539.754	1	1
540.944	1	3
542.134	1	-4
543.325	1	8
544.515	1	-5
545.705	1	-1
546.896	1	4
548.086	1	7
549.276	1	2
550.466	1	-6
551.656	1	-3
552.846	1	1
554.036	1	-2
555.226	1	-3
556.416	1	-3
557.606	1	4
558.796	1	-5
559.986	1	-2
561.175	1	-4
562.365	1	8
563.555	1	2
564.744	1	-3
565.934	1	8
567.123	1	-3
568.313	1	3
569.502	1	-8
570.692	1	2
571.881	1	-5
573.070	1	-1
574.260	1	0
575.449	1	-2
576.638	1	2
577.827	1	-3
579.016	1	2
580.205	1	-7
581.394	1	6
582.583	1	0
583.772	1	5
584.961	1	7
586.150	1	-5
587.339	1	5
588.528	1	-2
589.717	1	3
590.905	1	3
592.094	1	7
593.283	1	3
594.471	1	11
595.660	1	4
596.848	1	8
598.037	1	0
599.225	1	5
600.413	1	2
601.602	1	0
602.790	1	4
603.978	1	4
605.166	1	8
606.355	1	1
607.543	1	6
608.731	1	0
609.919	1	-2
611.107	1	-12
612.295	1	3
613.483	1	-6
614.671	1	16
615.858	1	11
617.046	1	0
618.234	1	1
619.422	1	-4
620.609	1	-1
621.797	1	3
622.985	1	-2
624.172	1	-1
625.360	1	-4
626.547	1	-5
627.735	1	-5
628.922	1	-13
630.109	1	-2
631.297	1	2
632.484	1	-3
633.671	1	12
634.858	1	8
636.045	1	2
637.232	1	-6
638.419	1	-8
639.606	1	-12
640.793	1	-2
641.980	1	-6
643.167	1	-1
644.354	1	0
645.541	1	12
646.728	1	11
647.914	1	3
649.101	1	7
650.288	1	9
651.474	1	6
652.661	1	-1
653.847	1	2
655.034	1	1
656.220	1	12
657.406	1	0
658.593	1	2
659.779	1	4
660.965	1	10
662.152	1	0
663.338	1	7
664.524	1	12
665.710	1	7
666.896	1	-4
668.082	1	4
669.268	1	0
670.454	1	-4
671.640	1	8
672.826	1	0
674.011	1	4
675.197	1	10
676.383	1	-5
677.569	1	-10
678.754	1	3
679.940	1	13
681.125	1	5
682.311	1	4
683.496	1	13
684.682	1	7
685.867	1	6
687.053	1	3
688.238	1	-11
688.746	1	-2