File: Data/GaN_170K_550ms/GaN_sample D_spot 18_UVVIS_170 K_200um_550 ms 2x2mm1_347.txt
340.368	1	1
341.565	1	11
342.763	1	-4
343.960	1	0
345.157	1	-1
346.354	1	-3
347.552	1	-1
348.749	1	11
349.946	1	3
351.143	1	-1
352.340	1	-1
353.537	1	2
354.734	1	6
355.931	1	6
357.127	1	2
358.324	1	6
359.521	1	7
360.718	1	0
361.914	1	3
363.111	1	12
364.308	1	5
365.504	1	5
366.701	1	6
367.897	1	3
369.093	1	2
370.290	1	-5
371.486	1	-2
372.682	1	9
373.879	1	5
375.075	1	-3
376.271	1	3
377.467	1	5
378.663	1	0
379.859	1	5
381.055	1	3
382.251	1	-3
383.447	1	5
384.643	1	4
385.839	1	1
387.035	1	5
388.230	1	-6
389.426	1	0
390.622	1	-2
391.817	1	9
393.013	1	3
394.208	1	5
395.404	1	13
396.599	1	-9
397.795	1	-5
398.990	1	-4
400.186	1	-9
401.381	1	12
402.576	1	-3
403.771	1	3
404.967	1	1
406.162	1	0
407.357	1	1
408.552	1	-3
409.747	1	-5
410.942	1	5
412.137	1	-9
413.332	1	-6
414.526	1	5
415.721	1	1
416.916	1	-15
418.111	1	7
419.305	1	-5
420.500	1	1
421.695	1	-4
422.889	1	-5
424.084	1	17
425.278	1	-2
426.472	1	1
427.667	1	-2
428.861	1	-13
430.055	1	-8
431.250	1	5
432.444	1	6
433.638	1	5
434.832	1	7
436.026	1	-2
437.220	1	0
438.414	1	-3
439.608	1	-4
440.802	1	-2
441.996	1	-10
443.190	1	-9
444.384	1	1
445.578	1	10
446.771	1	-11
447.965	1	1
449.159	1	-8
450.352	1	-8
451.546	1	0
452.739	1	4
453.933	1	3
455.126	1	11
456.320	1	-5
457.513	1	6
458.706	1	-1
459.899	1	-6
461.093	1	5
462.286	1	-5
463.479	1	-4
464.672	1	-7
465.865	1	0
467.058	1	5
468.251	1	-2
469.444	1	2
470.637	1	-4
471.830	1	0
473.023	1	0
474.215	1	-1
475.408	1	-17
476.601	1	2
477.793	1	4
478.986	1	-2
480.179	1	-11
481.371	1	-6
482.564	1	-3
483.756	1	-1
484.948	1	4
486.141	1	5
487.333	1	-2
488.525	1	10
489.718	1	9
490.910	1	-5
492.102	1	4
493.294	1	0
494.486	1	3
495.678	1	7
496.870	1	-1
498.062	1	-3
499.254	1	2
500.446	1	0
501.638	1	-7
502.829	1	-3
504.021	1	0
505.213	1	5
506.404	1	4
507.596	1	5
508.788	1	-6
509.979	1	-3
511.171	1	5
512.362	1	-6
513.553	1	-1
514.745	1	-2
515.936	1	-3
517.127	1	6
518.319	1	12
519.510	1	4
520.701	1	5
521.892	1	6
523.083	1	6
524.274	1	1
525.465	1	3
526.656	1	6
527.847	1	0
529.038	1	-4
530.229	1	15
531.419	1	6
532.610	1	6
533.801	1	-3
534.991	1	-3
536.182	1	1
537.373	1	-3
538.563	1	7
539.754	1	-3
540.944	1	-6
542.134	1	-4
543.325	1	3
544.515	1	5
545.705	1	10
546.896	1	-2
548.086	1	-5
549.276	1	-1
550.466	1	-3
551.656	1	2
552.846	1	-6
554.036	1	3
555.226	1	-7
556.416	1	-4
557.606	1	7
558.796	1	-8
559.986	1	4
561.175	1	-7
562.365	1	1
563.555	1	2
564.744	1	1
565.934	1	9
567.123	1	-2
568.313	1	1
569.502	1	-3
570.692	1	8
571.881	1	0
573.070	1	9
574.260	1	8
575.449	1	8
576.638	1	3
577.827	1	-2
579.016	1	1
580.205	1	-11
581.394	1	-3
582.583	1	-9
583.772	1	-2
584.961	1	-3
586.150	1	1
587.339	1	-5
588.528	1	-5
589.717	1	2
590.905	1	-1
592.094	1	13
593.283	1	4
594.471	1	11
595.660	1	8
596.848	1	-2
598.037	1	-5
599.225	1	4
600.413	1	-4
601.602	1	3
602.790	1	9
603.978	1	8
605.166	1	10
606.355	1	2
607.543	1	14
608.731	1	4
609.919	1	-8
611.107	1	-4
612.295	1	-10
613.483	1	-3
614.671	1	4
615.858	1	0
617.046	1	-1
618.234	1	-2
619.422	1	-3
620.609	1	-4
621.797	1	-2
622.985	1	-5
624.172	1	4
625.360	1	0
626.547	1	-2
627.735	1	-10
628.922	1	-6
630.109	1	-8
631.297	1	-6
632.484	1	0
633.671	1	10
634.858	1	5
636.045	1	0
637.232	1	4
638.419	1	-11
639.606	1	-4
640.793	1	-6
641.980	1	-5
643.167	1	-1
644.354	1	4
645.541	1	1
646.728	1	-4
647.914	1	0
649.101	1	1
650.288	1	-4
651.474	1	9
652.661	1	-3
653.847	1	-8
655.034	1	-6
656.220	1	-7
657.406	1	3
658.593	1	-4
659.779	1	7
660.965	1	13
662.152	1	0
663.338	1	4
664.524	1	12
665.710	1	-1
666.896	1	0
668.082	1	10
669.268	1	-4
670.454	1	-4
671.640	1	7
672.826	1	-4
674.011	1	6
675.197	1	6
676.383	1	-1
677.569	1	-8
678.754	1	4
679.940	1	6
681.125	1	12
682.311	1	4
683.496	1	5
684.682	1	-8
685.867	1	9
687.053	1	-4
688.238	1	-3
688.746	1	-6