File: Data/GaN_170K_550ms/GaN_sample D_spot 18_UVVIS_170 K_200um_550 ms 2x2mm1_322.txt
340.368	1	-3
341.565	1	0
342.763	1	-2
343.960	1	0
345.157	1	6
346.354	1	-5
347.552	1	2
348.749	1	7
349.946	1	1
351.143	1	-5
352.340	1	-2
353.537	1	6
354.734	1	6
355.931	1	0
357.127	1	3
358.324	1	11
359.521	1	7
360.718	1	-1
361.914	1	-2
363.111	1	10
364.308	1	14
365.504	1	-4
366.701	1	7
367.897	1	3
369.093	1	1
370.290	1	-2
371.486	1	-1
372.682	1	-1
373.879	1	16
375.075	1	-1
376.271	1	-3
377.467	1	4
378.663	1	0
379.859	1	6
381.055	1	-5
382.251	1	7
383.447	1	7
384.643	1	-8
385.839	1	-8
387.035	1	-1
388.230	1	0
389.426	1	-1
390.622	1	-2
391.817	1	4
393.013	1	-4
394.208	1	2
395.404	1	14
396.599	1	-7
397.795	1	-2
398.990	1	-7
400.186	1	-6
401.381	1	9
402.576	1	-3
403.771	1	-2
404.967	1	3
406.162	1	1
407.357	1	-6
408.552	1	-2
409.747	1	-9
410.942	1	0
412.137	1	-10
413.332	1	-1
414.526	1	-2
415.721	1	-1
416.916	1	-1
418.111	1	-2
419.305	1	-3
420.500	1	-7
421.695	1	3
422.889	1	1
424.084	1	21
425.278	1	-8
426.472	1	2
427.667	1	4
428.861	1	6
430.055	1	5
431.250	1	8
432.444	1	8
433.638	1	11
434.832	1	-4
436.026	1	3
437.220	1	2
438.414	1	-6
439.608	1	4
440.802	1	1
441.996	1	-4
443.190	1	6
444.384	1	4
445.578	1	11
446.771	1	-14
447.965	1	3
449.159	1	2
450.352	1	-5
451.546	1	-12
452.739	1	5
453.933	1	-2
455.126	1	20
456.320	1	2
457.513	1	8
458.706	1	4
459.899	1	3
461.093	1	8
462.286	1	-5
463.479	1	1
464.672	1	-3
465.865	1	-4
467.058	1	0
468.251	1	6
469.444	1	-5
470.637	1	-4
471.830	1	-1
473.023	1	1
474.215	1	6
475.408	1	-7
476.601	1	1
477.793	1	4
478.986	1	1
480.179	1	-10
481.371	1	-3
482.564	1	-5
483.756	1	8
484.948	1	0
486.141	1	15
487.333	1	-3
488.525	1	8
489.718	1	8
490.910	1	-12
492.102	1	3
493.294	1	-5
494.486	1	11
495.678	1	0
496.870	1	-10
498.062	1	4
499.254	1	18
500.446	1	-6
501.638	1	-2
502.829	1	-7
504.021	1	9
505.213	1	0
506.404	1	9
507.596	1	6
508.788	1	-7
509.979	1	9
511.171	1	7
512.362	1	-6
513.553	1	3
514.745	1	-1
515.936	1	2
517.127	1	10
518.319	1	-2
519.510	1	5
520.701	1	-1
521.892	1	5
523.083	1	-1
524.274	1	-4
525.465	1	0
526.656	1	7
527.847	1	10
529.038	1	-4
530.229	1	12
531.419	1	3
532.610	1	-3
533.801	1	-5
534.991	1	-3
536.182	1	0
537.373	1	-8
538.563	1	-2
539.754	1	3
540.944	1	-2
542.134	1	-1
543.325	1	-5
544.515	1	-5
545.705	1	4
546.896	1	6
548.086	1	3
549.276	1	-1
550.466	1	-8
551.656	1	3
552.846	1	-6
554.036	1	0
555.226	1	7
556.416	1	-7
557.606	1	3
558.796	1	-2
559.986	1	3
561.175	1	-4
562.365	1	5
563.555	1	2
564.744	1	-4
565.934	1	-2
567.123	1	-9
568.313	1	5
569.502	1	6
570.692	1	-3
571.881	1	1
573.070	1	-5
574.260	1	2
575.449	1	3
576.638	1	4
577.827	1	-4
579.016	1	3
580.205	1	-1
581.394	1	-3
582.583	1	3
583.772	1	-2
584.961	1	-1
586.150	1	-6
587.339	1	0
588.528	1	2
589.717	1	9
590.905	1	7
592.094	1	2
593.283	1	10
594.471	1	9
595.660	1	-3
596.848	1	-2
598.037	1	6
599.225	1	-2
600.413	1	-6
601.602	1	12
602.790	1	9
603.978	1	5
605.166	1	4
606.355	1	6
607.543	1	9
608.731	1	-2
609.919	1	1
611.107	1	-11
612.295	1	1
613.483	1	2
614.671	1	3
615.858	1	-6
617.046	1	-9
618.234	1	1
619.422	1	-12
620.609	1	-1
621.797	1	-3
622.985	1	3
624.172	1	0
625.360	1	4
626.547	1	-6
627.735	1	-15
628.922	1	-2
630.109	1	-6
631.297	1	1
632.484	1	-2
633.671	1	8
634.858	1	7
636.045	1	10
637.232	1	8
638.419	1	-7
639.606	1	-5
640.793	1	2
641.980	1	-7
643.167	1	-7
644.354	1	3
645.541	1	4
646.728	1	2
647.914	1	3
649.101	1	1
650.288	1	3
651.474	1	7
652.661	1	3
653.847	1	3
655.034	1	-6
656.220	1	1
657.406	1	-1
658.593	1	-4
659.779	1	2
660.965	1	6
662.152	1	-6
663.338	1	-3
664.524	1	9
665.710	1	-6
666.896	1	-2
668.082	1	1
669.268	1	-7
670.454	1	0
671.640	1	7
672.826	1	-2
674.011	1	-4
675.197	1	3
676.383	1	-5
677.569	1	-8
678.754	1	9
679.940	1	5
681.125	1	7
682.311	1	-4
683.496	1	5
684.682	1	0
685.867	1	9
687.053	1	1
688.238	1	-5
688.746	1	-2