File: Data/GaN_170K_550ms/GaN_sample D_spot 18_UVVIS_170 K_200um_550 ms 2x2mm1_294.txt
340.368	1	6
341.565	1	8
342.763	1	0
343.960	1	-7
345.157	1	2
346.354	1	-3
347.552	1	11
348.749	1	4
349.946	1	5
351.143	1	-2
352.340	1	1
353.537	1	4
354.734	1	-2
355.931	1	8
357.127	1	3
358.324	1	8
359.521	1	9
360.718	1	1
361.914	1	16
363.111	1	11
364.308	1	7
365.504	1	11
366.701	1	16
367.897	1	10
369.093	1	-2
370.290	1	6
371.486	1	-4
372.682	1	8
373.879	1	8
375.075	1	9
376.271	1	6
377.467	1	6
378.663	1	0
379.859	1	4
381.055	1	4
382.251	1	2
383.447	1	13
384.643	1	-2
385.839	1	-5
387.035	1	0
388.230	1	-1
389.426	1	10
390.622	1	-9
391.817	1	8
393.013	1	-4
394.208	1	4
395.404	1	6
396.599	1	-13
397.795	1	-6
398.990	1	-4
400.186	1	1
401.381	1	9
402.576	1	7
403.771	1	9
404.967	1	5
406.162	1	5
407.357	1	-6
408.552	1	8
409.747	1	-2
410.942	1	4
412.137	1	1
413.332	1	-4
414.526	1	7
415.721	1	5
416.916	1	-8
418.111	1	10
419.305	1	6
420.500	1	1
421.695	1	-10
422.889	1	4
424.084	1	19
425.278	1	-3
426.472	1	2
427.667	1	0
428.861	1	-2
430.055	1	4
431.250	1	15
432.444	1	-1
433.638	1	7
434.832	1	2
436.026	1	4
437.220	1	-3
438.414	1	-3
439.608	1	-6
440.802	1	10
441.996	1	-8
443.190	1	-9
444.384	1	-4
445.578	1	13
446.771	1	-5
447.965	1	6
449.159	1	0
450.352	1	7
451.546	1	-4
452.739	1	-2
453.933	1	-1
455.126	1	8
456.320	1	-2
457.513	1	10
458.706	1	3
459.899	1	2
461.093	1	3
462.286	1	-3
463.479	1	-8
464.672	1	-1
465.865	1	-4
467.058	1	1
468.251	1	7
469.444	1	8
470.637	1	11
471.830	1	-3
473.023	1	-7
474.215	1	5
475.408	1	-3
476.601	1	4
477.793	1	5
478.986	1	-6
480.179	1	-11
481.371	1	-6
482.564	1	1
483.756	1	5
484.948	1	3
486.141	1	6
487.333	1	-3
488.525	1	17
489.718	1	4
490.910	1	1
492.102	1	-2
493.294	1	-3
494.486	1	3
495.678	1	8
496.870	1	3
498.062	1	-3
499.254	1	3
500.446	1	2
501.638	1	-8
502.829	1	1
504.021	1	0
505.213	1	5
506.404	1	2
507.596	1	10
508.788	1	-13
509.979	1	4
511.171	1	3
512.362	1	8
513.553	1	-3
514.745	1	5
515.936	1	-5
517.127	1	2
518.319	1	-1
519.510	1	-3
520.701	1	-5
521.892	1	0
523.083	1	-3
524.274	1	5
525.465	1	3
526.656	1	12
527.847	1	-7
529.038	1	3
530.229	1	13
531.419	1	15
532.610	1	-4
533.801	1	2
534.991	1	2
536.182	1	-7
537.373	1	4
538.563	1	2
539.754	1	-4
540.944	1	-7
542.134	1	-2
543.325	1	4
544.515	1	-1
545.705	1	10
546.896	1	9
548.086	1	-5
549.276	1	10
550.466	1	-3
551.656	1	1
552.846	1	3
554.036	1	7
555.226	1	-12
556.416	1	0
557.606	1	6
558.796	1	-4
559.986	1	7
561.175	1	-7
562.365	1	1
563.555	1	-2
564.744	1	6
565.934	1	-5
567.123	1	-2
568.313	1	0
569.502	1	4
570.692	1	2
571.881	1	-6
573.070	1	4
574.260	1	8
575.449	1	-2
576.638	1	8
577.827	1	-2
579.016	1	8
580.205	1	1
581.394	1	1
582.583	1	4
583.772	1	-5
584.961	1	9
586.150	1	-3
587.339	1	-5
588.528	1	0
589.717	1	9
590.905	1	8
592.094	1	9
593.283	1	6
594.471	1	3
595.660	1	3
596.848	1	0
598.037	1	-3
599.225	1	4
600.413	1	-4
601.602	1	10
602.790	1	15
603.978	1	11
605.166	1	12
606.355	1	13
607.543	1	8
608.731	1	5
609.919	1	-4
611.107	1	-5
612.295	1	-8
613.483	1	-3
614.671	1	11
615.858	1	-4
617.046	1	-1
618.234	1	1
619.422	1	-1
620.609	1	0
621.797	1	-4
622.985	1	-2
624.172	1	-2
625.360	1	-4
626.547	1	-6
627.735	1	-8
628.922	1	-6
630.109	1	-7
631.297	1	-4
632.484	1	2
633.671	1	0
634.858	1	-4
636.045	1	-3
637.232	1	-2
638.419	1	-8
639.606	1	-4
640.793	1	-4
641.980	1	-12
643.167	1	-3
644.354	1	0
645.541	1	0
646.728	1	2
647.914	1	-3
649.101	1	0
650.288	1	-11
651.474	1	6
652.661	1	7
653.847	1	-1
655.034	1	-2
656.220	1	0
657.406	1	2
658.593	1	2
659.779	1	-3
660.965	1	9
662.152	1	-10
663.338	1	-6
664.524	1	6
665.710	1	0
666.896	1	8
668.082	1	10
669.268	1	-6
670.454	1	-6
671.640	1	13
672.826	1	4
674.011	1	9
675.197	1	9
676.383	1	0
677.569	1	-9
678.754	1	7
679.940	1	1
681.125	1	12
682.311	1	3
683.496	1	3
684.682	1	5
685.867	1	3
687.053	1	-3
688.238	1	3
688.746	1	-2