File: Data/GaN_170K_550ms/GaN_sample D_spot 18_UVVIS_170 K_200um_550 ms 2x2mm1_46.txt
340.368	1	-3
341.565	1	10
342.763	1	3
343.960	1	0
345.157	1	4
346.354	1	-2
347.552	1	4
348.749	1	5
349.946	1	0
351.143	1	-1
352.340	1	6
353.537	1	7
354.734	1	10
355.931	1	1
357.127	1	1
358.324	1	9
359.521	1	10
360.718	1	-6
361.914	1	3
363.111	1	6
364.308	1	0
365.504	1	-9
366.701	1	1
367.897	1	-5
369.093	1	-4
370.290	1	1
371.486	1	-6
372.682	1	-2
373.879	1	6
375.075	1	6
376.271	1	0
377.467	1	3
378.663	1	6
379.859	1	5
381.055	1	-1
382.251	1	0
383.447	1	8
384.643	1	5
385.839	1	6
387.035	1	-2
388.230	1	3
389.426	1	5
390.622	1	-3
391.817	1	9
393.013	1	2
394.208	1	13
395.404	1	12
396.599	1	4
397.795	1	-6
398.990	1	1
400.186	1	-6
401.381	1	7
402.576	1	0
403.771	1	2
404.967	1	9
406.162	1	1
407.357	1	-7
408.552	1	4
409.747	1	0
410.942	1	6
412.137	1	-6
413.332	1	-2
414.526	1	0
415.721	1	5
416.916	1	-10
418.111	1	15
419.305	1	3
420.500	1	3
421.695	1	-4
422.889	1	-3
424.084	1	20
425.278	1	-11
426.472	1	3
427.667	1	3
428.861	1	5
430.055	1	4
431.250	1	10
432.444	1	3
433.638	1	14
434.832	1	3
436.026	1	-1
437.220	1	13
438.414	1	-8
439.608	1	-4
440.802	1	9
441.996	1	9
443.190	1	-3
444.384	1	-6
445.578	1	6
446.771	1	-12
447.965	1	2
449.159	1	0
450.352	1	-4
451.546	1	-4
452.739	1	-2
453.933	1	5
455.126	1	6
456.320	1	1
457.513	1	9
458.706	1	4
459.899	1	-1
461.093	1	11
462.286	1	-4
463.479	1	0
464.672	1	4
465.865	1	0
467.058	1	6
468.251	1	2
469.444	1	3
470.637	1	2
471.830	1	3
473.023	1	1
474.215	1	6
475.408	1	-2
476.601	1	3
477.793	1	6
478.986	1	-5
480.179	1	-1
481.371	1	4
482.564	1	-4
483.756	1	8
484.948	1	-3
486.141	1	6
487.333	1	-1
488.525	1	5
489.718	1	14
490.910	1	3
492.102	1	-5
493.294	1	-2
494.486	1	11
495.678	1	-3
496.870	1	2
498.062	1	-3
499.254	1	-3
500.446	1	-2
501.638	1	-5
502.829	1	1
504.021	1	4
505.213	1	2
506.404	1	1
507.596	1	9
508.788	1	-4
509.979	1	5
511.171	1	7
512.362	1	1
513.553	1	4
514.745	1	-10
515.936	1	2
517.127	1	5
518.319	1	10
519.510	1	3
520.701	1	7
521.892	1	1
523.083	1	1
524.274	1	-7
525.465	1	11
526.656	1	10
527.847	1	2
529.038	1	-5
530.229	1	4
531.419	1	7
532.610	1	0
533.801	1	2
534.991	1	2
536.182	1	4
537.373	1	1
538.563	1	6
539.754	1	-5
540.944	1	-4
542.134	1	-5
543.325	1	8
544.515	1	1
545.705	1	8
546.896	1	1
548.086	1	-5
549.276	1	2
550.466	1	-2
551.656	1	3
552.846	1	3
554.036	1	0
555.226	1	-6
556.416	1	-4
557.606	1	5
558.796	1	3
559.986	1	10
561.175	1	-9
562.365	1	6
563.555	1	2
564.744	1	9
565.934	1	6
567.123	1	3
568.313	1	0
569.502	1	7
570.692	1	1
571.881	1	1
573.070	1	5
574.260	1	13
575.449	1	5
576.638	1	5
577.827	1	1
579.016	1	1
580.205	1	1
581.394	1	-3
582.583	1	-2
583.772	1	-3
584.961	1	5
586.150	1	-1
587.339	1	0
588.528	1	-3
589.717	1	1
590.905	1	10
592.094	1	10
593.283	1	6
594.471	1	10
595.660	1	10
596.848	1	-5
598.037	1	2
599.225	1	8
600.413	1	-1
601.602	1	3
602.790	1	5
603.978	1	3
605.166	1	2
606.355	1	13
607.543	1	3
608.731	1	5
609.919	1	-12
611.107	1	-3
612.295	1	-4
613.483	1	0
614.671	1	7
615.858	1	2
617.046	1	-1
618.234	1	7
619.422	1	-7
620.609	1	-9
621.797	1	4
622.985	1	-1
624.172	1	5
625.360	1	1
626.547	1	6
627.735	1	-4
628.922	1	-3
630.109	1	0
631.297	1	-3
632.484	1	-4
633.671	1	7
634.858	1	-6
636.045	1	5
637.232	1	7
638.419	1	-4
639.606	1	-7
640.793	1	4
641.980	1	-5
643.167	1	-3
644.354	1	3
645.541	1	0
646.728	1	1
647.914	1	-1
649.101	1	6
650.288	1	1
651.474	1	4
652.661	1	0
653.847	1	2
655.034	1	2
656.220	1	-4
657.406	1	2
658.593	1	0
659.779	1	5
660.965	1	11
662.152	1	1
663.338	1	3
664.524	1	4
665.710	1	-1
666.896	1	7
668.082	1	12
669.268	1	-9
670.454	1	-13
671.640	1	10
672.826	1	0
674.011	1	4
675.197	1	13
676.383	1	2
677.569	1	6
678.754	1	-3
679.940	1	3
681.125	1	9
682.311	1	3
683.496	1	7
684.682	1	0
685.867	1	9
687.053	1	-4
688.238	1	-5
688.746	1	0