File: Data/GaN_170K_550ms/GaN_sample D_spot 18_UVVIS_170 K_200um_550 ms 2x2mm1_79.txt
340.368	1	-4
341.565	1	4
342.763	1	0
343.960	1	1
345.157	1	-1
346.354	1	-2
347.552	1	10
348.749	1	16
349.946	1	17
351.143	1	0
352.340	1	9
353.537	1	8
354.734	1	14
355.931	1	9
357.127	1	14
358.324	1	21
359.521	1	37
360.718	1	36
361.914	1	52
363.111	1	79
364.308	1	93
365.504	1	131
366.701	1	162
367.897	1	196
369.093	1	199
370.290	1	170
371.486	1	146
372.682	1	131
373.879	1	103
375.075	1	88
376.271	1	86
377.467	1	69
378.663	1	60
379.859	1	52
381.055	1	45
382.251	1	39
383.447	1	33
384.643	1	24
385.839	1	20
387.035	1	30
388.230	1	9
389.426	1	21
390.622	1	14
391.817	1	11
393.013	1	12
394.208	1	25
395.404	1	17
396.599	1	4
397.795	1	11
398.990	1	4
400.186	1	9
401.381	1	15
402.576	1	7
403.771	1	10
404.967	1	5
406.162	1	1
407.357	1	6
408.552	1	4
409.747	1	5
410.942	1	9
412.137	1	-7
413.332	1	-3
414.526	1	7
415.721	1	-3
416.916	1	-12
418.111	1	9
419.305	1	8
420.500	1	6
421.695	1	2
422.889	1	3
424.084	1	19
425.278	1	2
426.472	1	5
427.667	1	12
428.861	1	13
430.055	1	3
431.250	1	12
432.444	1	8
433.638	1	17
434.832	1	7
436.026	1	2
437.220	1	2
438.414	1	-1
439.608	1	-2
440.802	1	16
441.996	1	2
443.190	1	0
444.384	1	4
445.578	1	14
446.771	1	-5
447.965	1	8
449.159	1	6
450.352	1	-5
451.546	1	-8
452.739	1	-1
453.933	1	9
455.126	1	11
456.320	1	1
457.513	1	6
458.706	1	10
459.899	1	4
461.093	1	9
462.286	1	-4
463.479	1	1
464.672	1	3
465.865	1	4
467.058	1	6
468.251	1	4
469.444	1	8
470.637	1	1
471.830	1	1
473.023	1	6
474.215	1	0
475.408	1	5
476.601	1	10
477.793	1	15
478.986	1	0
480.179	1	6
481.371	1	7
482.564	1	-3
483.756	1	15
484.948	1	1
486.141	1	18
487.333	1	8
488.525	1	17
489.718	1	16
490.910	1	13
492.102	1	12
493.294	1	9
494.486	1	20
495.678	1	14
496.870	1	12
498.062	1	12
499.254	1	25
500.446	1	12
501.638	1	10
502.829	1	29
504.021	1	25
505.213	1	16
506.404	1	21
507.596	1	26
508.788	1	14
509.979	1	18
511.171	1	15
512.362	1	13
513.553	1	32
514.745	1	28
515.936	1	23
517.127	1	38
518.319	1	38
519.510	1	35
520.701	1	26
521.892	1	18
523.083	1	14
524.274	1	29
525.465	1	38
526.656	1	35
527.847	1	32
529.038	1	30
530.229	1	36
531.419	1	34
532.610	1	30
533.801	1	25
534.991	1	29
536.182	1	27
537.373	1	27
538.563	1	22
539.754	1	30
540.944	1	26
542.134	1	19
543.325	1	26
544.515	1	25
545.705	1	30
546.896	1	30
548.086	1	21
549.276	1	24
550.466	1	16
551.656	1	34
552.846	1	26
554.036	1	26
555.226	1	7
556.416	1	22
557.606	1	24
558.796	1	20
559.986	1	31
561.175	1	13
562.365	1	19
563.555	1	9
564.744	1	13
565.934	1	26
567.123	1	8
568.313	1	13
569.502	1	13
570.692	1	23
571.881	1	14
573.070	1	16
574.260	1	12
575.449	1	10
576.638	1	12
577.827	1	10
579.016	1	10
580.205	1	3
581.394	1	20
582.583	1	3
583.772	1	18
584.961	1	3
586.150	1	3
587.339	1	9
588.528	1	8
589.717	1	17
590.905	1	11
592.094	1	12
593.283	1	12
594.471	1	13
595.660	1	11
596.848	1	13
598.037	1	11
599.225	1	20
600.413	1	-6
601.602	1	20
602.790	1	22
603.978	1	8
605.166	1	10
606.355	1	15
607.543	1	16
608.731	1	7
609.919	1	3
611.107	1	2
612.295	1	3
613.483	1	8
614.671	1	14
615.858	1	11
617.046	1	-3
618.234	1	9
619.422	1	-7
620.609	1	10
621.797	1	8
622.985	1	11
624.172	1	10
625.360	1	2
626.547	1	-1
627.735	1	3
628.922	1	-6
630.109	1	4
631.297	1	3
632.484	1	-3
633.671	1	7
634.858	1	9
636.045	1	12
637.232	1	7
638.419	1	2
639.606	1	3
640.793	1	5
641.980	1	6
643.167	1	-1
644.354	1	8
645.541	1	9
646.728	1	0
647.914	1	3
649.101	1	-1
650.288	1	4
651.474	1	20
652.661	1	0
653.847	1	7
655.034	1	9
656.220	1	6
657.406	1	14
658.593	1	6
659.779	1	3
660.965	1	16
662.152	1	8
663.338	1	6
664.524	1	-1
665.710	1	6
666.896	1	8
668.082	1	9
669.268	1	-1
670.454	1	-1
671.640	1	5
672.826	1	-1
674.011	1	5
675.197	1	16
676.383	1	11
677.569	1	-5
678.754	1	3
679.940	1	10
681.125	1	-1
682.311	1	0
683.496	1	12
684.682	1	5
685.867	1	13
687.053	1	-3
688.238	1	0
688.746	1	2