File: Data/GaN_170K_550ms/GaN_sample D_spot 18_UVVIS_170 K_200um_550 ms 2x2mm1_110.txt
340.368	1	0
341.565	1	7
342.763	1	-1
343.960	1	2
345.157	1	-3
346.354	1	-1
347.552	1	16
348.749	1	5
349.946	1	8
351.143	1	-6
352.340	1	-1
353.537	1	12
354.734	1	9
355.931	1	10
357.127	1	11
358.324	1	18
359.521	1	19
360.718	1	20
361.914	1	23
363.111	1	29
364.308	1	39
365.504	1	51
366.701	1	46
367.897	1	69
369.093	1	49
370.290	1	59
371.486	1	62
372.682	1	51
373.879	1	47
375.075	1	37
376.271	1	39
377.467	1	31
378.663	1	23
379.859	1	22
381.055	1	23
382.251	1	11
383.447	1	17
384.643	1	15
385.839	1	2
387.035	1	7
388.230	1	6
389.426	1	16
390.622	1	1
391.817	1	3
393.013	1	5
394.208	1	8
395.404	1	5
396.599	1	-6
397.795	1	3
398.990	1	-6
400.186	1	6
401.381	1	6
402.576	1	8
403.771	1	9
404.967	1	6
406.162	1	10
407.357	1	4
408.552	1	2
409.747	1	2
410.942	1	-3
412.137	1	-1
413.332	1	5
414.526	1	3
415.721	1	-2
416.916	1	-5
418.111	1	-2
419.305	1	3
420.500	1	3
421.695	1	4
422.889	1	1
424.084	1	20
425.278	1	-1
426.472	1	5
427.667	1	2
428.861	1	-4
430.055	1	5
431.250	1	13
432.444	1	4
433.638	1	17
434.832	1	13
436.026	1	3
437.220	1	4
438.414	1	6
439.608	1	-3
440.802	1	7
441.996	1	-1
443.190	1	0
444.384	1	5
445.578	1	12
446.771	1	-13
447.965	1	-6
449.159	1	2
450.352	1	-4
451.546	1	-1
452.739	1	1
453.933	1	6
455.126	1	7
456.320	1	11
457.513	1	11
458.706	1	4
459.899	1	7
461.093	1	7
462.286	1	-6
463.479	1	1
464.672	1	-9
465.865	1	5
467.058	1	3
468.251	1	8
469.444	1	0
470.637	1	1
471.830	1	-5
473.023	1	14
474.215	1	13
475.408	1	4
476.601	1	2
477.793	1	3
478.986	1	7
480.179	1	6
481.371	1	3
482.564	1	9
483.756	1	-3
484.948	1	6
486.141	1	12
487.333	1	-2
488.525	1	6
489.718	1	8
490.910	1	2
492.102	1	9
493.294	1	-1
494.486	1	10
495.678	1	9
496.870	1	5
498.062	1	-1
499.254	1	2
500.446	1	8
501.638	1	0
502.829	1	14
504.021	1	14
505.213	1	3
506.404	1	3
507.596	1	9
508.788	1	-3
509.979	1	7
511.171	1	21
512.362	1	4
513.553	1	12
514.745	1	9
515.936	1	10
517.127	1	14
518.319	1	11
519.510	1	17
520.701	1	18
521.892	1	11
523.083	1	13
524.274	1	6
525.465	1	13
526.656	1	15
527.847	1	1
529.038	1	8
530.229	1	22
531.419	1	21
532.610	1	13
533.801	1	16
534.991	1	10
536.182	1	5
537.373	1	9
538.563	1	7
539.754	1	17
540.944	1	12
542.134	1	13
543.325	1	13
544.515	1	12
545.705	1	15
546.896	1	9
548.086	1	17
549.276	1	7
550.466	1	7
551.656	1	10
552.846	1	-5
554.036	1	13
555.226	1	-2
556.416	1	8
557.606	1	10
558.796	1	16
559.986	1	16
561.175	1	-6
562.365	1	4
563.555	1	14
564.744	1	8
565.934	1	9
567.123	1	8
568.313	1	4
569.502	1	-2
570.692	1	12
571.881	1	0
573.070	1	11
574.260	1	7
575.449	1	5
576.638	1	5
577.827	1	-2
579.016	1	15
580.205	1	6
581.394	1	2
582.583	1	3
583.772	1	7
584.961	1	3
586.150	1	3
587.339	1	4
588.528	1	-6
589.717	1	4
590.905	1	7
592.094	1	14
593.283	1	3
594.471	1	8
595.660	1	2
596.848	1	1
598.037	1	14
599.225	1	10
600.413	1	-1
601.602	1	8
602.790	1	4
603.978	1	12
605.166	1	-4
606.355	1	7
607.543	1	12
608.731	1	6
609.919	1	9
611.107	1	-1
612.295	1	5
613.483	1	-3
614.671	1	15
615.858	1	2
617.046	1	-5
618.234	1	-2
619.422	1	0
620.609	1	1
621.797	1	5
622.985	1	5
624.172	1	-2
625.360	1	-2
626.547	1	-1
627.735	1	-10
628.922	1	1
630.109	1	5
631.297	1	2
632.484	1	-6
633.671	1	5
634.858	1	4
636.045	1	10
637.232	1	1
638.419	1	-2
639.606	1	-5
640.793	1	-1
641.980	1	13
643.167	1	-2
644.354	1	8
645.541	1	6
646.728	1	6
647.914	1	6
649.101	1	9
650.288	1	-3
651.474	1	3
652.661	1	12
653.847	1	2
655.034	1	-1
656.220	1	7
657.406	1	4
658.593	1	7
659.779	1	4
660.965	1	16
662.152	1	13
663.338	1	9
664.524	1	-3
665.710	1	3
666.896	1	4
668.082	1	10
669.268	1	2
670.454	1	-1
671.640	1	3
672.826	1	7
674.011	1	7
675.197	1	6
676.383	1	15
677.569	1	-8
678.754	1	6
679.940	1	7
681.125	1	3
682.311	1	-1
683.496	1	8
684.682	1	3
685.867	1	2
687.053	1	-7
688.238	1	-1
688.746	1	-4