File: Data/GaN_170K_550ms/GaN_sample D_spot 18_UVVIS_170 K_200um_550 ms 2x2mm1_220.txt
340.368	1	3
341.565	1	6
342.763	1	-3
343.960	1	-2
345.157	1	-3
346.354	1	-3
347.552	1	13
348.749	1	4
349.946	1	2
351.143	1	4
352.340	1	8
353.537	1	10
354.734	1	2
355.931	1	4
357.127	1	3
358.324	1	14
359.521	1	9
360.718	1	2
361.914	1	0
363.111	1	16
364.308	1	17
365.504	1	12
366.701	1	18
367.897	1	23
369.093	1	13
370.290	1	11
371.486	1	7
372.682	1	11
373.879	1	19
375.075	1	6
376.271	1	11
377.467	1	7
378.663	1	12
379.859	1	4
381.055	1	8
382.251	1	11
383.447	1	11
384.643	1	3
385.839	1	-1
387.035	1	-2
388.230	1	2
389.426	1	7
390.622	1	7
391.817	1	5
393.013	1	1
394.208	1	11
395.404	1	5
396.599	1	7
397.795	1	-7
398.990	1	-8
400.186	1	-11
401.381	1	12
402.576	1	4
403.771	1	-2
404.967	1	4
406.162	1	9
407.357	1	5
408.552	1	-3
409.747	1	-8
410.942	1	6
412.137	1	-7
413.332	1	-4
414.526	1	-4
415.721	1	-8
416.916	1	-5
418.111	1	7
419.305	1	-2
420.500	1	1
421.695	1	-2
422.889	1	-3
424.084	1	14
425.278	1	-1
426.472	1	4
427.667	1	9
428.861	1	0
430.055	1	0
431.250	1	14
432.444	1	1
433.638	1	9
434.832	1	13
436.026	1	-3
437.220	1	-2
438.414	1	-6
439.608	1	-3
440.802	1	9
441.996	1	-3
443.190	1	4
444.384	1	5
445.578	1	4
446.771	1	-11
447.965	1	0
449.159	1	7
450.352	1	5
451.546	1	-9
452.739	1	3
453.933	1	-1
455.126	1	2
456.320	1	-4
457.513	1	12
458.706	1	7
459.899	1	8
461.093	1	7
462.286	1	-5
463.479	1	-5
464.672	1	-2
465.865	1	1
467.058	1	3
468.251	1	-5
469.444	1	-3
470.637	1	1
471.830	1	-4
473.023	1	3
474.215	1	9
475.408	1	-8
476.601	1	8
477.793	1	4
478.986	1	-1
480.179	1	0
481.371	1	3
482.564	1	1
483.756	1	4
484.948	1	-3
486.141	1	11
487.333	1	-18
488.525	1	6
489.718	1	13
490.910	1	0
492.102	1	-4
493.294	1	4
494.486	1	16
495.678	1	0
496.870	1	1
498.062	1	2
499.254	1	4
500.446	1	-1
501.638	1	-2
502.829	1	8
504.021	1	11
505.213	1	2
506.404	1	9
507.596	1	6
508.788	1	-4
509.979	1	2
511.171	1	8
512.362	1	-3
513.553	1	1
514.745	1	3
515.936	1	5
517.127	1	4
518.319	1	3
519.510	1	17
520.701	1	5
521.892	1	6
523.083	1	4
524.274	1	6
525.465	1	2
526.656	1	14
527.847	1	2
529.038	1	-8
530.229	1	16
531.419	1	12
532.610	1	8
533.801	1	9
534.991	1	-2
536.182	1	2
537.373	1	5
538.563	1	2
539.754	1	8
540.944	1	10
542.134	1	4
543.325	1	5
544.515	1	7
545.705	1	7
546.896	1	2
548.086	1	4
549.276	1	4
550.466	1	7
551.656	1	0
552.846	1	-5
554.036	1	5
555.226	1	-7
556.416	1	-5
557.606	1	9
558.796	1	0
559.986	1	6
561.175	1	-7
562.365	1	6
563.555	1	4
564.744	1	8
565.934	1	7
567.123	1	4
568.313	1	-3
569.502	1	4
570.692	1	14
571.881	1	4
573.070	1	-3
574.260	1	-3
575.449	1	7
576.638	1	1
577.827	1	-7
579.016	1	1
580.205	1	-4
581.394	1	7
582.583	1	7
583.772	1	-5
584.961	1	-2
586.150	1	-11
587.339	1	1
588.528	1	0
589.717	1	7
590.905	1	10
592.094	1	-2
593.283	1	3
594.471	1	3
595.660	1	-2
596.848	1	3
598.037	1	-9
599.225	1	7
600.413	1	0
601.602	1	6
602.790	1	11
603.978	1	2
605.166	1	13
606.355	1	10
607.543	1	9
608.731	1	4
609.919	1	-7
611.107	1	-10
612.295	1	-9
613.483	1	-14
614.671	1	7
615.858	1	3
617.046	1	5
618.234	1	8
619.422	1	5
620.609	1	2
621.797	1	2
622.985	1	4
624.172	1	7
625.360	1	4
626.547	1	-3
627.735	1	-2
628.922	1	-6
630.109	1	-8
631.297	1	3
632.484	1	0
633.671	1	10
634.858	1	-3
636.045	1	7
637.232	1	3
638.419	1	-8
639.606	1	-7
640.793	1	-3
641.980	1	-4
643.167	1	2
644.354	1	0
645.541	1	-11
646.728	1	8
647.914	1	2
649.101	1	-4
650.288	1	7
651.474	1	-1
652.661	1	3
653.847	1	0
655.034	1	-4
656.220	1	-3
657.406	1	0
658.593	1	0
659.779	1	2
660.965	1	5
662.152	1	4
663.338	1	9
664.524	1	11
665.710	1	9
666.896	1	2
668.082	1	8
669.268	1	-1
670.454	1	-2
671.640	1	7
672.826	1	3
674.011	1	2
675.197	1	3
676.383	1	4
677.569	1	-3
678.754	1	10
679.940	1	2
681.125	1	4
682.311	1	9
683.496	1	3
684.682	1	2
685.867	1	-3
687.053	1	-10
688.238	1	-6
688.746	1	-10