File: Data/GaN_170K_550ms/GaN_sample D_spot 18_UVVIS_170 K_200um_550 ms 2x2mm1_18.txt
340.368	1	12
341.565	1	4
342.763	1	9
343.960	1	7
345.157	1	5
346.354	1	-10
347.552	1	6
348.749	1	4
349.946	1	11
351.143	1	4
352.340	1	6
353.537	1	0
354.734	1	3
355.931	1	3
357.127	1	-5
358.324	1	10
359.521	1	1
360.718	1	-3
361.914	1	3
363.111	1	0
364.308	1	2
365.504	1	4
366.701	1	5
367.897	1	-2
369.093	1	-6
370.290	1	2
371.486	1	-13
372.682	1	1
373.879	1	7
375.075	1	7
376.271	1	10
377.467	1	3
378.663	1	3
379.859	1	3
381.055	1	4
382.251	1	6
383.447	1	13
384.643	1	-4
385.839	1	-8
387.035	1	-5
388.230	1	6
389.426	1	-3
390.622	1	1
391.817	1	2
393.013	1	-3
394.208	1	2
395.404	1	2
396.599	1	-7
397.795	1	-5
398.990	1	-5
400.186	1	-3
401.381	1	14
402.576	1	-1
403.771	1	1
404.967	1	4
406.162	1	-3
407.357	1	-3
408.552	1	3
409.747	1	-1
410.942	1	3
412.137	1	-8
413.332	1	6
414.526	1	-4
415.721	1	6
416.916	1	-9
418.111	1	6
419.305	1	6
420.500	1	-3
421.695	1	-8
422.889	1	-4
424.084	1	13
425.278	1	3
426.472	1	-3
427.667	1	-1
428.861	1	-1
430.055	1	-3
431.250	1	11
432.444	1	0
433.638	1	3
434.832	1	6
436.026	1	-3
437.220	1	2
438.414	1	-4
439.608	1	-3
440.802	1	10
441.996	1	1
443.190	1	3
444.384	1	2
445.578	1	8
446.771	1	-10
447.965	1	-5
449.159	1	-1
450.352	1	0
451.546	1	-14
452.739	1	10
453.933	1	-2
455.126	1	6
456.320	1	6
457.513	1	7
458.706	1	9
459.899	1	8
461.093	1	3
462.286	1	-7
463.479	1	-3
464.672	1	-3
465.865	1	0
467.058	1	0
468.251	1	0
469.444	1	3
470.637	1	6
471.830	1	-9
473.023	1	6
474.215	1	2
475.408	1	-7
476.601	1	1
477.793	1	0
478.986	1	0
480.179	1	-10
481.371	1	5
482.564	1	-3
483.756	1	-3
484.948	1	-2
486.141	1	13
487.333	1	-6
488.525	1	-2
489.718	1	8
490.910	1	-4
492.102	1	0
493.294	1	-5
494.486	1	8
495.678	1	4
496.870	1	1
498.062	1	5
499.254	1	7
500.446	1	-4
501.638	1	-2
502.829	1	2
504.021	1	-3
505.213	1	0
506.404	1	2
507.596	1	12
508.788	1	-13
509.979	1	2
511.171	1	4
512.362	1	-3
513.553	1	-5
514.745	1	0
515.936	1	0
517.127	1	19
518.319	1	2
519.510	1	10
520.701	1	6
521.892	1	3
523.083	1	7
524.274	1	-4
525.465	1	10
526.656	1	16
527.847	1	-4
529.038	1	-1
530.229	1	16
531.419	1	9
532.610	1	-1
533.801	1	2
534.991	1	-5
536.182	1	5
537.373	1	-3
538.563	1	4
539.754	1	1
540.944	1	-11
542.134	1	5
543.325	1	1
544.515	1	-5
545.705	1	7
546.896	1	3
548.086	1	6
549.276	1	-2
550.466	1	3
551.656	1	3
552.846	1	5
554.036	1	-2
555.226	1	-1
556.416	1	-4
557.606	1	3
558.796	1	0
559.986	1	2
561.175	1	-3
562.365	1	5
563.555	1	4
564.744	1	0
565.934	1	6
567.123	1	-8
568.313	1	5
569.502	1	2
570.692	1	8
571.881	1	-3
573.070	1	4
574.260	1	6
575.449	1	-2
576.638	1	13
577.827	1	0
579.016	1	9
580.205	1	-8
581.394	1	-3
582.583	1	-6
583.772	1	-2
584.961	1	-10
586.150	1	0
587.339	1	2
588.528	1	2
589.717	1	7
590.905	1	12
592.094	1	6
593.283	1	8
594.471	1	2
595.660	1	-3
596.848	1	10
598.037	1	6
599.225	1	5
600.413	1	-7
601.602	1	4
602.790	1	9
603.978	1	-5
605.166	1	7
606.355	1	1
607.543	1	3
608.731	1	4
609.919	1	-5
611.107	1	-4
612.295	1	7
613.483	1	-6
614.671	1	14
615.858	1	2
617.046	1	-4
618.234	1	-2
619.422	1	-4
620.609	1	9
621.797	1	5
622.985	1	6
624.172	1	5
625.360	1	0
626.547	1	-4
627.735	1	-13
628.922	1	-7
630.109	1	-2
631.297	1	-2
632.484	1	-4
633.671	1	1
634.858	1	1
636.045	1	4
637.232	1	2
638.419	1	-6
639.606	1	-3
640.793	1	-5
641.980	1	-6
643.167	1	2
644.354	1	-1
645.541	1	5
646.728	1	4
647.914	1	0
649.101	1	4
650.288	1	-5
651.474	1	16
652.661	1	-2
653.847	1	1
655.034	1	3
656.220	1	2
657.406	1	2
658.593	1	1
659.779	1	12
660.965	1	17
662.152	1	3
663.338	1	3
664.524	1	12
665.710	1	-1
666.896	1	-6
668.082	1	7
669.268	1	-2
670.454	1	-6
671.640	1	2
672.826	1	3
674.011	1	15
675.197	1	8
676.383	1	-2
677.569	1	-1
678.754	1	2
679.940	1	1
681.125	1	2
682.311	1	-7
683.496	1	2
684.682	1	3
685.867	1	11
687.053	1	-7
688.238	1	-2
688.746	1	-5