File: Data/GaN_170K_550ms/GaN_sample D_spot 18_UVVIS_170 K_200um_550 ms 2x2mm1_300.txt
340.368	1	-2
341.565	1	1
342.763	1	-6
343.960	1	-5
345.157	1	-2
346.354	1	2
347.552	1	7
348.749	1	5
349.946	1	2
351.143	1	-4
352.340	1	-1
353.537	1	0
354.734	1	7
355.931	1	-4
357.127	1	-1
358.324	1	13
359.521	1	4
360.718	1	7
361.914	1	0
363.111	1	14
364.308	1	10
365.504	1	3
366.701	1	11
367.897	1	11
369.093	1	-1
370.290	1	10
371.486	1	-4
372.682	1	8
373.879	1	7
375.075	1	5
376.271	1	13
377.467	1	6
378.663	1	9
379.859	1	-4
381.055	1	2
382.251	1	3
383.447	1	3
384.643	1	-3
385.839	1	-8
387.035	1	7
388.230	1	4
389.426	1	5
390.622	1	2
391.817	1	1
393.013	1	2
394.208	1	1
395.404	1	17
396.599	1	-12
397.795	1	-6
398.990	1	3
400.186	1	-3
401.381	1	7
402.576	1	1
403.771	1	0
404.967	1	3
406.162	1	2
407.357	1	1
408.552	1	-2
409.747	1	2
410.942	1	0
412.137	1	-8
413.332	1	5
414.526	1	6
415.721	1	3
416.916	1	-11
418.111	1	2
419.305	1	-7
420.500	1	2
421.695	1	-7
422.889	1	-6
424.084	1	16
425.278	1	-5
426.472	1	10
427.667	1	-6
428.861	1	1
430.055	1	0
431.250	1	10
432.444	1	4
433.638	1	5
434.832	1	7
436.026	1	-12
437.220	1	4
438.414	1	-9
439.608	1	3
440.802	1	12
441.996	1	-2
443.190	1	7
444.384	1	2
445.578	1	7
446.771	1	-7
447.965	1	-2
449.159	1	-3
450.352	1	-6
451.546	1	-16
452.739	1	6
453.933	1	-2
455.126	1	3
456.320	1	7
457.513	1	3
458.706	1	4
459.899	1	-3
461.093	1	6
462.286	1	0
463.479	1	-5
464.672	1	-1
465.865	1	-3
467.058	1	8
468.251	1	1
469.444	1	0
470.637	1	6
471.830	1	-2
473.023	1	-1
474.215	1	4
475.408	1	-5
476.601	1	2
477.793	1	8
478.986	1	2
480.179	1	-4
481.371	1	5
482.564	1	-3
483.756	1	0
484.948	1	1
486.141	1	12
487.333	1	-2
488.525	1	9
489.718	1	-4
490.910	1	-1
492.102	1	5
493.294	1	5
494.486	1	13
495.678	1	-2
496.870	1	9
498.062	1	-4
499.254	1	11
500.446	1	2
501.638	1	-10
502.829	1	5
504.021	1	3
505.213	1	-4
506.404	1	6
507.596	1	7
508.788	1	-4
509.979	1	7
511.171	1	4
512.362	1	-12
513.553	1	6
514.745	1	-4
515.936	1	-2
517.127	1	6
518.319	1	3
519.510	1	6
520.701	1	5
521.892	1	2
523.083	1	-6
524.274	1	5
525.465	1	-2
526.656	1	6
527.847	1	-1
529.038	1	-4
530.229	1	10
531.419	1	5
532.610	1	3
533.801	1	5
534.991	1	3
536.182	1	1
537.373	1	5
538.563	1	-2
539.754	1	-4
540.944	1	-9
542.134	1	2
543.325	1	7
544.515	1	9
545.705	1	2
546.896	1	2
548.086	1	0
549.276	1	-1
550.466	1	-6
551.656	1	7
552.846	1	-8
554.036	1	2
555.226	1	-11
556.416	1	-3
557.606	1	2
558.796	1	1
559.986	1	8
561.175	1	-15
562.365	1	4
563.555	1	4
564.744	1	6
565.934	1	4
567.123	1	1
568.313	1	-14
569.502	1	-4
570.692	1	9
571.881	1	-8
573.070	1	2
574.260	1	-1
575.449	1	-1
576.638	1	7
577.827	1	-4
579.016	1	6
580.205	1	0
581.394	1	7
582.583	1	-5
583.772	1	-7
584.961	1	1
586.150	1	4
587.339	1	7
588.528	1	3
589.717	1	9
590.905	1	2
592.094	1	-1
593.283	1	8
594.471	1	4
595.660	1	-4
596.848	1	6
598.037	1	5
599.225	1	6
600.413	1	-12
601.602	1	2
602.790	1	6
603.978	1	11
605.166	1	4
606.355	1	12
607.543	1	13
608.731	1	-3
609.919	1	-2
611.107	1	2
612.295	1	11
613.483	1	0
614.671	1	7
615.858	1	0
617.046	1	0
618.234	1	4
619.422	1	-3
620.609	1	4
621.797	1	0
622.985	1	-2
624.172	1	-2
625.360	1	9
626.547	1	-3
627.735	1	-9
628.922	1	-1
630.109	1	-6
631.297	1	-1
632.484	1	-10
633.671	1	11
634.858	1	4
636.045	1	-1
637.232	1	4
638.419	1	-2
639.606	1	8
640.793	1	0
641.980	1	-8
643.167	1	0
644.354	1	9
645.541	1	9
646.728	1	4
647.914	1	-1
649.101	1	4
650.288	1	1
651.474	1	7
652.661	1	5
653.847	1	-1
655.034	1	-5
656.220	1	9
657.406	1	4
658.593	1	-1
659.779	1	3
660.965	1	10
662.152	1	-2
663.338	1	6
664.524	1	4
665.710	1	-1
666.896	1	1
668.082	1	11
669.268	1	-4
670.454	1	-4
671.640	1	-6
672.826	1	3
674.011	1	2
675.197	1	4
676.383	1	6
677.569	1	-3
678.754	1	4
679.940	1	5
681.125	1	3
682.311	1	-2
683.496	1	8
684.682	1	9
685.867	1	5
687.053	1	-11
688.238	1	-1
688.746	1	-4