File: Data/GaN_170K_550ms/GaN_sample D_spot 18_UVVIS_170 K_200um_550 ms 2x2mm1_185.txt
340.368	1	5
341.565	1	3
342.763	1	5
343.960	1	0
345.157	1	-2
346.354	1	-8
347.552	1	11
348.749	1	8
349.946	1	11
351.143	1	2
352.340	1	8
353.537	1	4
354.734	1	8
355.931	1	-1
357.127	1	-4
358.324	1	16
359.521	1	6
360.718	1	8
361.914	1	1
363.111	1	21
364.308	1	23
365.504	1	17
366.701	1	8
367.897	1	18
369.093	1	9
370.290	1	10
371.486	1	8
372.682	1	16
373.879	1	16
375.075	1	12
376.271	1	10
377.467	1	17
378.663	1	14
379.859	1	6
381.055	1	4
382.251	1	3
383.447	1	6
384.643	1	8
385.839	1	-8
387.035	1	7
388.230	1	3
389.426	1	6
390.622	1	6
391.817	1	5
393.013	1	0
394.208	1	10
395.404	1	8
396.599	1	-7
397.795	1	0
398.990	1	-3
400.186	1	2
401.381	1	8
402.576	1	1
403.771	1	3
404.967	1	3
406.162	1	10
407.357	1	3
408.552	1	-1
409.747	1	7
410.942	1	3
412.137	1	-9
413.332	1	-8
414.526	1	8
415.721	1	-3
416.916	1	-3
418.111	1	12
419.305	1	3
420.500	1	-1
421.695	1	-1
422.889	1	-6
424.084	1	17
425.278	1	-5
426.472	1	1
427.667	1	0
428.861	1	-2
430.055	1	2
431.250	1	13
432.444	1	9
433.638	1	6
434.832	1	12
436.026	1	-8
437.220	1	6
438.414	1	-3
439.608	1	-1
440.802	1	9
441.996	1	-4
443.190	1	1
444.384	1	-1
445.578	1	7
446.771	1	-15
447.965	1	5
449.159	1	2
450.352	1	4
451.546	1	-3
452.739	1	5
453.933	1	-4
455.126	1	15
456.320	1	-6
457.513	1	6
458.706	1	18
459.899	1	3
461.093	1	5
462.286	1	3
463.479	1	0
464.672	1	7
465.865	1	3
467.058	1	1
468.251	1	2
469.444	1	-3
470.637	1	-1
471.830	1	3
473.023	1	1
474.215	1	1
475.408	1	-6
476.601	1	5
477.793	1	0
478.986	1	-6
480.179	1	-6
481.371	1	0
482.564	1	-7
483.756	1	5
484.948	1	-3
486.141	1	5
487.333	1	-8
488.525	1	3
489.718	1	6
490.910	1	-2
492.102	1	4
493.294	1	-6
494.486	1	11
495.678	1	8
496.870	1	1
498.062	1	0
499.254	1	9
500.446	1	-1
501.638	1	2
502.829	1	6
504.021	1	6
505.213	1	-4
506.404	1	3
507.596	1	5
508.788	1	0
509.979	1	9
511.171	1	2
512.362	1	2
513.553	1	4
514.745	1	-4
515.936	1	0
517.127	1	4
518.319	1	7
519.510	1	5
520.701	1	11
521.892	1	6
523.083	1	3
524.274	1	1
525.465	1	1
526.656	1	15
527.847	1	7
529.038	1	5
530.229	1	18
531.419	1	9
532.610	1	10
533.801	1	8
534.991	1	7
536.182	1	5
537.373	1	-3
538.563	1	0
539.754	1	8
540.944	1	-7
542.134	1	8
543.325	1	13
544.515	1	1
545.705	1	4
546.896	1	8
548.086	1	3
549.276	1	0
550.466	1	11
551.656	1	7
552.846	1	-3
554.036	1	5
555.226	1	-11
556.416	1	3
557.606	1	10
558.796	1	-7
559.986	1	6
561.175	1	2
562.365	1	10
563.555	1	1
564.744	1	1
565.934	1	13
567.123	1	0
568.313	1	-3
569.502	1	3
570.692	1	4
571.881	1	-4
573.070	1	3
574.260	1	11
575.449	1	7
576.638	1	9
577.827	1	3
579.016	1	6
580.205	1	-1
581.394	1	9
582.583	1	1
583.772	1	-2
584.961	1	-4
586.150	1	-7
587.339	1	1
588.528	1	1
589.717	1	4
590.905	1	5
592.094	1	6
593.283	1	8
594.471	1	9
595.660	1	4
596.848	1	-5
598.037	1	-6
599.225	1	5
600.413	1	-3
601.602	1	4
602.790	1	9
603.978	1	4
605.166	1	6
606.355	1	7
607.543	1	-5
608.731	1	-2
609.919	1	-6
611.107	1	-3
612.295	1	3
613.483	1	1
614.671	1	14
615.858	1	-5
617.046	1	-2
618.234	1	-2
619.422	1	-12
620.609	1	4
621.797	1	3
622.985	1	10
624.172	1	-1
625.360	1	1
626.547	1	-12
627.735	1	-7
628.922	1	2
630.109	1	-2
631.297	1	2
632.484	1	-3
633.671	1	5
634.858	1	2
636.045	1	2
637.232	1	0
638.419	1	-2
639.606	1	-2
640.793	1	-6
641.980	1	0
643.167	1	3
644.354	1	4
645.541	1	2
646.728	1	2
647.914	1	3
649.101	1	0
650.288	1	7
651.474	1	8
652.661	1	0
653.847	1	3
655.034	1	2
656.220	1	4
657.406	1	7
658.593	1	0
659.779	1	1
660.965	1	13
662.152	1	-3
663.338	1	8
664.524	1	1
665.710	1	7
666.896	1	3
668.082	1	9
669.268	1	1
670.454	1	-1
671.640	1	4
672.826	1	-2
674.011	1	3
675.197	1	6
676.383	1	5
677.569	1	-16
678.754	1	3
679.940	1	7
681.125	1	5
682.311	1	0
683.496	1	7
684.682	1	2
685.867	1	2
687.053	1	3
688.238	1	-4
688.746	1	-3