File: Data/GaN_170K_550ms/GaN_sample D_spot 18_UVVIS_170 K_200um_550 ms 2x2mm1_36.txt
340.368	1	3
341.565	1	5
342.763	1	1
343.960	1	8
345.157	1	-3
346.354	1	-1
347.552	1	10
348.749	1	2
349.946	1	8
351.143	1	-11
352.340	1	5
353.537	1	-1
354.734	1	5
355.931	1	7
357.127	1	2
358.324	1	2
359.521	1	4
360.718	1	4
361.914	1	-3
363.111	1	10
364.308	1	5
365.504	1	0
366.701	1	-4
367.897	1	4
369.093	1	-10
370.290	1	0
371.486	1	0
372.682	1	0
373.879	1	-4
375.075	1	-4
376.271	1	8
377.467	1	3
378.663	1	0
379.859	1	-5
381.055	1	11
382.251	1	3
383.447	1	9
384.643	1	1
385.839	1	-6
387.035	1	-2
388.230	1	4
389.426	1	13
390.622	1	-4
391.817	1	5
393.013	1	-9
394.208	1	9
395.404	1	9
396.599	1	-11
397.795	1	-3
398.990	1	1
400.186	1	4
401.381	1	9
402.576	1	-6
403.771	1	-4
404.967	1	3
406.162	1	3
407.357	1	1
408.552	1	-5
409.747	1	-2
410.942	1	8
412.137	1	-8
413.332	1	-2
414.526	1	0
415.721	1	0
416.916	1	-2
418.111	1	11
419.305	1	-3
420.500	1	-3
421.695	1	-11
422.889	1	-3
424.084	1	15
425.278	1	2
426.472	1	-1
427.667	1	8
428.861	1	4
430.055	1	-2
431.250	1	19
432.444	1	7
433.638	1	3
434.832	1	15
436.026	1	1
437.220	1	9
438.414	1	-2
439.608	1	1
440.802	1	11
441.996	1	-8
443.190	1	6
444.384	1	2
445.578	1	3
446.771	1	-3
447.965	1	0
449.159	1	-1
450.352	1	-3
451.546	1	-6
452.739	1	-2
453.933	1	4
455.126	1	11
456.320	1	1
457.513	1	12
458.706	1	7
459.899	1	3
461.093	1	14
462.286	1	-2
463.479	1	-14
464.672	1	-1
465.865	1	-7
467.058	1	-3
468.251	1	2
469.444	1	-3
470.637	1	-1
471.830	1	-2
473.023	1	5
474.215	1	5
475.408	1	-2
476.601	1	4
477.793	1	9
478.986	1	-1
480.179	1	-1
481.371	1	1
482.564	1	-4
483.756	1	-7
484.948	1	-3
486.141	1	6
487.333	1	-1
488.525	1	4
489.718	1	11
490.910	1	-2
492.102	1	5
493.294	1	-2
494.486	1	3
495.678	1	4
496.870	1	-6
498.062	1	-7
499.254	1	13
500.446	1	-4
501.638	1	-8
502.829	1	9
504.021	1	-1
505.213	1	-6
506.404	1	-1
507.596	1	2
508.788	1	0
509.979	1	7
511.171	1	12
512.362	1	-2
513.553	1	0
514.745	1	-1
515.936	1	7
517.127	1	1
518.319	1	-3
519.510	1	-3
520.701	1	5
521.892	1	4
523.083	1	-1
524.274	1	4
525.465	1	5
526.656	1	10
527.847	1	9
529.038	1	0
530.229	1	11
531.419	1	9
532.610	1	-4
533.801	1	15
534.991	1	4
536.182	1	0
537.373	1	-7
538.563	1	-2
539.754	1	3
540.944	1	-11
542.134	1	1
543.325	1	2
544.515	1	2
545.705	1	7
546.896	1	2
548.086	1	2
549.276	1	7
550.466	1	-6
551.656	1	5
552.846	1	7
554.036	1	-2
555.226	1	-13
556.416	1	3
557.606	1	3
558.796	1	2
559.986	1	8
561.175	1	-8
562.365	1	-3
563.555	1	-1
564.744	1	5
565.934	1	6
567.123	1	-2
568.313	1	-5
569.502	1	5
570.692	1	2
571.881	1	-13
573.070	1	0
574.260	1	7
575.449	1	2
576.638	1	10
577.827	1	5
579.016	1	-1
580.205	1	5
581.394	1	3
582.583	1	4
583.772	1	0
584.961	1	7
586.150	1	-8
587.339	1	-5
588.528	1	9
589.717	1	8
590.905	1	-5
592.094	1	5
593.283	1	6
594.471	1	12
595.660	1	6
596.848	1	2
598.037	1	-1
599.225	1	6
600.413	1	-8
601.602	1	1
602.790	1	8
603.978	1	-5
605.166	1	18
606.355	1	9
607.543	1	6
608.731	1	2
609.919	1	-7
611.107	1	-5
612.295	1	-4
613.483	1	-13
614.671	1	4
615.858	1	-10
617.046	1	1
618.234	1	-1
619.422	1	0
620.609	1	-3
621.797	1	-6
622.985	1	-3
624.172	1	0
625.360	1	2
626.547	1	-11
627.735	1	-9
628.922	1	0
630.109	1	-10
631.297	1	-5
632.484	1	1
633.671	1	4
634.858	1	-2
636.045	1	8
637.232	1	1
638.419	1	-9
639.606	1	-7
640.793	1	1
641.980	1	0
643.167	1	4
644.354	1	7
645.541	1	5
646.728	1	-2
647.914	1	1
649.101	1	1
650.288	1	4
651.474	1	3
652.661	1	10
653.847	1	-3
655.034	1	-4
656.220	1	-1
657.406	1	-5
658.593	1	8
659.779	1	3
660.965	1	6
662.152	1	2
663.338	1	10
664.524	1	2
665.710	1	-1
666.896	1	2
668.082	1	7
669.268	1	0
670.454	1	-4
671.640	1	5
672.826	1	5
674.011	1	6
675.197	1	5
676.383	1	3
677.569	1	-4
678.754	1	9
679.940	1	6
681.125	1	14
682.311	1	6
683.496	1	3
684.682	1	9
685.867	1	7
687.053	1	-4
688.238	1	-1
688.746	1	0