File: Data/GaN_170K_550ms/GaN_sample D_spot 18_UVVIS_170 K_200um_550 ms 2x2mm1_75.txt
340.368	1	5
341.565	1	7
342.763	1	13
343.960	1	1
345.157	1	4
346.354	1	0
347.552	1	12
348.749	1	16
349.946	1	8
351.143	1	5
352.340	1	9
353.537	1	8
354.734	1	18
355.931	1	14
357.127	1	19
358.324	1	29
359.521	1	44
360.718	1	41
361.914	1	64
363.111	1	81
364.308	1	113
365.504	1	151
366.701	1	203
367.897	1	223
369.093	1	235
370.290	1	219
371.486	1	161
372.682	1	149
373.879	1	126
375.075	1	96
376.271	1	95
377.467	1	76
378.663	1	58
379.859	1	64
381.055	1	57
382.251	1	46
383.447	1	40
384.643	1	28
385.839	1	28
387.035	1	32
388.230	1	24
389.426	1	20
390.622	1	10
391.817	1	23
393.013	1	16
394.208	1	14
395.404	1	15
396.599	1	4
397.795	1	9
398.990	1	5
400.186	1	2
401.381	1	15
402.576	1	16
403.771	1	6
404.967	1	14
406.162	1	14
407.357	1	7
408.552	1	-2
409.747	1	8
410.942	1	-1
412.137	1	0
413.332	1	3
414.526	1	9
415.721	1	5
416.916	1	0
418.111	1	10
419.305	1	6
420.500	1	5
421.695	1	4
422.889	1	0
424.084	1	20
425.278	1	1
426.472	1	-3
427.667	1	12
428.861	1	-2
430.055	1	13
431.250	1	13
432.444	1	-2
433.638	1	9
434.832	1	11
436.026	1	0
437.220	1	8
438.414	1	-3
439.608	1	1
440.802	1	8
441.996	1	2
443.190	1	4
444.384	1	7
445.578	1	6
446.771	1	-7
447.965	1	3
449.159	1	3
450.352	1	-7
451.546	1	0
452.739	1	7
453.933	1	1
455.126	1	11
456.320	1	0
457.513	1	2
458.706	1	12
459.899	1	0
461.093	1	20
462.286	1	1
463.479	1	1
464.672	1	-7
465.865	1	5
467.058	1	0
468.251	1	2
469.444	1	-5
470.637	1	8
471.830	1	-1
473.023	1	5
474.215	1	14
475.408	1	5
476.601	1	4
477.793	1	11
478.986	1	4
480.179	1	7
481.371	1	-7
482.564	1	3
483.756	1	12
484.948	1	10
486.141	1	15
487.333	1	6
488.525	1	14
489.718	1	25
490.910	1	8
492.102	1	16
493.294	1	11
494.486	1	26
495.678	1	16
496.870	1	12
498.062	1	19
499.254	1	22
500.446	1	17
501.638	1	9
502.829	1	17
504.021	1	25
505.213	1	20
506.404	1	26
507.596	1	30
508.788	1	22
509.979	1	31
511.171	1	25
512.362	1	27
513.553	1	30
514.745	1	21
515.936	1	35
517.127	1	28
518.319	1	35
519.510	1	40
520.701	1	34
521.892	1	37
523.083	1	34
524.274	1	40
525.465	1	39
526.656	1	45
527.847	1	37
529.038	1	34
530.229	1	41
531.419	1	39
532.610	1	36
533.801	1	39
534.991	1	26
536.182	1	27
537.373	1	30
538.563	1	36
539.754	1	28
540.944	1	26
542.134	1	32
543.325	1	46
544.515	1	33
545.705	1	34
546.896	1	41
548.086	1	27
549.276	1	34
550.466	1	31
551.656	1	31
552.846	1	36
554.036	1	18
555.226	1	17
556.416	1	24
557.606	1	21
558.796	1	27
559.986	1	17
561.175	1	18
562.365	1	19
563.555	1	22
564.744	1	20
565.934	1	27
567.123	1	14
568.313	1	9
569.502	1	16
570.692	1	16
571.881	1	7
573.070	1	20
574.260	1	7
575.449	1	25
576.638	1	20
577.827	1	11
579.016	1	26
580.205	1	11
581.394	1	20
582.583	1	16
583.772	1	11
584.961	1	10
586.150	1	6
587.339	1	6
588.528	1	9
589.717	1	19
590.905	1	15
592.094	1	20
593.283	1	14
594.471	1	19
595.660	1	5
596.848	1	13
598.037	1	13
599.225	1	9
600.413	1	5
601.602	1	9
602.790	1	23
603.978	1	10
605.166	1	14
606.355	1	13
607.543	1	15
608.731	1	6
609.919	1	10
611.107	1	-2
612.295	1	5
613.483	1	3
614.671	1	9
615.858	1	3
617.046	1	11
618.234	1	1
619.422	1	6
620.609	1	10
621.797	1	8
622.985	1	11
624.172	1	6
625.360	1	11
626.547	1	1
627.735	1	5
628.922	1	3
630.109	1	-1
631.297	1	1
632.484	1	6
633.671	1	14
634.858	1	10
636.045	1	7
637.232	1	8
638.419	1	8
639.606	1	5
640.793	1	-2
641.980	1	-1
643.167	1	3
644.354	1	4
645.541	1	7
646.728	1	13
647.914	1	3
649.101	1	1
650.288	1	5
651.474	1	11
652.661	1	11
653.847	1	0
655.034	1	11
656.220	1	7
657.406	1	2
658.593	1	8
659.779	1	16
660.965	1	11
662.152	1	3
663.338	1	9
664.524	1	8
665.710	1	4
666.896	1	3
668.082	1	16
669.268	1	-2
670.454	1	0
671.640	1	4
672.826	1	4
674.011	1	10
675.197	1	5
676.383	1	0
677.569	1	4
678.754	1	11
679.940	1	7
681.125	1	7
682.311	1	6
683.496	1	10
684.682	1	7
685.867	1	13
687.053	1	2
688.238	1	6
688.746	1	2