File: Data/GaN_170K_550ms/GaN_sample D_spot 18_UVVIS_170 K_200um_550 ms 2x2mm1_141.txt
340.368	1	3
341.565	1	-1
342.763	1	-2
343.960	1	-2
345.157	1	7
346.354	1	3
347.552	1	12
348.749	1	7
349.946	1	4
351.143	1	8
352.340	1	-5
353.537	1	11
354.734	1	8
355.931	1	-2
357.127	1	8
358.324	1	15
359.521	1	14
360.718	1	15
361.914	1	12
363.111	1	26
364.308	1	20
365.504	1	38
366.701	1	31
367.897	1	44
369.093	1	34
370.290	1	34
371.486	1	29
372.682	1	32
373.879	1	31
375.075	1	24
376.271	1	25
377.467	1	19
378.663	1	14
379.859	1	7
381.055	1	22
382.251	1	8
383.447	1	11
384.643	1	3
385.839	1	3
387.035	1	2
388.230	1	4
389.426	1	5
390.622	1	6
391.817	1	7
393.013	1	1
394.208	1	5
395.404	1	12
396.599	1	-9
397.795	1	-3
398.990	1	-5
400.186	1	-8
401.381	1	6
402.576	1	4
403.771	1	-9
404.967	1	-1
406.162	1	8
407.357	1	-7
408.552	1	4
409.747	1	3
410.942	1	-1
412.137	1	-4
413.332	1	0
414.526	1	4
415.721	1	4
416.916	1	-11
418.111	1	3
419.305	1	-1
420.500	1	2
421.695	1	-8
422.889	1	-2
424.084	1	12
425.278	1	-7
426.472	1	4
427.667	1	4
428.861	1	4
430.055	1	0
431.250	1	15
432.444	1	10
433.638	1	11
434.832	1	5
436.026	1	-5
437.220	1	2
438.414	1	-9
439.608	1	-3
440.802	1	7
441.996	1	1
443.190	1	0
444.384	1	-3
445.578	1	11
446.771	1	-13
447.965	1	-3
449.159	1	-3
450.352	1	-8
451.546	1	-6
452.739	1	1
453.933	1	0
455.126	1	2
456.320	1	-6
457.513	1	7
458.706	1	7
459.899	1	10
461.093	1	8
462.286	1	10
463.479	1	-1
464.672	1	6
465.865	1	2
467.058	1	2
468.251	1	3
469.444	1	9
470.637	1	1
471.830	1	-1
473.023	1	1
474.215	1	-2
475.408	1	-5
476.601	1	6
477.793	1	12
478.986	1	-1
480.179	1	-6
481.371	1	7
482.564	1	-1
483.756	1	6
484.948	1	-6
486.141	1	13
487.333	1	-1
488.525	1	9
489.718	1	19
490.910	1	1
492.102	1	8
493.294	1	4
494.486	1	16
495.678	1	9
496.870	1	2
498.062	1	13
499.254	1	12
500.446	1	2
501.638	1	-4
502.829	1	4
504.021	1	0
505.213	1	3
506.404	1	6
507.596	1	15
508.788	1	0
509.979	1	-5
511.171	1	6
512.362	1	-2
513.553	1	4
514.745	1	10
515.936	1	3
517.127	1	15
518.319	1	8
519.510	1	14
520.701	1	7
521.892	1	13
523.083	1	-1
524.274	1	11
525.465	1	7
526.656	1	13
527.847	1	9
529.038	1	1
530.229	1	17
531.419	1	16
532.610	1	12
533.801	1	9
534.991	1	8
536.182	1	5
537.373	1	-1
538.563	1	2
539.754	1	9
540.944	1	7
542.134	1	8
543.325	1	7
544.515	1	-1
545.705	1	3
546.896	1	8
548.086	1	15
549.276	1	9
550.466	1	8
551.656	1	14
552.846	1	9
554.036	1	12
555.226	1	0
556.416	1	-5
557.606	1	6
558.796	1	12
559.986	1	11
561.175	1	-7
562.365	1	4
563.555	1	0
564.744	1	9
565.934	1	9
567.123	1	8
568.313	1	-9
569.502	1	-4
570.692	1	8
571.881	1	1
573.070	1	4
574.260	1	9
575.449	1	6
576.638	1	15
577.827	1	-3
579.016	1	7
580.205	1	2
581.394	1	13
582.583	1	-6
583.772	1	2
584.961	1	1
586.150	1	-6
587.339	1	1
588.528	1	10
589.717	1	8
590.905	1	7
592.094	1	4
593.283	1	10
594.471	1	8
595.660	1	5
596.848	1	-2
598.037	1	5
599.225	1	6
600.413	1	-2
601.602	1	5
602.790	1	16
603.978	1	5
605.166	1	-1
606.355	1	8
607.543	1	9
608.731	1	7
609.919	1	-4
611.107	1	2
612.295	1	-5
613.483	1	-4
614.671	1	7
615.858	1	-2
617.046	1	2
618.234	1	-10
619.422	1	0
620.609	1	10
621.797	1	2
622.985	1	3
624.172	1	-4
625.360	1	9
626.547	1	-1
627.735	1	-9
628.922	1	-1
630.109	1	-5
631.297	1	2
632.484	1	-1
633.671	1	4
634.858	1	-4
636.045	1	5
637.232	1	4
638.419	1	-1
639.606	1	-1
640.793	1	2
641.980	1	0
643.167	1	2
644.354	1	2
645.541	1	6
646.728	1	3
647.914	1	3
649.101	1	1
650.288	1	8
651.474	1	10
652.661	1	6
653.847	1	4
655.034	1	3
656.220	1	-1
657.406	1	9
658.593	1	-1
659.779	1	4
660.965	1	8
662.152	1	6
663.338	1	6
664.524	1	1
665.710	1	1
666.896	1	2
668.082	1	9
669.268	1	-7
670.454	1	-6
671.640	1	4
672.826	1	6
674.011	1	-3
675.197	1	6
676.383	1	3
677.569	1	2
678.754	1	-8
679.940	1	9
681.125	1	5
682.311	1	4
683.496	1	1
684.682	1	8
685.867	1	4
687.053	1	-7
688.238	1	2
688.746	1	1