File: Data/GaN_170K_550ms/GaN_sample D_spot 18_UVVIS_170 K_200um_550 ms 2x2mm1_325.txt
340.368	1	10
341.565	1	2
342.763	1	-4
343.960	1	7
345.157	1	0
346.354	1	4
347.552	1	1
348.749	1	6
349.946	1	9
351.143	1	-7
352.340	1	4
353.537	1	8
354.734	1	5
355.931	1	3
357.127	1	2
358.324	1	7
359.521	1	7
360.718	1	1
361.914	1	9
363.111	1	4
364.308	1	10
365.504	1	1
366.701	1	-2
367.897	1	10
369.093	1	-9
370.290	1	1
371.486	1	-2
372.682	1	11
373.879	1	6
375.075	1	1
376.271	1	11
377.467	1	3
378.663	1	1
379.859	1	-2
381.055	1	2
382.251	1	-3
383.447	1	3
384.643	1	-5
385.839	1	-4
387.035	1	1
388.230	1	3
389.426	1	3
390.622	1	0
391.817	1	7
393.013	1	-4
394.208	1	2
395.404	1	9
396.599	1	-7
397.795	1	-6
398.990	1	-4
400.186	1	-5
401.381	1	9
402.576	1	-6
403.771	1	-2
404.967	1	-4
406.162	1	2
407.357	1	0
408.552	1	-3
409.747	1	-1
410.942	1	0
412.137	1	-10
413.332	1	-3
414.526	1	5
415.721	1	-8
416.916	1	-3
418.111	1	5
419.305	1	-4
420.500	1	3
421.695	1	-8
422.889	1	-6
424.084	1	16
425.278	1	1
426.472	1	-4
427.667	1	2
428.861	1	6
430.055	1	1
431.250	1	10
432.444	1	7
433.638	1	5
434.832	1	-2
436.026	1	-8
437.220	1	-1
438.414	1	-6
439.608	1	-5
440.802	1	5
441.996	1	-2
443.190	1	0
444.384	1	-3
445.578	1	8
446.771	1	-17
447.965	1	0
449.159	1	7
450.352	1	-5
451.546	1	-4
452.739	1	5
453.933	1	-2
455.126	1	7
456.320	1	2
457.513	1	6
458.706	1	6
459.899	1	4
461.093	1	5
462.286	1	-7
463.479	1	-4
464.672	1	-6
465.865	1	4
467.058	1	0
468.251	1	4
469.444	1	-7
470.637	1	2
471.830	1	-7
473.023	1	9
474.215	1	-1
475.408	1	1
476.601	1	-4
477.793	1	1
478.986	1	4
480.179	1	-2
481.371	1	-4
482.564	1	-4
483.756	1	0
484.948	1	-7
486.141	1	9
487.333	1	-5
488.525	1	2
489.718	1	10
490.910	1	-8
492.102	1	2
493.294	1	-5
494.486	1	6
495.678	1	10
496.870	1	-5
498.062	1	3
499.254	1	8
500.446	1	-4
501.638	1	-12
502.829	1	0
504.021	1	6
505.213	1	6
506.404	1	6
507.596	1	-4
508.788	1	-13
509.979	1	2
511.171	1	1
512.362	1	1
513.553	1	-3
514.745	1	-7
515.936	1	2
517.127	1	4
518.319	1	3
519.510	1	6
520.701	1	-1
521.892	1	7
523.083	1	-3
524.274	1	3
525.465	1	4
526.656	1	4
527.847	1	-5
529.038	1	5
530.229	1	11
531.419	1	9
532.610	1	2
533.801	1	-2
534.991	1	-3
536.182	1	4
537.373	1	-5
538.563	1	-5
539.754	1	-1
540.944	1	1
542.134	1	-7
543.325	1	8
544.515	1	0
545.705	1	8
546.896	1	3
548.086	1	-2
549.276	1	8
550.466	1	1
551.656	1	2
552.846	1	4
554.036	1	-4
555.226	1	-6
556.416	1	-3
557.606	1	2
558.796	1	-2
559.986	1	6
561.175	1	-9
562.365	1	4
563.555	1	-4
564.744	1	-3
565.934	1	2
567.123	1	3
568.313	1	3
569.502	1	1
570.692	1	13
571.881	1	-16
573.070	1	0
574.260	1	12
575.449	1	7
576.638	1	9
577.827	1	-1
579.016	1	7
580.205	1	-11
581.394	1	4
582.583	1	-2
583.772	1	-1
584.961	1	-4
586.150	1	-7
587.339	1	2
588.528	1	2
589.717	1	4
590.905	1	4
592.094	1	3
593.283	1	2
594.471	1	12
595.660	1	2
596.848	1	-3
598.037	1	8
599.225	1	3
600.413	1	-14
601.602	1	8
602.790	1	3
603.978	1	7
605.166	1	5
606.355	1	5
607.543	1	7
608.731	1	7
609.919	1	-6
611.107	1	-5
612.295	1	-6
613.483	1	-10
614.671	1	6
615.858	1	4
617.046	1	-9
618.234	1	2
619.422	1	-7
620.609	1	-1
621.797	1	4
622.985	1	2
624.172	1	2
625.360	1	-8
626.547	1	1
627.735	1	-15
628.922	1	-8
630.109	1	2
631.297	1	-7
632.484	1	-6
633.671	1	7
634.858	1	0
636.045	1	5
637.232	1	0
638.419	1	-5
639.606	1	-2
640.793	1	-4
641.980	1	-3
643.167	1	-1
644.354	1	-2
645.541	1	-1
646.728	1	2
647.914	1	3
649.101	1	-1
650.288	1	-1
651.474	1	16
652.661	1	1
653.847	1	-2
655.034	1	-2
656.220	1	4
657.406	1	1
658.593	1	-1
659.779	1	1
660.965	1	7
662.152	1	3
663.338	1	5
664.524	1	1
665.710	1	0
666.896	1	1
668.082	1	5
669.268	1	-3
670.454	1	-6
671.640	1	5
672.826	1	3
674.011	1	10
675.197	1	5
676.383	1	0
677.569	1	-5
678.754	1	-1
679.940	1	15
681.125	1	4
682.311	1	-2
683.496	1	1
684.682	1	1
685.867	1	1
687.053	1	-7
688.238	1	-4
688.746	1	-3