File: Data/GaN_170K_550ms/GaN_sample D_spot 18_UVVIS_170 K_200um_550 ms 2x2mm1_194.txt
340.368	1	1
341.565	1	4
342.763	1	-2
343.960	1	-5
345.157	1	6
346.354	1	-4
347.552	1	5
348.749	1	10
349.946	1	10
351.143	1	4
352.340	1	-3
353.537	1	-3
354.734	1	3
355.931	1	-2
357.127	1	4
358.324	1	5
359.521	1	10
360.718	1	8
361.914	1	19
363.111	1	17
364.308	1	6
365.504	1	11
366.701	1	27
367.897	1	17
369.093	1	20
370.290	1	9
371.486	1	20
372.682	1	13
373.879	1	16
375.075	1	10
376.271	1	13
377.467	1	5
378.663	1	6
379.859	1	7
381.055	1	8
382.251	1	7
383.447	1	9
384.643	1	-4
385.839	1	3
387.035	1	-4
388.230	1	3
389.426	1	2
390.622	1	-2
391.817	1	4
393.013	1	-5
394.208	1	11
395.404	1	11
396.599	1	-1
397.795	1	4
398.990	1	-5
400.186	1	-5
401.381	1	15
402.576	1	-1
403.771	1	-1
404.967	1	3
406.162	1	17
407.357	1	-1
408.552	1	4
409.747	1	-1
410.942	1	0
412.137	1	-3
413.332	1	5
414.526	1	7
415.721	1	3
416.916	1	-3
418.111	1	10
419.305	1	2
420.500	1	1
421.695	1	-5
422.889	1	-11
424.084	1	20
425.278	1	1
426.472	1	1
427.667	1	0
428.861	1	7
430.055	1	8
431.250	1	12
432.444	1	4
433.638	1	11
434.832	1	6
436.026	1	-2
437.220	1	7
438.414	1	-7
439.608	1	4
440.802	1	19
441.996	1	-1
443.190	1	0
444.384	1	-7
445.578	1	6
446.771	1	-8
447.965	1	1
449.159	1	2
450.352	1	-12
451.546	1	-6
452.739	1	1
453.933	1	8
455.126	1	10
456.320	1	-3
457.513	1	10
458.706	1	13
459.899	1	0
461.093	1	11
462.286	1	-1
463.479	1	-1
464.672	1	9
465.865	1	5
467.058	1	4
468.251	1	8
469.444	1	-3
470.637	1	1
471.830	1	7
473.023	1	2
474.215	1	3
475.408	1	-8
476.601	1	5
477.793	1	15
478.986	1	2
480.179	1	-4
481.371	1	2
482.564	1	5
483.756	1	-4
484.948	1	-5
486.141	1	0
487.333	1	-1
488.525	1	9
489.718	1	12
490.910	1	4
492.102	1	6
493.294	1	2
494.486	1	2
495.678	1	5
496.870	1	-5
498.062	1	6
499.254	1	10
500.446	1	3
501.638	1	-3
502.829	1	-2
504.021	1	4
505.213	1	3
506.404	1	7
507.596	1	15
508.788	1	-6
509.979	1	4
511.171	1	2
512.362	1	-2
513.553	1	-2
514.745	1	-2
515.936	1	8
517.127	1	5
518.319	1	12
519.510	1	7
520.701	1	1
521.892	1	3
523.083	1	1
524.274	1	2
525.465	1	8
526.656	1	8
527.847	1	-6
529.038	1	6
530.229	1	17
531.419	1	14
532.610	1	0
533.801	1	14
534.991	1	-1
536.182	1	9
537.373	1	-7
538.563	1	12
539.754	1	1
540.944	1	-7
542.134	1	-3
543.325	1	19
544.515	1	4
545.705	1	4
546.896	1	6
548.086	1	7
549.276	1	6
550.466	1	-3
551.656	1	10
552.846	1	-4
554.036	1	-3
555.226	1	7
556.416	1	0
557.606	1	1
558.796	1	7
559.986	1	10
561.175	1	-8
562.365	1	0
563.555	1	4
564.744	1	12
565.934	1	2
567.123	1	11
568.313	1	-3
569.502	1	6
570.692	1	6
571.881	1	-3
573.070	1	-3
574.260	1	18
575.449	1	3
576.638	1	9
577.827	1	8
579.016	1	2
580.205	1	-2
581.394	1	3
582.583	1	-1
583.772	1	4
584.961	1	-6
586.150	1	0
587.339	1	5
588.528	1	-1
589.717	1	8
590.905	1	5
592.094	1	6
593.283	1	8
594.471	1	6
595.660	1	2
596.848	1	6
598.037	1	4
599.225	1	4
600.413	1	-6
601.602	1	3
602.790	1	4
603.978	1	8
605.166	1	-1
606.355	1	-1
607.543	1	11
608.731	1	5
609.919	1	-6
611.107	1	1
612.295	1	1
613.483	1	-4
614.671	1	8
615.858	1	-4
617.046	1	-2
618.234	1	1
619.422	1	3
620.609	1	10
621.797	1	7
622.985	1	1
624.172	1	1
625.360	1	6
626.547	1	-3
627.735	1	-10
628.922	1	-4
630.109	1	1
631.297	1	-4
632.484	1	-1
633.671	1	7
634.858	1	3
636.045	1	2
637.232	1	4
638.419	1	-7
639.606	1	0
640.793	1	6
641.980	1	3
643.167	1	-3
644.354	1	0
645.541	1	4
646.728	1	5
647.914	1	-3
649.101	1	7
650.288	1	-1
651.474	1	8
652.661	1	8
653.847	1	2
655.034	1	-6
656.220	1	6
657.406	1	-6
658.593	1	3
659.779	1	1
660.965	1	15
662.152	1	-3
663.338	1	4
664.524	1	7
665.710	1	3
666.896	1	-2
668.082	1	8
669.268	1	1
670.454	1	-5
671.640	1	5
672.826	1	-6
674.011	1	7
675.197	1	12
676.383	1	4
677.569	1	-1
678.754	1	1
679.940	1	3
681.125	1	8
682.311	1	-2
683.496	1	-3
684.682	1	3
685.867	1	4
687.053	1	-4
688.238	1	-2
688.746	1	-4