File: Data/GaN_170K_550ms/GaN_sample D_spot 18_UVVIS_170 K_200um_550 ms 2x2mm1_311.txt
340.368	1	-2
341.565	1	6
342.763	1	3
343.960	1	4
345.157	1	-5
346.354	1	-9
347.552	1	3
348.749	1	8
349.946	1	9
351.143	1	1
352.340	1	3
353.537	1	9
354.734	1	2
355.931	1	2
357.127	1	1
358.324	1	12
359.521	1	3
360.718	1	5
361.914	1	-5
363.111	1	11
364.308	1	4
365.504	1	2
366.701	1	7
367.897	1	8
369.093	1	-7
370.290	1	9
371.486	1	-3
372.682	1	9
373.879	1	15
375.075	1	2
376.271	1	3
377.467	1	7
378.663	1	3
379.859	1	18
381.055	1	1
382.251	1	-2
383.447	1	10
384.643	1	2
385.839	1	-7
387.035	1	1
388.230	1	4
389.426	1	10
390.622	1	0
391.817	1	6
393.013	1	-1
394.208	1	5
395.404	1	11
396.599	1	-6
397.795	1	4
398.990	1	1
400.186	1	-5
401.381	1	5
402.576	1	2
403.771	1	-3
404.967	1	7
406.162	1	6
407.357	1	-9
408.552	1	1
409.747	1	-3
410.942	1	6
412.137	1	-9
413.332	1	-7
414.526	1	7
415.721	1	-1
416.916	1	-7
418.111	1	11
419.305	1	4
420.500	1	-1
421.695	1	-12
422.889	1	-7
424.084	1	4
425.278	1	-4
426.472	1	3
427.667	1	5
428.861	1	-1
430.055	1	-7
431.250	1	12
432.444	1	5
433.638	1	6
434.832	1	8
436.026	1	-9
437.220	1	0
438.414	1	-10
439.608	1	-3
440.802	1	4
441.996	1	1
443.190	1	-6
444.384	1	1
445.578	1	0
446.771	1	-10
447.965	1	10
449.159	1	-2
450.352	1	-4
451.546	1	-6
452.739	1	-2
453.933	1	-1
455.126	1	7
456.320	1	2
457.513	1	4
458.706	1	-4
459.899	1	-3
461.093	1	4
462.286	1	-3
463.479	1	0
464.672	1	-10
465.865	1	1
467.058	1	16
468.251	1	4
469.444	1	10
470.637	1	-6
471.830	1	0
473.023	1	4
474.215	1	5
475.408	1	-5
476.601	1	2
477.793	1	3
478.986	1	-2
480.179	1	-6
481.371	1	0
482.564	1	2
483.756	1	1
484.948	1	-8
486.141	1	10
487.333	1	-4
488.525	1	2
489.718	1	2
490.910	1	-1
492.102	1	-3
493.294	1	3
494.486	1	8
495.678	1	5
496.870	1	6
498.062	1	0
499.254	1	10
500.446	1	3
501.638	1	-5
502.829	1	0
504.021	1	-5
505.213	1	-9
506.404	1	-4
507.596	1	4
508.788	1	-8
509.979	1	2
511.171	1	4
512.362	1	-4
513.553	1	0
514.745	1	-3
515.936	1	-1
517.127	1	6
518.319	1	4
519.510	1	-1
520.701	1	3
521.892	1	-3
523.083	1	1
524.274	1	1
525.465	1	6
526.656	1	11
527.847	1	0
529.038	1	-3
530.229	1	7
531.419	1	4
532.610	1	-1
533.801	1	6
534.991	1	1
536.182	1	-4
537.373	1	-2
538.563	1	0
539.754	1	2
540.944	1	2
542.134	1	4
543.325	1	8
544.515	1	-1
545.705	1	9
546.896	1	2
548.086	1	1
549.276	1	3
550.466	1	-2
551.656	1	-3
552.846	1	-2
554.036	1	8
555.226	1	-11
556.416	1	-6
557.606	1	9
558.796	1	0
559.986	1	1
561.175	1	-3
562.365	1	10
563.555	1	-2
564.744	1	-1
565.934	1	8
567.123	1	-3
568.313	1	1
569.502	1	8
570.692	1	10
571.881	1	2
573.070	1	2
574.260	1	13
575.449	1	0
576.638	1	8
577.827	1	3
579.016	1	2
580.205	1	-11
581.394	1	-1
582.583	1	10
583.772	1	-4
584.961	1	2
586.150	1	-3
587.339	1	-4
588.528	1	0
589.717	1	5
590.905	1	8
592.094	1	-1
593.283	1	7
594.471	1	5
595.660	1	7
596.848	1	5
598.037	1	-1
599.225	1	0
600.413	1	-4
601.602	1	-4
602.790	1	8
603.978	1	5
605.166	1	6
606.355	1	2
607.543	1	9
608.731	1	6
609.919	1	3
611.107	1	-11
612.295	1	-2
613.483	1	-5
614.671	1	5
615.858	1	-3
617.046	1	4
618.234	1	3
619.422	1	-8
620.609	1	2
621.797	1	1
622.985	1	2
624.172	1	1
625.360	1	-4
626.547	1	-1
627.735	1	-9
628.922	1	-9
630.109	1	3
631.297	1	-4
632.484	1	-5
633.671	1	-5
634.858	1	1
636.045	1	0
637.232	1	-2
638.419	1	-5
639.606	1	-5
640.793	1	0
641.980	1	-4
643.167	1	4
644.354	1	7
645.541	1	3
646.728	1	2
647.914	1	4
649.101	1	-2
650.288	1	3
651.474	1	7
652.661	1	6
653.847	1	-1
655.034	1	-7
656.220	1	-1
657.406	1	-2
658.593	1	-1
659.779	1	3
660.965	1	16
662.152	1	-1
663.338	1	12
664.524	1	12
665.710	1	-4
666.896	1	-4
668.082	1	8
669.268	1	-1
670.454	1	-6
671.640	1	4
672.826	1	4
674.011	1	7
675.197	1	3
676.383	1	-2
677.569	1	-2
678.754	1	8
679.940	1	9
681.125	1	1
682.311	1	2
683.496	1	1
684.682	1	11
685.867	1	8
687.053	1	-8
688.238	1	-4
688.746	1	-6