File: Data/GaN_170K_550ms/GaN_sample D_spot 18_UVVIS_170 K_200um_550 ms 2x2mm1_227.txt
340.368	1	5
341.565	1	-2
342.763	1	2
343.960	1	-4
345.157	1	12
346.354	1	-4
347.552	1	8
348.749	1	4
349.946	1	10
351.143	1	4
352.340	1	-1
353.537	1	2
354.734	1	5
355.931	1	-1
357.127	1	-5
358.324	1	4
359.521	1	7
360.718	1	11
361.914	1	0
363.111	1	10
364.308	1	9
365.504	1	8
366.701	1	17
367.897	1	5
369.093	1	5
370.290	1	8
371.486	1	5
372.682	1	15
373.879	1	18
375.075	1	10
376.271	1	10
377.467	1	3
378.663	1	10
379.859	1	8
381.055	1	8
382.251	1	10
383.447	1	10
384.643	1	7
385.839	1	3
387.035	1	9
388.230	1	3
389.426	1	4
390.622	1	-5
391.817	1	4
393.013	1	2
394.208	1	9
395.404	1	10
396.599	1	-15
397.795	1	6
398.990	1	-12
400.186	1	-6
401.381	1	6
402.576	1	-1
403.771	1	-2
404.967	1	8
406.162	1	4
407.357	1	-3
408.552	1	-4
409.747	1	2
410.942	1	1
412.137	1	-5
413.332	1	3
414.526	1	10
415.721	1	-7
416.916	1	-12
418.111	1	4
419.305	1	-4
420.500	1	-1
421.695	1	2
422.889	1	-3
424.084	1	17
425.278	1	-4
426.472	1	1
427.667	1	-1
428.861	1	-4
430.055	1	-7
431.250	1	7
432.444	1	6
433.638	1	10
434.832	1	2
436.026	1	3
437.220	1	0
438.414	1	-2
439.608	1	-8
440.802	1	11
441.996	1	3
443.190	1	-6
444.384	1	3
445.578	1	7
446.771	1	-4
447.965	1	5
449.159	1	5
450.352	1	-7
451.546	1	-10
452.739	1	3
453.933	1	7
455.126	1	11
456.320	1	9
457.513	1	18
458.706	1	7
459.899	1	6
461.093	1	9
462.286	1	-6
463.479	1	1
464.672	1	-10
465.865	1	-1
467.058	1	11
468.251	1	3
469.444	1	0
470.637	1	-4
471.830	1	7
473.023	1	0
474.215	1	2
475.408	1	-2
476.601	1	5
477.793	1	7
478.986	1	6
480.179	1	0
481.371	1	1
482.564	1	-7
483.756	1	13
484.948	1	5
486.141	1	9
487.333	1	1
488.525	1	5
489.718	1	7
490.910	1	-2
492.102	1	8
493.294	1	-5
494.486	1	9
495.678	1	-1
496.870	1	-1
498.062	1	0
499.254	1	10
500.446	1	-2
501.638	1	2
502.829	1	6
504.021	1	8
505.213	1	2
506.404	1	7
507.596	1	8
508.788	1	-10
509.979	1	8
511.171	1	-3
512.362	1	1
513.553	1	2
514.745	1	-3
515.936	1	3
517.127	1	6
518.319	1	-4
519.510	1	9
520.701	1	7
521.892	1	-1
523.083	1	2
524.274	1	6
525.465	1	1
526.656	1	10
527.847	1	2
529.038	1	2
530.229	1	8
531.419	1	16
532.610	1	14
533.801	1	10
534.991	1	-3
536.182	1	1
537.373	1	-2
538.563	1	4
539.754	1	0
540.944	1	1
542.134	1	-4
543.325	1	5
544.515	1	-2
545.705	1	4
546.896	1	7
548.086	1	7
549.276	1	4
550.466	1	-3
551.656	1	6
552.846	1	-10
554.036	1	-1
555.226	1	-2
556.416	1	-3
557.606	1	2
558.796	1	7
559.986	1	7
561.175	1	-14
562.365	1	-5
563.555	1	2
564.744	1	6
565.934	1	8
567.123	1	7
568.313	1	0
569.502	1	4
570.692	1	11
571.881	1	3
573.070	1	0
574.260	1	4
575.449	1	7
576.638	1	8
577.827	1	-3
579.016	1	-2
580.205	1	2
581.394	1	0
582.583	1	5
583.772	1	-5
584.961	1	9
586.150	1	-8
587.339	1	-5
588.528	1	-3
589.717	1	12
590.905	1	8
592.094	1	10
593.283	1	5
594.471	1	10
595.660	1	3
596.848	1	4
598.037	1	4
599.225	1	3
600.413	1	-3
601.602	1	6
602.790	1	13
603.978	1	-1
605.166	1	6
606.355	1	9
607.543	1	12
608.731	1	13
609.919	1	-2
611.107	1	0
612.295	1	-2
613.483	1	1
614.671	1	5
615.858	1	6
617.046	1	-13
618.234	1	2
619.422	1	-3
620.609	1	1
621.797	1	4
622.985	1	4
624.172	1	3
625.360	1	3
626.547	1	-3
627.735	1	-6
628.922	1	-4
630.109	1	2
631.297	1	-3
632.484	1	4
633.671	1	2
634.858	1	7
636.045	1	4
637.232	1	8
638.419	1	-9
639.606	1	-1
640.793	1	-7
641.980	1	-9
643.167	1	-1
644.354	1	3
645.541	1	7
646.728	1	-5
647.914	1	1
649.101	1	2
650.288	1	2
651.474	1	9
652.661	1	-2
653.847	1	13
655.034	1	-6
656.220	1	9
657.406	1	4
658.593	1	-3
659.779	1	2
660.965	1	5
662.152	1	-7
663.338	1	3
664.524	1	6
665.710	1	-2
666.896	1	-1
668.082	1	9
669.268	1	-8
670.454	1	-5
671.640	1	9
672.826	1	1
674.011	1	0
675.197	1	9
676.383	1	7
677.569	1	0
678.754	1	-3
679.940	1	12
681.125	1	2
682.311	1	-7
683.496	1	9
684.682	1	0
685.867	1	8
687.053	1	-9
688.238	1	0
688.746	1	-4