File: Data/GaN_170K_550ms/GaN_sample D_spot 18_UVVIS_170 K_200um_550 ms 2x2mm1_252.txt
340.368	1	0
341.565	1	-1
342.763	1	2
343.960	1	5
345.157	1	-12
346.354	1	-1
347.552	1	7
348.749	1	8
349.946	1	5
351.143	1	-5
352.340	1	-2
353.537	1	1
354.734	1	-1
355.931	1	0
357.127	1	-3
358.324	1	5
359.521	1	13
360.718	1	-3
361.914	1	6
363.111	1	13
364.308	1	12
365.504	1	3
366.701	1	4
367.897	1	9
369.093	1	1
370.290	1	6
371.486	1	-3
372.682	1	11
373.879	1	5
375.075	1	9
376.271	1	20
377.467	1	8
378.663	1	2
379.859	1	2
381.055	1	-2
382.251	1	1
383.447	1	10
384.643	1	5
385.839	1	-2
387.035	1	5
388.230	1	-3
389.426	1	7
390.622	1	1
391.817	1	3
393.013	1	-2
394.208	1	15
395.404	1	4
396.599	1	-5
397.795	1	2
398.990	1	-13
400.186	1	4
401.381	1	-1
402.576	1	-5
403.771	1	4
404.967	1	-6
406.162	1	6
407.357	1	-7
408.552	1	-1
409.747	1	-4
410.942	1	-5
412.137	1	-3
413.332	1	3
414.526	1	6
415.721	1	0
416.916	1	-2
418.111	1	12
419.305	1	0
420.500	1	6
421.695	1	-3
422.889	1	-3
424.084	1	15
425.278	1	-5
426.472	1	-2
427.667	1	4
428.861	1	2
430.055	1	6
431.250	1	14
432.444	1	3
433.638	1	7
434.832	1	11
436.026	1	0
437.220	1	7
438.414	1	-4
439.608	1	-6
440.802	1	6
441.996	1	-5
443.190	1	-5
444.384	1	0
445.578	1	-1
446.771	1	-11
447.965	1	4
449.159	1	-6
450.352	1	-5
451.546	1	-7
452.739	1	0
453.933	1	-1
455.126	1	12
456.320	1	4
457.513	1	8
458.706	1	4
459.899	1	9
461.093	1	1
462.286	1	-7
463.479	1	-9
464.672	1	-9
465.865	1	7
467.058	1	2
468.251	1	2
469.444	1	-1
470.637	1	6
471.830	1	-8
473.023	1	4
474.215	1	4
475.408	1	-11
476.601	1	0
477.793	1	1
478.986	1	2
480.179	1	0
481.371	1	3
482.564	1	8
483.756	1	7
484.948	1	4
486.141	1	15
487.333	1	-5
488.525	1	5
489.718	1	10
490.910	1	0
492.102	1	-4
493.294	1	4
494.486	1	7
495.678	1	3
496.870	1	-1
498.062	1	-5
499.254	1	14
500.446	1	1
501.638	1	-6
502.829	1	0
504.021	1	-3
505.213	1	0
506.404	1	2
507.596	1	1
508.788	1	-7
509.979	1	7
511.171	1	-1
512.362	1	-3
513.553	1	8
514.745	1	-7
515.936	1	2
517.127	1	4
518.319	1	0
519.510	1	11
520.701	1	1
521.892	1	6
523.083	1	-9
524.274	1	-2
525.465	1	11
526.656	1	9
527.847	1	-6
529.038	1	6
530.229	1	5
531.419	1	11
532.610	1	3
533.801	1	10
534.991	1	-6
536.182	1	-1
537.373	1	3
538.563	1	12
539.754	1	11
540.944	1	-9
542.134	1	1
543.325	1	8
544.515	1	9
545.705	1	5
546.896	1	0
548.086	1	-4
549.276	1	1
550.466	1	3
551.656	1	-2
552.846	1	1
554.036	1	-1
555.226	1	-5
556.416	1	12
557.606	1	1
558.796	1	9
559.986	1	6
561.175	1	-8
562.365	1	5
563.555	1	2
564.744	1	7
565.934	1	2
567.123	1	3
568.313	1	8
569.502	1	-9
570.692	1	13
571.881	1	0
573.070	1	1
574.260	1	2
575.449	1	13
576.638	1	3
577.827	1	4
579.016	1	0
580.205	1	-2
581.394	1	2
582.583	1	4
583.772	1	5
584.961	1	-4
586.150	1	5
587.339	1	-1
588.528	1	-6
589.717	1	4
590.905	1	3
592.094	1	9
593.283	1	11
594.471	1	14
595.660	1	1
596.848	1	5
598.037	1	-3
599.225	1	-2
600.413	1	-5
601.602	1	12
602.790	1	8
603.978	1	8
605.166	1	9
606.355	1	3
607.543	1	9
608.731	1	5
609.919	1	-2
611.107	1	2
612.295	1	-6
613.483	1	-2
614.671	1	14
615.858	1	-1
617.046	1	-3
618.234	1	4
619.422	1	7
620.609	1	5
621.797	1	-2
622.985	1	7
624.172	1	1
625.360	1	-2
626.547	1	-8
627.735	1	-9
628.922	1	-2
630.109	1	1
631.297	1	-7
632.484	1	-5
633.671	1	9
634.858	1	7
636.045	1	5
637.232	1	13
638.419	1	-5
639.606	1	-4
640.793	1	1
641.980	1	-5
643.167	1	4
644.354	1	6
645.541	1	6
646.728	1	5
647.914	1	4
649.101	1	-4
650.288	1	-1
651.474	1	6
652.661	1	-2
653.847	1	0
655.034	1	-10
656.220	1	1
657.406	1	2
658.593	1	0
659.779	1	0
660.965	1	9
662.152	1	-4
663.338	1	6
664.524	1	2
665.710	1	5
666.896	1	6
668.082	1	9
669.268	1	-5
670.454	1	-3
671.640	1	4
672.826	1	0
674.011	1	6
675.197	1	10
676.383	1	1
677.569	1	-6
678.754	1	1
679.940	1	9
681.125	1	11
682.311	1	0
683.496	1	3
684.682	1	6
685.867	1	0
687.053	1	-2
688.238	1	-3
688.746	1	-9