File: Data/GaN_170K_550ms/GaN_sample D_spot 18_UVVIS_170 K_200um_550 ms 2x2mm1_345.txt
340.368	1	-5
341.565	1	-1
342.763	1	0
343.960	1	-5
345.157	1	-1
346.354	1	-11
347.552	1	1
348.749	1	3
349.946	1	13
351.143	1	0
352.340	1	-3
353.537	1	3
354.734	1	-8
355.931	1	4
357.127	1	0
358.324	1	-3
359.521	1	11
360.718	1	3
361.914	1	-2
363.111	1	8
364.308	1	5
365.504	1	1
366.701	1	6
367.897	1	0
369.093	1	0
370.290	1	7
371.486	1	-4
372.682	1	4
373.879	1	18
375.075	1	4
376.271	1	12
377.467	1	5
378.663	1	-2
379.859	1	2
381.055	1	5
382.251	1	-3
383.447	1	4
384.643	1	6
385.839	1	-2
387.035	1	-6
388.230	1	-3
389.426	1	1
390.622	1	-4
391.817	1	-4
393.013	1	7
394.208	1	8
395.404	1	4
396.599	1	0
397.795	1	-7
398.990	1	-2
400.186	1	-8
401.381	1	2
402.576	1	-1
403.771	1	1
404.967	1	8
406.162	1	6
407.357	1	-3
408.552	1	-4
409.747	1	-9
410.942	1	10
412.137	1	-9
413.332	1	-10
414.526	1	6
415.721	1	-2
416.916	1	-13
418.111	1	5
419.305	1	6
420.500	1	3
421.695	1	-14
422.889	1	-6
424.084	1	6
425.278	1	0
426.472	1	-11
427.667	1	4
428.861	1	5
430.055	1	-6
431.250	1	6
432.444	1	2
433.638	1	4
434.832	1	12
436.026	1	-1
437.220	1	2
438.414	1	-11
439.608	1	-11
440.802	1	10
441.996	1	-2
443.190	1	3
444.384	1	-4
445.578	1	9
446.771	1	-9
447.965	1	-9
449.159	1	-1
450.352	1	-1
451.546	1	-10
452.739	1	4
453.933	1	-1
455.126	1	6
456.320	1	-2
457.513	1	12
458.706	1	1
459.899	1	4
461.093	1	6
462.286	1	-7
463.479	1	4
464.672	1	0
465.865	1	-8
467.058	1	6
468.251	1	3
469.444	1	-7
470.637	1	-6
471.830	1	-7
473.023	1	5
474.215	1	0
475.408	1	3
476.601	1	-4
477.793	1	8
478.986	1	2
480.179	1	-7
481.371	1	5
482.564	1	2
483.756	1	6
484.948	1	0
486.141	1	4
487.333	1	-4
488.525	1	3
489.718	1	8
490.910	1	-3
492.102	1	-3
493.294	1	2
494.486	1	1
495.678	1	5
496.870	1	-1
498.062	1	1
499.254	1	7
500.446	1	6
501.638	1	-8
502.829	1	2
504.021	1	-1
505.213	1	-9
506.404	1	6
507.596	1	2
508.788	1	-3
509.979	1	4
511.171	1	5
512.362	1	-6
513.553	1	5
514.745	1	-4
515.936	1	-3
517.127	1	7
518.319	1	4
519.510	1	9
520.701	1	1
521.892	1	1
523.083	1	2
524.274	1	-2
525.465	1	-2
526.656	1	9
527.847	1	1
529.038	1	2
530.229	1	10
531.419	1	3
532.610	1	2
533.801	1	7
534.991	1	-1
536.182	1	-5
537.373	1	-2
538.563	1	5
539.754	1	-2
540.944	1	-7
542.134	1	-7
543.325	1	5
544.515	1	-3
545.705	1	7
546.896	1	5
548.086	1	12
549.276	1	-1
550.466	1	-5
551.656	1	-2
552.846	1	3
554.036	1	-1
555.226	1	-18
556.416	1	0
557.606	1	2
558.796	1	1
559.986	1	1
561.175	1	-16
562.365	1	3
563.555	1	-1
564.744	1	0
565.934	1	5
567.123	1	-1
568.313	1	-4
569.502	1	4
570.692	1	14
571.881	1	-1
573.070	1	6
574.260	1	3
575.449	1	6
576.638	1	5
577.827	1	-4
579.016	1	6
580.205	1	-3
581.394	1	-1
582.583	1	-8
583.772	1	-4
584.961	1	-2
586.150	1	-3
587.339	1	-2
588.528	1	1
589.717	1	3
590.905	1	1
592.094	1	-1
593.283	1	-3
594.471	1	7
595.660	1	-1
596.848	1	7
598.037	1	-1
599.225	1	3
600.413	1	-9
601.602	1	4
602.790	1	1
603.978	1	3
605.166	1	9
606.355	1	9
607.543	1	8
608.731	1	1
609.919	1	0
611.107	1	0
612.295	1	-2
613.483	1	2
614.671	1	-2
615.858	1	-6
617.046	1	-2
618.234	1	4
619.422	1	-10
620.609	1	8
621.797	1	4
622.985	1	10
624.172	1	4
625.360	1	4
626.547	1	-5
627.735	1	-11
628.922	1	-10
630.109	1	0
631.297	1	-6
632.484	1	6
633.671	1	1
634.858	1	1
636.045	1	10
637.232	1	5
638.419	1	-9
639.606	1	-9
640.793	1	-9
641.980	1	-12
643.167	1	-7
644.354	1	0
645.541	1	4
646.728	1	3
647.914	1	-6
649.101	1	1
650.288	1	7
651.474	1	4
652.661	1	0
653.847	1	-1
655.034	1	1
656.220	1	-3
657.406	1	0
658.593	1	-6
659.779	1	5
660.965	1	0
662.152	1	-1
663.338	1	4
664.524	1	-1
665.710	1	-2
666.896	1	11
668.082	1	6
669.268	1	-6
670.454	1	-6
671.640	1	0
672.826	1	-2
674.011	1	5
675.197	1	8
676.383	1	4
677.569	1	-3
678.754	1	-3
679.940	1	5
681.125	1	13
682.311	1	7
683.496	1	-2
684.682	1	-3
685.867	1	5
687.053	1	0
688.238	1	-8
688.746	1	-1