File: Data/GaN_170K_550ms/GaN_sample D_spot 18_UVVIS_170 K_200um_550 ms 2x2mm1_14.txt
340.368	1	2
341.565	1	3
342.763	1	5
343.960	1	2
345.157	1	-2
346.354	1	-10
347.552	1	4
348.749	1	1
349.946	1	1
351.143	1	1
352.340	1	2
353.537	1	-4
354.734	1	4
355.931	1	3
357.127	1	-2
358.324	1	8
359.521	1	-1
360.718	1	5
361.914	1	2
363.111	1	9
364.308	1	1
365.504	1	-2
366.701	1	-1
367.897	1	-3
369.093	1	-7
370.290	1	-8
371.486	1	-13
372.682	1	-1
373.879	1	5
375.075	1	1
376.271	1	9
377.467	1	5
378.663	1	7
379.859	1	1
381.055	1	3
382.251	1	-2
383.447	1	6
384.643	1	7
385.839	1	-5
387.035	1	5
388.230	1	0
389.426	1	6
390.622	1	0
391.817	1	-1
393.013	1	-1
394.208	1	2
395.404	1	15
396.599	1	-9
397.795	1	7
398.990	1	-6
400.186	1	-7
401.381	1	11
402.576	1	-11
403.771	1	2
404.967	1	-2
406.162	1	6
407.357	1	3
408.552	1	2
409.747	1	2
410.942	1	1
412.137	1	-5
413.332	1	3
414.526	1	1
415.721	1	3
416.916	1	-2
418.111	1	9
419.305	1	1
420.500	1	-3
421.695	1	-14
422.889	1	3
424.084	1	17
425.278	1	-6
426.472	1	6
427.667	1	11
428.861	1	1
430.055	1	0
431.250	1	7
432.444	1	2
433.638	1	16
434.832	1	10
436.026	1	0
437.220	1	2
438.414	1	-8
439.608	1	1
440.802	1	4
441.996	1	0
443.190	1	1
444.384	1	-3
445.578	1	2
446.771	1	-10
447.965	1	2
449.159	1	3
450.352	1	-5
451.546	1	-9
452.739	1	4
453.933	1	3
455.126	1	10
456.320	1	-4
457.513	1	11
458.706	1	5
459.899	1	2
461.093	1	3
462.286	1	-3
463.479	1	-4
464.672	1	4
465.865	1	-4
467.058	1	-2
468.251	1	-1
469.444	1	11
470.637	1	3
471.830	1	1
473.023	1	4
474.215	1	4
475.408	1	1
476.601	1	-3
477.793	1	13
478.986	1	-4
480.179	1	-4
481.371	1	-4
482.564	1	4
483.756	1	4
484.948	1	-2
486.141	1	9
487.333	1	-3
488.525	1	-2
489.718	1	3
490.910	1	2
492.102	1	0
493.294	1	-2
494.486	1	9
495.678	1	3
496.870	1	-1
498.062	1	-10
499.254	1	4
500.446	1	-6
501.638	1	5
502.829	1	1
504.021	1	5
505.213	1	2
506.404	1	9
507.596	1	-2
508.788	1	-9
509.979	1	13
511.171	1	5
512.362	1	0
513.553	1	-3
514.745	1	4
515.936	1	8
517.127	1	0
518.319	1	9
519.510	1	-2
520.701	1	2
521.892	1	5
523.083	1	3
524.274	1	-3
525.465	1	7
526.656	1	7
527.847	1	3
529.038	1	-10
530.229	1	12
531.419	1	2
532.610	1	2
533.801	1	11
534.991	1	-1
536.182	1	-3
537.373	1	-2
538.563	1	5
539.754	1	-8
540.944	1	1
542.134	1	1
543.325	1	9
544.515	1	6
545.705	1	5
546.896	1	8
548.086	1	10
549.276	1	4
550.466	1	-1
551.656	1	13
552.846	1	9
554.036	1	2
555.226	1	-5
556.416	1	2
557.606	1	-1
558.796	1	-3
559.986	1	0
561.175	1	-6
562.365	1	6
563.555	1	4
564.744	1	-5
565.934	1	6
567.123	1	-3
568.313	1	-2
569.502	1	4
570.692	1	8
571.881	1	4
573.070	1	-3
574.260	1	7
575.449	1	1
576.638	1	8
577.827	1	-9
579.016	1	2
580.205	1	3
581.394	1	-9
582.583	1	-2
583.772	1	1
584.961	1	2
586.150	1	-2
587.339	1	-1
588.528	1	-10
589.717	1	3
590.905	1	9
592.094	1	7
593.283	1	3
594.471	1	10
595.660	1	-3
596.848	1	6
598.037	1	-1
599.225	1	9
600.413	1	-4
601.602	1	2
602.790	1	8
603.978	1	4
605.166	1	13
606.355	1	5
607.543	1	8
608.731	1	2
609.919	1	-2
611.107	1	1
612.295	1	1
613.483	1	-3
614.671	1	6
615.858	1	1
617.046	1	-4
618.234	1	5
619.422	1	-15
620.609	1	8
621.797	1	-1
622.985	1	1
624.172	1	0
625.360	1	5
626.547	1	-7
627.735	1	-3
628.922	1	-8
630.109	1	-5
631.297	1	-2
632.484	1	-2
633.671	1	12
634.858	1	3
636.045	1	7
637.232	1	-2
638.419	1	-9
639.606	1	-6
640.793	1	1
641.980	1	-2
643.167	1	-4
644.354	1	5
645.541	1	15
646.728	1	-6
647.914	1	4
649.101	1	-5
650.288	1	3
651.474	1	6
652.661	1	2
653.847	1	-7
655.034	1	-1
656.220	1	-1
657.406	1	0
658.593	1	3
659.779	1	-2
660.965	1	6
662.152	1	6
663.338	1	9
664.524	1	8
665.710	1	5
666.896	1	0
668.082	1	7
669.268	1	-10
670.454	1	-9
671.640	1	0
672.826	1	-6
674.011	1	-2
675.197	1	3
676.383	1	3
677.569	1	-7
678.754	1	-7
679.940	1	4
681.125	1	7
682.311	1	-12
683.496	1	1
684.682	1	-1
685.867	1	5
687.053	1	-8
688.238	1	-8
688.746	1	-5