File: Data/GaN_170K_550ms/GaN_sample D_spot 18_UVVIS_170 K_200um_550 ms 2x2mm1_134.txt
340.368	1	-2
341.565	1	6
342.763	1	2
343.960	1	6
345.157	1	-7
346.354	1	-9
347.552	1	11
348.749	1	12
349.946	1	9
351.143	1	1
352.340	1	2
353.537	1	14
354.734	1	10
355.931	1	-3
357.127	1	2
358.324	1	7
359.521	1	12
360.718	1	20
361.914	1	21
363.111	1	28
364.308	1	25
365.504	1	44
366.701	1	49
367.897	1	44
369.093	1	35
370.290	1	51
371.486	1	34
372.682	1	38
373.879	1	41
375.075	1	38
376.271	1	24
377.467	1	18
378.663	1	10
379.859	1	15
381.055	1	9
382.251	1	15
383.447	1	17
384.643	1	8
385.839	1	1
387.035	1	1
388.230	1	1
389.426	1	4
390.622	1	11
391.817	1	-1
393.013	1	7
394.208	1	14
395.404	1	12
396.599	1	-3
397.795	1	-12
398.990	1	-4
400.186	1	2
401.381	1	20
402.576	1	9
403.771	1	3
404.967	1	9
406.162	1	6
407.357	1	-2
408.552	1	-2
409.747	1	-1
410.942	1	5
412.137	1	-4
413.332	1	-4
414.526	1	8
415.721	1	-7
416.916	1	-7
418.111	1	7
419.305	1	-1
420.500	1	9
421.695	1	-5
422.889	1	3
424.084	1	15
425.278	1	4
426.472	1	-1
427.667	1	7
428.861	1	7
430.055	1	-2
431.250	1	20
432.444	1	11
433.638	1	1
434.832	1	12
436.026	1	1
437.220	1	-1
438.414	1	-2
439.608	1	-4
440.802	1	9
441.996	1	-4
443.190	1	-2
444.384	1	6
445.578	1	9
446.771	1	-4
447.965	1	5
449.159	1	1
450.352	1	-9
451.546	1	1
452.739	1	5
453.933	1	2
455.126	1	8
456.320	1	-1
457.513	1	12
458.706	1	14
459.899	1	-2
461.093	1	4
462.286	1	-4
463.479	1	0
464.672	1	-1
465.865	1	5
467.058	1	2
468.251	1	5
469.444	1	0
470.637	1	3
471.830	1	2
473.023	1	4
474.215	1	7
475.408	1	8
476.601	1	5
477.793	1	6
478.986	1	3
480.179	1	-5
481.371	1	-3
482.564	1	-2
483.756	1	6
484.948	1	10
486.141	1	4
487.333	1	-1
488.525	1	14
489.718	1	13
490.910	1	3
492.102	1	8
493.294	1	-1
494.486	1	8
495.678	1	7
496.870	1	2
498.062	1	4
499.254	1	10
500.446	1	-1
501.638	1	-1
502.829	1	1
504.021	1	8
505.213	1	-1
506.404	1	7
507.596	1	12
508.788	1	8
509.979	1	13
511.171	1	4
512.362	1	2
513.553	1	6
514.745	1	6
515.936	1	7
517.127	1	-3
518.319	1	12
519.510	1	15
520.701	1	14
521.892	1	11
523.083	1	8
524.274	1	8
525.465	1	3
526.656	1	19
527.847	1	5
529.038	1	5
530.229	1	8
531.419	1	16
532.610	1	9
533.801	1	19
534.991	1	3
536.182	1	10
537.373	1	6
538.563	1	2
539.754	1	6
540.944	1	8
542.134	1	7
543.325	1	15
544.515	1	13
545.705	1	15
546.896	1	6
548.086	1	8
549.276	1	13
550.466	1	13
551.656	1	3
552.846	1	12
554.036	1	10
555.226	1	-4
556.416	1	12
557.606	1	7
558.796	1	4
559.986	1	13
561.175	1	-2
562.365	1	2
563.555	1	11
564.744	1	-1
565.934	1	10
567.123	1	5
568.313	1	4
569.502	1	2
570.692	1	6
571.881	1	9
573.070	1	14
574.260	1	5
575.449	1	-1
576.638	1	11
577.827	1	2
579.016	1	11
580.205	1	3
581.394	1	9
582.583	1	4
583.772	1	2
584.961	1	2
586.150	1	-8
587.339	1	3
588.528	1	-1
589.717	1	5
590.905	1	8
592.094	1	8
593.283	1	8
594.471	1	6
595.660	1	5
596.848	1	11
598.037	1	3
599.225	1	4
600.413	1	4
601.602	1	7
602.790	1	15
603.978	1	1
605.166	1	4
606.355	1	6
607.543	1	14
608.731	1	-1
609.919	1	2
611.107	1	0
612.295	1	3
613.483	1	12
614.671	1	10
615.858	1	14
617.046	1	6
618.234	1	4
619.422	1	-6
620.609	1	8
621.797	1	5
622.985	1	-1
624.172	1	7
625.360	1	0
626.547	1	3
627.735	1	-5
628.922	1	-5
630.109	1	-1
631.297	1	3
632.484	1	-5
633.671	1	6
634.858	1	3
636.045	1	8
637.232	1	9
638.419	1	-9
639.606	1	1
640.793	1	0
641.980	1	4
643.167	1	-6
644.354	1	6
645.541	1	-3
646.728	1	1
647.914	1	6
649.101	1	5
650.288	1	2
651.474	1	6
652.661	1	6
653.847	1	4
655.034	1	3
656.220	1	9
657.406	1	0
658.593	1	7
659.779	1	7
660.965	1	9
662.152	1	1
663.338	1	6
664.524	1	1
665.710	1	6
666.896	1	5
668.082	1	9
669.268	1	-8
670.454	1	-6
671.640	1	6
672.826	1	5
674.011	1	5
675.197	1	3
676.383	1	-3
677.569	1	-8
678.754	1	6
679.940	1	4
681.125	1	0
682.311	1	-1
683.496	1	1
684.682	1	4
685.867	1	11
687.053	1	-11
688.238	1	-3
688.746	1	-1