File: Data/GaN_170K_550ms/GaN_sample D_spot 18_UVVIS_170 K_200um_550 ms 2x2mm1_5.txt
340.368	1	-6
341.565	1	3
342.763	1	1
343.960	1	-6
345.157	1	-6
346.354	1	-7
347.552	1	10
348.749	1	3
349.946	1	5
351.143	1	-4
352.340	1	1
353.537	1	3
354.734	1	0
355.931	1	-6
357.127	1	-6
358.324	1	4
359.521	1	8
360.718	1	1
361.914	1	-3
363.111	1	7
364.308	1	0
365.504	1	-4
366.701	1	1
367.897	1	-9
369.093	1	-2
370.290	1	-2
371.486	1	-7
372.682	1	1
373.879	1	4
375.075	1	2
376.271	1	-3
377.467	1	12
378.663	1	-3
379.859	1	3
381.055	1	5
382.251	1	3
383.447	1	3
384.643	1	-6
385.839	1	-3
387.035	1	1
388.230	1	-1
389.426	1	-6
390.622	1	-1
391.817	1	-7
393.013	1	2
394.208	1	7
395.404	1	7
396.599	1	-5
397.795	1	-3
398.990	1	-7
400.186	1	-8
401.381	1	11
402.576	1	-1
403.771	1	2
404.967	1	0
406.162	1	9
407.357	1	-9
408.552	1	-1
409.747	1	-4
410.942	1	-2
412.137	1	-8
413.332	1	1
414.526	1	3
415.721	1	-9
416.916	1	-9
418.111	1	5
419.305	1	-2
420.500	1	4
421.695	1	5
422.889	1	2
424.084	1	12
425.278	1	1
426.472	1	3
427.667	1	6
428.861	1	5
430.055	1	-2
431.250	1	13
432.444	1	9
433.638	1	8
434.832	1	2
436.026	1	-3
437.220	1	6
438.414	1	-11
439.608	1	-8
440.802	1	8
441.996	1	-4
443.190	1	1
444.384	1	-5
445.578	1	2
446.771	1	-22
447.965	1	-1
449.159	1	-2
450.352	1	-5
451.546	1	-6
452.739	1	0
453.933	1	-3
455.126	1	8
456.320	1	9
457.513	1	11
458.706	1	11
459.899	1	2
461.093	1	9
462.286	1	-12
463.479	1	-7
464.672	1	3
465.865	1	-1
467.058	1	-2
468.251	1	-2
469.444	1	3
470.637	1	9
471.830	1	3
473.023	1	4
474.215	1	3
475.408	1	-1
476.601	1	-5
477.793	1	3
478.986	1	-1
480.179	1	-6
481.371	1	-6
482.564	1	-2
483.756	1	8
484.948	1	-4
486.141	1	3
487.333	1	-11
488.525	1	5
489.718	1	5
490.910	1	-1
492.102	1	3
493.294	1	1
494.486	1	-2
495.678	1	2
496.870	1	3
498.062	1	2
499.254	1	0
500.446	1	-3
501.638	1	-3
502.829	1	3
504.021	1	5
505.213	1	-5
506.404	1	8
507.596	1	3
508.788	1	-11
509.979	1	-1
511.171	1	6
512.362	1	-8
513.553	1	2
514.745	1	-4
515.936	1	1
517.127	1	1
518.319	1	1
519.510	1	-3
520.701	1	3
521.892	1	0
523.083	1	2
524.274	1	-1
525.465	1	0
526.656	1	-2
527.847	1	-6
529.038	1	-1
530.229	1	11
531.419	1	5
532.610	1	-4
533.801	1	4
534.991	1	-2
536.182	1	1
537.373	1	-6
538.563	1	3
539.754	1	-4
540.944	1	-4
542.134	1	4
543.325	1	2
544.515	1	0
545.705	1	3
546.896	1	1
548.086	1	-2
549.276	1	0
550.466	1	-6
551.656	1	7
552.846	1	-6
554.036	1	0
555.226	1	-5
556.416	1	1
557.606	1	0
558.796	1	7
559.986	1	5
561.175	1	-5
562.365	1	4
563.555	1	-4
564.744	1	1
565.934	1	2
567.123	1	9
568.313	1	-6
569.502	1	0
570.692	1	4
571.881	1	-1
573.070	1	-4
574.260	1	8
575.449	1	0
576.638	1	6
577.827	1	-3
579.016	1	7
580.205	1	-7
581.394	1	1
582.583	1	0
583.772	1	0
584.961	1	-5
586.150	1	-1
587.339	1	-2
588.528	1	-4
589.717	1	7
590.905	1	7
592.094	1	3
593.283	1	2
594.471	1	7
595.660	1	6
596.848	1	-1
598.037	1	1
599.225	1	-3
600.413	1	-13
601.602	1	6
602.790	1	16
603.978	1	4
605.166	1	-3
606.355	1	2
607.543	1	8
608.731	1	4
609.919	1	5
611.107	1	-7
612.295	1	1
613.483	1	-8
614.671	1	11
615.858	1	-6
617.046	1	6
618.234	1	-7
619.422	1	-7
620.609	1	-1
621.797	1	0
622.985	1	6
624.172	1	-1
625.360	1	-4
626.547	1	-10
627.735	1	-13
628.922	1	-9
630.109	1	-4
631.297	1	-6
632.484	1	-9
633.671	1	2
634.858	1	-3
636.045	1	4
637.232	1	6
638.419	1	-1
639.606	1	-8
640.793	1	-1
641.980	1	-6
643.167	1	-2
644.354	1	2
645.541	1	-3
646.728	1	1
647.914	1	-1
649.101	1	-1
650.288	1	-5
651.474	1	5
652.661	1	-5
653.847	1	-4
655.034	1	-4
656.220	1	10
657.406	1	-4
658.593	1	5
659.779	1	7
660.965	1	12
662.152	1	2
663.338	1	5
664.524	1	-6
665.710	1	-5
666.896	1	7
668.082	1	10
669.268	1	-7
670.454	1	-3
671.640	1	5
672.826	1	-13
674.011	1	-3
675.197	1	4
676.383	1	-3
677.569	1	-13
678.754	1	0
679.940	1	4
681.125	1	6
682.311	1	-6
683.496	1	5
684.682	1	6
685.867	1	-5
687.053	1	-7
688.238	1	0
688.746	1	-8