File: Data/GaN_170K_550ms/GaN_sample D_spot 18_UVVIS_170 K_200um_550 ms 2x2mm1_108.txt
340.368	1	-2
341.565	1	6
342.763	1	-1
343.960	1	-2
345.157	1	3
346.354	1	-1
347.552	1	9
348.749	1	9
349.946	1	10
351.143	1	-5
352.340	1	11
353.537	1	11
354.734	1	13
355.931	1	3
357.127	1	5
358.324	1	14
359.521	1	18
360.718	1	24
361.914	1	26
363.111	1	36
364.308	1	39
365.504	1	51
366.701	1	65
367.897	1	78
369.093	1	73
370.290	1	80
371.486	1	47
372.682	1	55
373.879	1	56
375.075	1	43
376.271	1	42
377.467	1	44
378.663	1	14
379.859	1	24
381.055	1	18
382.251	1	15
383.447	1	23
384.643	1	13
385.839	1	4
387.035	1	7
388.230	1	9
389.426	1	13
390.622	1	1
391.817	1	7
393.013	1	11
394.208	1	11
395.404	1	12
396.599	1	6
397.795	1	-1
398.990	1	-5
400.186	1	3
401.381	1	13
402.576	1	0
403.771	1	6
404.967	1	9
406.162	1	9
407.357	1	9
408.552	1	-3
409.747	1	4
410.942	1	0
412.137	1	-4
413.332	1	4
414.526	1	6
415.721	1	4
416.916	1	-5
418.111	1	16
419.305	1	2
420.500	1	6
421.695	1	-2
422.889	1	-5
424.084	1	19
425.278	1	-5
426.472	1	8
427.667	1	3
428.861	1	8
430.055	1	3
431.250	1	19
432.444	1	3
433.638	1	2
434.832	1	15
436.026	1	8
437.220	1	12
438.414	1	-4
439.608	1	9
440.802	1	17
441.996	1	-4
443.190	1	4
444.384	1	9
445.578	1	6
446.771	1	-8
447.965	1	5
449.159	1	-4
450.352	1	-1
451.546	1	-2
452.739	1	2
453.933	1	-5
455.126	1	10
456.320	1	-1
457.513	1	11
458.706	1	7
459.899	1	4
461.093	1	5
462.286	1	-1
463.479	1	-1
464.672	1	2
465.865	1	6
467.058	1	11
468.251	1	5
469.444	1	3
470.637	1	1
471.830	1	-4
473.023	1	5
474.215	1	3
475.408	1	-1
476.601	1	4
477.793	1	5
478.986	1	1
480.179	1	-5
481.371	1	12
482.564	1	7
483.756	1	4
484.948	1	3
486.141	1	16
487.333	1	-12
488.525	1	12
489.718	1	16
490.910	1	14
492.102	1	3
493.294	1	1
494.486	1	10
495.678	1	2
496.870	1	18
498.062	1	2
499.254	1	7
500.446	1	-5
501.638	1	6
502.829	1	-2
504.021	1	12
505.213	1	7
506.404	1	9
507.596	1	19
508.788	1	-1
509.979	1	5
511.171	1	14
512.362	1	6
513.553	1	8
514.745	1	10
515.936	1	4
517.127	1	9
518.319	1	9
519.510	1	18
520.701	1	21
521.892	1	16
523.083	1	8
524.274	1	9
525.465	1	8
526.656	1	17
527.847	1	10
529.038	1	4
530.229	1	19
531.419	1	23
532.610	1	12
533.801	1	12
534.991	1	9
536.182	1	20
537.373	1	7
538.563	1	15
539.754	1	10
540.944	1	2
542.134	1	12
543.325	1	17
544.515	1	5
545.705	1	15
546.896	1	10
548.086	1	20
549.276	1	19
550.466	1	11
551.656	1	15
552.846	1	-2
554.036	1	17
555.226	1	0
556.416	1	9
557.606	1	6
558.796	1	13
559.986	1	19
561.175	1	3
562.365	1	2
563.555	1	4
564.744	1	13
565.934	1	16
567.123	1	6
568.313	1	4
569.502	1	10
570.692	1	12
571.881	1	5
573.070	1	2
574.260	1	10
575.449	1	10
576.638	1	10
577.827	1	-6
579.016	1	8
580.205	1	5
581.394	1	3
582.583	1	5
583.772	1	10
584.961	1	3
586.150	1	5
587.339	1	-2
588.528	1	7
589.717	1	14
590.905	1	5
592.094	1	10
593.283	1	10
594.471	1	6
595.660	1	2
596.848	1	2
598.037	1	3
599.225	1	-4
600.413	1	-1
601.602	1	-3
602.790	1	10
603.978	1	-1
605.166	1	5
606.355	1	6
607.543	1	13
608.731	1	6
609.919	1	6
611.107	1	7
612.295	1	-1
613.483	1	1
614.671	1	15
615.858	1	8
617.046	1	-4
618.234	1	1
619.422	1	-3
620.609	1	4
621.797	1	4
622.985	1	13
624.172	1	-4
625.360	1	6
626.547	1	0
627.735	1	-9
628.922	1	-3
630.109	1	-3
631.297	1	-4
632.484	1	2
633.671	1	10
634.858	1	4
636.045	1	11
637.232	1	3
638.419	1	2
639.606	1	5
640.793	1	-8
641.980	1	-3
643.167	1	0
644.354	1	7
645.541	1	4
646.728	1	8
647.914	1	11
649.101	1	-2
650.288	1	0
651.474	1	7
652.661	1	3
653.847	1	16
655.034	1	0
656.220	1	5
657.406	1	7
658.593	1	5
659.779	1	2
660.965	1	12
662.152	1	-5
663.338	1	8
664.524	1	4
665.710	1	2
666.896	1	4
668.082	1	12
669.268	1	-1
670.454	1	-7
671.640	1	14
672.826	1	9
674.011	1	11
675.197	1	8
676.383	1	4
677.569	1	0
678.754	1	9
679.940	1	17
681.125	1	14
682.311	1	-2
683.496	1	11
684.682	1	7
685.867	1	10
687.053	1	-5
688.238	1	4
688.746	1	-6