File: Data/GaN_170K_550ms/GaN_sample D_spot 18_UVVIS_170 K_200um_550 ms 2x2mm1_44.txt
340.368	1	1
341.565	1	5
342.763	1	5
343.960	1	-1
345.157	1	8
346.354	1	2
347.552	1	12
348.749	1	8
349.946	1	9
351.143	1	-1
352.340	1	8
353.537	1	7
354.734	1	13
355.931	1	-8
357.127	1	4
358.324	1	8
359.521	1	6
360.718	1	-5
361.914	1	1
363.111	1	13
364.308	1	2
365.504	1	-3
366.701	1	-5
367.897	1	0
369.093	1	-11
370.290	1	-1
371.486	1	-8
372.682	1	6
373.879	1	11
375.075	1	-7
376.271	1	2
377.467	1	4
378.663	1	7
379.859	1	1
381.055	1	7
382.251	1	-5
383.447	1	-2
384.643	1	1
385.839	1	-1
387.035	1	1
388.230	1	-6
389.426	1	2
390.622	1	2
391.817	1	4
393.013	1	0
394.208	1	5
395.404	1	3
396.599	1	-5
397.795	1	-6
398.990	1	-9
400.186	1	-4
401.381	1	14
402.576	1	1
403.771	1	5
404.967	1	3
406.162	1	6
407.357	1	-8
408.552	1	2
409.747	1	-3
410.942	1	4
412.137	1	-11
413.332	1	-7
414.526	1	5
415.721	1	4
416.916	1	0
418.111	1	7
419.305	1	4
420.500	1	4
421.695	1	-8
422.889	1	-3
424.084	1	14
425.278	1	7
426.472	1	-1
427.667	1	6
428.861	1	6
430.055	1	10
431.250	1	16
432.444	1	2
433.638	1	18
434.832	1	7
436.026	1	1
437.220	1	3
438.414	1	-2
439.608	1	-3
440.802	1	6
441.996	1	-2
443.190	1	-6
444.384	1	4
445.578	1	11
446.771	1	-2
447.965	1	1
449.159	1	4
450.352	1	2
451.546	1	-5
452.739	1	-1
453.933	1	2
455.126	1	9
456.320	1	7
457.513	1	9
458.706	1	10
459.899	1	2
461.093	1	4
462.286	1	1
463.479	1	5
464.672	1	-7
465.865	1	-4
467.058	1	1
468.251	1	-2
469.444	1	4
470.637	1	3
471.830	1	7
473.023	1	6
474.215	1	2
475.408	1	1
476.601	1	6
477.793	1	8
478.986	1	-1
480.179	1	-3
481.371	1	5
482.564	1	6
483.756	1	6
484.948	1	0
486.141	1	10
487.333	1	-7
488.525	1	6
489.718	1	14
490.910	1	0
492.102	1	-5
493.294	1	3
494.486	1	2
495.678	1	-1
496.870	1	3
498.062	1	6
499.254	1	1
500.446	1	5
501.638	1	-5
502.829	1	-2
504.021	1	4
505.213	1	-5
506.404	1	5
507.596	1	11
508.788	1	-7
509.979	1	6
511.171	1	9
512.362	1	-3
513.553	1	-1
514.745	1	-6
515.936	1	-2
517.127	1	0
518.319	1	10
519.510	1	3
520.701	1	0
521.892	1	-2
523.083	1	-3
524.274	1	-2
525.465	1	0
526.656	1	7
527.847	1	0
529.038	1	-4
530.229	1	12
531.419	1	12
532.610	1	11
533.801	1	1
534.991	1	2
536.182	1	6
537.373	1	2
538.563	1	-3
539.754	1	3
540.944	1	-3
542.134	1	9
543.325	1	4
544.515	1	-1
545.705	1	2
546.896	1	1
548.086	1	-3
549.276	1	9
550.466	1	-4
551.656	1	11
552.846	1	2
554.036	1	-2
555.226	1	-3
556.416	1	1
557.606	1	3
558.796	1	-2
559.986	1	6
561.175	1	-10
562.365	1	-1
563.555	1	0
564.744	1	0
565.934	1	2
567.123	1	-2
568.313	1	-2
569.502	1	2
570.692	1	3
571.881	1	-8
573.070	1	-8
574.260	1	6
575.449	1	3
576.638	1	7
577.827	1	0
579.016	1	7
580.205	1	-3
581.394	1	6
582.583	1	-8
583.772	1	1
584.961	1	2
586.150	1	1
587.339	1	5
588.528	1	-8
589.717	1	6
590.905	1	3
592.094	1	6
593.283	1	9
594.471	1	14
595.660	1	-8
596.848	1	0
598.037	1	1
599.225	1	-8
600.413	1	-5
601.602	1	6
602.790	1	8
603.978	1	2
605.166	1	8
606.355	1	4
607.543	1	8
608.731	1	6
609.919	1	-1
611.107	1	-7
612.295	1	0
613.483	1	-10
614.671	1	8
615.858	1	-1
617.046	1	-6
618.234	1	2
619.422	1	-6
620.609	1	2
621.797	1	0
622.985	1	7
624.172	1	-3
625.360	1	-1
626.547	1	-7
627.735	1	-7
628.922	1	-5
630.109	1	1
631.297	1	-3
632.484	1	-2
633.671	1	11
634.858	1	-2
636.045	1	11
637.232	1	7
638.419	1	-5
639.606	1	0
640.793	1	1
641.980	1	-6
643.167	1	-2
644.354	1	6
645.541	1	11
646.728	1	6
647.914	1	5
649.101	1	5
650.288	1	1
651.474	1	15
652.661	1	4
653.847	1	3
655.034	1	8
656.220	1	0
657.406	1	0
658.593	1	-4
659.779	1	7
660.965	1	14
662.152	1	8
663.338	1	7
664.524	1	3
665.710	1	1
666.896	1	4
668.082	1	15
669.268	1	-5
670.454	1	-7
671.640	1	4
672.826	1	0
674.011	1	3
675.197	1	6
676.383	1	11
677.569	1	-2
678.754	1	-1
679.940	1	9
681.125	1	8
682.311	1	5
683.496	1	9
684.682	1	1
685.867	1	8
687.053	1	0
688.238	1	1
688.746	1	-9