File: Data/GaN_170K_550ms/GaN_sample D_spot 18_UVVIS_170 K_200um_550 ms 2x2mm1_182.txt
340.368	1	-13
341.565	1	0
342.763	1	3
343.960	1	-4
345.157	1	3
346.354	1	3
347.552	1	14
348.749	1	10
349.946	1	-2
351.143	1	3
352.340	1	1
353.537	1	4
354.734	1	4
355.931	1	-1
357.127	1	3
358.324	1	1
359.521	1	8
360.718	1	11
361.914	1	14
363.111	1	19
364.308	1	20
365.504	1	17
366.701	1	23
367.897	1	16
369.093	1	15
370.290	1	18
371.486	1	15
372.682	1	17
373.879	1	18
375.075	1	11
376.271	1	11
377.467	1	10
378.663	1	14
379.859	1	6
381.055	1	7
382.251	1	10
383.447	1	3
384.643	1	7
385.839	1	0
387.035	1	3
388.230	1	1
389.426	1	14
390.622	1	8
391.817	1	1
393.013	1	4
394.208	1	12
395.404	1	2
396.599	1	1
397.795	1	0
398.990	1	-7
400.186	1	0
401.381	1	13
402.576	1	-2
403.771	1	7
404.967	1	-4
406.162	1	8
407.357	1	2
408.552	1	2
409.747	1	10
410.942	1	3
412.137	1	-7
413.332	1	3
414.526	1	5
415.721	1	4
416.916	1	-2
418.111	1	1
419.305	1	-2
420.500	1	5
421.695	1	-8
422.889	1	0
424.084	1	16
425.278	1	2
426.472	1	-10
427.667	1	1
428.861	1	6
430.055	1	2
431.250	1	21
432.444	1	11
433.638	1	10
434.832	1	7
436.026	1	5
437.220	1	5
438.414	1	-9
439.608	1	6
440.802	1	2
441.996	1	8
443.190	1	-2
444.384	1	1
445.578	1	11
446.771	1	-3
447.965	1	-1
449.159	1	2
450.352	1	-3
451.546	1	-7
452.739	1	6
453.933	1	4
455.126	1	14
456.320	1	0
457.513	1	4
458.706	1	2
459.899	1	3
461.093	1	8
462.286	1	1
463.479	1	-9
464.672	1	-4
465.865	1	5
467.058	1	3
468.251	1	-4
469.444	1	4
470.637	1	5
471.830	1	-4
473.023	1	3
474.215	1	3
475.408	1	-4
476.601	1	1
477.793	1	8
478.986	1	-3
480.179	1	-7
481.371	1	0
482.564	1	-5
483.756	1	6
484.948	1	8
486.141	1	-1
487.333	1	-1
488.525	1	8
489.718	1	15
490.910	1	-9
492.102	1	-4
493.294	1	3
494.486	1	12
495.678	1	2
496.870	1	5
498.062	1	3
499.254	1	7
500.446	1	4
501.638	1	-6
502.829	1	2
504.021	1	2
505.213	1	-14
506.404	1	3
507.596	1	12
508.788	1	0
509.979	1	0
511.171	1	18
512.362	1	6
513.553	1	3
514.745	1	-3
515.936	1	4
517.127	1	5
518.319	1	16
519.510	1	11
520.701	1	2
521.892	1	8
523.083	1	1
524.274	1	7
525.465	1	8
526.656	1	9
527.847	1	4
529.038	1	1
530.229	1	10
531.419	1	13
532.610	1	11
533.801	1	1
534.991	1	-1
536.182	1	1
537.373	1	-5
538.563	1	3
539.754	1	6
540.944	1	7
542.134	1	3
543.325	1	4
544.515	1	3
545.705	1	8
546.896	1	6
548.086	1	11
549.276	1	6
550.466	1	0
551.656	1	14
552.846	1	7
554.036	1	5
555.226	1	-8
556.416	1	5
557.606	1	0
558.796	1	3
559.986	1	8
561.175	1	0
562.365	1	5
563.555	1	5
564.744	1	2
565.934	1	-1
567.123	1	2
568.313	1	-1
569.502	1	-5
570.692	1	9
571.881	1	-6
573.070	1	-2
574.260	1	13
575.449	1	5
576.638	1	4
577.827	1	1
579.016	1	2
580.205	1	-8
581.394	1	4
582.583	1	1
583.772	1	5
584.961	1	2
586.150	1	-3
587.339	1	6
588.528	1	-3
589.717	1	0
590.905	1	9
592.094	1	7
593.283	1	2
594.471	1	15
595.660	1	2
596.848	1	10
598.037	1	-2
599.225	1	6
600.413	1	-2
601.602	1	3
602.790	1	6
603.978	1	1
605.166	1	3
606.355	1	3
607.543	1	11
608.731	1	0
609.919	1	7
611.107	1	-8
612.295	1	3
613.483	1	2
614.671	1	10
615.858	1	-3
617.046	1	-3
618.234	1	2
619.422	1	-2
620.609	1	1
621.797	1	1
622.985	1	-3
624.172	1	4
625.360	1	3
626.547	1	-4
627.735	1	-6
628.922	1	-7
630.109	1	5
631.297	1	-4
632.484	1	-1
633.671	1	7
634.858	1	9
636.045	1	8
637.232	1	6
638.419	1	-13
639.606	1	-5
640.793	1	-4
641.980	1	-1
643.167	1	-10
644.354	1	-1
645.541	1	3
646.728	1	9
647.914	1	3
649.101	1	-2
650.288	1	3
651.474	1	13
652.661	1	8
653.847	1	0
655.034	1	-3
656.220	1	-10
657.406	1	-3
658.593	1	8
659.779	1	6
660.965	1	13
662.152	1	3
663.338	1	0
664.524	1	6
665.710	1	-5
666.896	1	-1
668.082	1	12
669.268	1	-2
670.454	1	-9
671.640	1	4
672.826	1	4
674.011	1	10
675.197	1	11
676.383	1	2
677.569	1	-9
678.754	1	7
679.940	1	2
681.125	1	1
682.311	1	-8
683.496	1	8
684.682	1	5
685.867	1	16
687.053	1	-3
688.238	1	-4
688.746	1	-1