File: Data/GaN_170K_550ms/GaN_sample D_spot 18_UVVIS_170 K_200um_550 ms 2x2mm1_292.txt
340.368	1	-11
341.565	1	1
342.763	1	-2
343.960	1	2
345.157	1	5
346.354	1	0
347.552	1	10
348.749	1	5
349.946	1	6
351.143	1	-2
352.340	1	-3
353.537	1	4
354.734	1	6
355.931	1	1
357.127	1	-5
358.324	1	5
359.521	1	6
360.718	1	0
361.914	1	-1
363.111	1	13
364.308	1	7
365.504	1	7
366.701	1	12
367.897	1	11
369.093	1	2
370.290	1	13
371.486	1	1
372.682	1	12
373.879	1	12
375.075	1	5
376.271	1	18
377.467	1	4
378.663	1	2
379.859	1	6
381.055	1	7
382.251	1	-5
383.447	1	10
384.643	1	2
385.839	1	1
387.035	1	6
388.230	1	1
389.426	1	5
390.622	1	-5
391.817	1	9
393.013	1	0
394.208	1	6
395.404	1	2
396.599	1	-10
397.795	1	-1
398.990	1	-6
400.186	1	0
401.381	1	11
402.576	1	-5
403.771	1	5
404.967	1	12
406.162	1	4
407.357	1	-6
408.552	1	5
409.747	1	2
410.942	1	1
412.137	1	-6
413.332	1	-1
414.526	1	11
415.721	1	-1
416.916	1	2
418.111	1	8
419.305	1	-2
420.500	1	-4
421.695	1	-2
422.889	1	-6
424.084	1	11
425.278	1	-5
426.472	1	0
427.667	1	-3
428.861	1	3
430.055	1	2
431.250	1	12
432.444	1	0
433.638	1	16
434.832	1	2
436.026	1	-2
437.220	1	6
438.414	1	-3
439.608	1	-7
440.802	1	14
441.996	1	-2
443.190	1	6
444.384	1	9
445.578	1	0
446.771	1	-15
447.965	1	-2
449.159	1	7
450.352	1	-6
451.546	1	-6
452.739	1	8
453.933	1	-7
455.126	1	8
456.320	1	-2
457.513	1	2
458.706	1	9
459.899	1	0
461.093	1	7
462.286	1	-5
463.479	1	-8
464.672	1	-11
465.865	1	-1
467.058	1	7
468.251	1	-6
469.444	1	-11
470.637	1	-2
471.830	1	-4
473.023	1	4
474.215	1	0
475.408	1	-5
476.601	1	0
477.793	1	3
478.986	1	7
480.179	1	-1
481.371	1	4
482.564	1	4
483.756	1	-8
484.948	1	1
486.141	1	2
487.333	1	-9
488.525	1	9
489.718	1	8
490.910	1	-5
492.102	1	8
493.294	1	1
494.486	1	8
495.678	1	3
496.870	1	5
498.062	1	-2
499.254	1	9
500.446	1	-3
501.638	1	-6
502.829	1	4
504.021	1	1
505.213	1	-5
506.404	1	3
507.596	1	3
508.788	1	3
509.979	1	-2
511.171	1	-3
512.362	1	-8
513.553	1	6
514.745	1	4
515.936	1	1
517.127	1	7
518.319	1	7
519.510	1	6
520.701	1	3
521.892	1	4
523.083	1	-3
524.274	1	0
525.465	1	-1
526.656	1	6
527.847	1	2
529.038	1	4
530.229	1	9
531.419	1	10
532.610	1	8
533.801	1	8
534.991	1	-2
536.182	1	6
537.373	1	-1
538.563	1	6
539.754	1	-6
540.944	1	-2
542.134	1	1
543.325	1	0
544.515	1	2
545.705	1	5
546.896	1	4
548.086	1	3
549.276	1	0
550.466	1	1
551.656	1	0
552.846	1	8
554.036	1	-4
555.226	1	1
556.416	1	2
557.606	1	7
558.796	1	6
559.986	1	5
561.175	1	-10
562.365	1	-4
563.555	1	7
564.744	1	1
565.934	1	5
567.123	1	2
568.313	1	0
569.502	1	-3
570.692	1	4
571.881	1	-7
573.070	1	-5
574.260	1	12
575.449	1	2
576.638	1	1
577.827	1	-3
579.016	1	-6
580.205	1	-7
581.394	1	8
582.583	1	-2
583.772	1	-4
584.961	1	2
586.150	1	-7
587.339	1	-4
588.528	1	1
589.717	1	4
590.905	1	10
592.094	1	9
593.283	1	2
594.471	1	10
595.660	1	-3
596.848	1	0
598.037	1	9
599.225	1	3
600.413	1	-8
601.602	1	1
602.790	1	3
603.978	1	5
605.166	1	7
606.355	1	-2
607.543	1	6
608.731	1	6
609.919	1	0
611.107	1	-3
612.295	1	0
613.483	1	5
614.671	1	12
615.858	1	-1
617.046	1	-1
618.234	1	-3
619.422	1	-5
620.609	1	7
621.797	1	4
622.985	1	-2
624.172	1	-1
625.360	1	-1
626.547	1	-5
627.735	1	-10
628.922	1	-6
630.109	1	-6
631.297	1	1
632.484	1	-5
633.671	1	17
634.858	1	4
636.045	1	11
637.232	1	3
638.419	1	-5
639.606	1	-4
640.793	1	-6
641.980	1	-11
643.167	1	7
644.354	1	-1
645.541	1	1
646.728	1	1
647.914	1	-7
649.101	1	3
650.288	1	-6
651.474	1	5
652.661	1	2
653.847	1	5
655.034	1	-9
656.220	1	6
657.406	1	-1
658.593	1	2
659.779	1	3
660.965	1	12
662.152	1	0
663.338	1	10
664.524	1	-3
665.710	1	3
666.896	1	1
668.082	1	7
669.268	1	-8
670.454	1	-6
671.640	1	9
672.826	1	-3
674.011	1	3
675.197	1	1
676.383	1	9
677.569	1	-9
678.754	1	0
679.940	1	3
681.125	1	1
682.311	1	-2
683.496	1	3
684.682	1	-1
685.867	1	5
687.053	1	-3
688.238	1	-5
688.746	1	-8