File: Data/GaN_170K_550ms/GaN_sample D_spot 18_UVVIS_170 K_200um_550 ms 2x2mm1_264.txt
340.368	1	8
341.565	1	-2
342.763	1	4
343.960	1	1
345.157	1	-6
346.354	1	-2
347.552	1	4
348.749	1	1
349.946	1	14
351.143	1	4
352.340	1	8
353.537	1	3
354.734	1	2
355.931	1	1
357.127	1	8
358.324	1	11
359.521	1	4
360.718	1	0
361.914	1	-1
363.111	1	15
364.308	1	7
365.504	1	8
366.701	1	12
367.897	1	4
369.093	1	-2
370.290	1	7
371.486	1	-4
372.682	1	13
373.879	1	9
375.075	1	6
376.271	1	3
377.467	1	10
378.663	1	4
379.859	1	0
381.055	1	9
382.251	1	1
383.447	1	6
384.643	1	4
385.839	1	-14
387.035	1	4
388.230	1	-2
389.426	1	10
390.622	1	5
391.817	1	-3
393.013	1	-1
394.208	1	8
395.404	1	3
396.599	1	-7
397.795	1	3
398.990	1	-3
400.186	1	1
401.381	1	8
402.576	1	1
403.771	1	4
404.967	1	4
406.162	1	2
407.357	1	0
408.552	1	-6
409.747	1	7
410.942	1	-3
412.137	1	-14
413.332	1	-2
414.526	1	3
415.721	1	1
416.916	1	-7
418.111	1	14
419.305	1	-2
420.500	1	-2
421.695	1	-3
422.889	1	7
424.084	1	12
425.278	1	5
426.472	1	7
427.667	1	4
428.861	1	6
430.055	1	-6
431.250	1	11
432.444	1	5
433.638	1	1
434.832	1	11
436.026	1	-5
437.220	1	7
438.414	1	-4
439.608	1	-4
440.802	1	9
441.996	1	-5
443.190	1	1
444.384	1	-3
445.578	1	12
446.771	1	-16
447.965	1	-7
449.159	1	4
450.352	1	1
451.546	1	-5
452.739	1	-3
453.933	1	-1
455.126	1	15
456.320	1	0
457.513	1	5
458.706	1	6
459.899	1	-2
461.093	1	3
462.286	1	4
463.479	1	-1
464.672	1	-3
465.865	1	9
467.058	1	4
468.251	1	4
469.444	1	-13
470.637	1	5
471.830	1	-4
473.023	1	11
474.215	1	-3
475.408	1	1
476.601	1	3
477.793	1	8
478.986	1	-8
480.179	1	-9
481.371	1	3
482.564	1	-8
483.756	1	0
484.948	1	-6
486.141	1	13
487.333	1	-5
488.525	1	2
489.718	1	13
490.910	1	-5
492.102	1	5
493.294	1	-2
494.486	1	11
495.678	1	-7
496.870	1	0
498.062	1	2
499.254	1	3
500.446	1	-2
501.638	1	-10
502.829	1	10
504.021	1	9
505.213	1	-1
506.404	1	-5
507.596	1	1
508.788	1	0
509.979	1	3
511.171	1	-1
512.362	1	-2
513.553	1	1
514.745	1	5
515.936	1	5
517.127	1	3
518.319	1	10
519.510	1	9
520.701	1	1
521.892	1	-4
523.083	1	0
524.274	1	-5
525.465	1	7
526.656	1	19
527.847	1	3
529.038	1	2
530.229	1	5
531.419	1	0
532.610	1	6
533.801	1	0
534.991	1	0
536.182	1	3
537.373	1	0
538.563	1	-3
539.754	1	2
540.944	1	-8
542.134	1	-4
543.325	1	-1
544.515	1	2
545.705	1	6
546.896	1	8
548.086	1	0
549.276	1	-3
550.466	1	3
551.656	1	7
552.846	1	1
554.036	1	2
555.226	1	-7
556.416	1	-6
557.606	1	5
558.796	1	-11
559.986	1	16
561.175	1	-8
562.365	1	6
563.555	1	-5
564.744	1	4
565.934	1	3
567.123	1	4
568.313	1	1
569.502	1	-2
570.692	1	5
571.881	1	-5
573.070	1	1
574.260	1	5
575.449	1	-6
576.638	1	9
577.827	1	-2
579.016	1	9
580.205	1	5
581.394	1	-6
582.583	1	-1
583.772	1	2
584.961	1	-2
586.150	1	6
587.339	1	3
588.528	1	-1
589.717	1	6
590.905	1	10
592.094	1	5
593.283	1	3
594.471	1	0
595.660	1	0
596.848	1	1
598.037	1	7
599.225	1	6
600.413	1	-5
601.602	1	2
602.790	1	6
603.978	1	3
605.166	1	10
606.355	1	11
607.543	1	5
608.731	1	5
609.919	1	-10
611.107	1	-7
612.295	1	1
613.483	1	-4
614.671	1	4
615.858	1	5
617.046	1	0
618.234	1	-7
619.422	1	-8
620.609	1	0
621.797	1	0
622.985	1	1
624.172	1	-7
625.360	1	-4
626.547	1	0
627.735	1	-12
628.922	1	-3
630.109	1	-7
631.297	1	-8
632.484	1	-9
633.671	1	9
634.858	1	9
636.045	1	-1
637.232	1	7
638.419	1	-8
639.606	1	-2
640.793	1	-3
641.980	1	-4
643.167	1	1
644.354	1	10
645.541	1	7
646.728	1	2
647.914	1	3
649.101	1	5
650.288	1	3
651.474	1	2
652.661	1	5
653.847	1	-4
655.034	1	-2
656.220	1	-4
657.406	1	8
658.593	1	3
659.779	1	4
660.965	1	11
662.152	1	-2
663.338	1	7
664.524	1	8
665.710	1	-1
666.896	1	2
668.082	1	3
669.268	1	-7
670.454	1	-2
671.640	1	4
672.826	1	0
674.011	1	4
675.197	1	5
676.383	1	0
677.569	1	-5
678.754	1	6
679.940	1	4
681.125	1	3
682.311	1	6
683.496	1	7
684.682	1	7
685.867	1	11
687.053	1	-6
688.238	1	10
688.746	1	-7