File: Data/GaN_170K_550ms/GaN_sample D_spot 18_UVVIS_170 K_200um_550 ms 2x2mm1_192.txt
340.368	1	0
341.565	1	-1
342.763	1	1
343.960	1	-5
345.157	1	-2
346.354	1	-1
347.552	1	14
348.749	1	-3
349.946	1	5
351.143	1	0
352.340	1	-1
353.537	1	1
354.734	1	13
355.931	1	1
357.127	1	3
358.324	1	3
359.521	1	9
360.718	1	9
361.914	1	10
363.111	1	15
364.308	1	14
365.504	1	17
366.701	1	17
367.897	1	17
369.093	1	18
370.290	1	15
371.486	1	10
372.682	1	28
373.879	1	17
375.075	1	6
376.271	1	19
377.467	1	10
378.663	1	11
379.859	1	15
381.055	1	11
382.251	1	6
383.447	1	12
384.643	1	1
385.839	1	3
387.035	1	5
388.230	1	10
389.426	1	9
390.622	1	-2
391.817	1	8
393.013	1	0
394.208	1	7
395.404	1	10
396.599	1	0
397.795	1	4
398.990	1	-9
400.186	1	-5
401.381	1	9
402.576	1	3
403.771	1	-2
404.967	1	5
406.162	1	7
407.357	1	-3
408.552	1	3
409.747	1	-9
410.942	1	3
412.137	1	0
413.332	1	-6
414.526	1	2
415.721	1	4
416.916	1	-9
418.111	1	5
419.305	1	4
420.500	1	3
421.695	1	-4
422.889	1	-5
424.084	1	21
425.278	1	-7
426.472	1	3
427.667	1	6
428.861	1	6
430.055	1	1
431.250	1	5
432.444	1	7
433.638	1	11
434.832	1	4
436.026	1	4
437.220	1	-4
438.414	1	-7
439.608	1	-2
440.802	1	4
441.996	1	0
443.190	1	-1
444.384	1	12
445.578	1	6
446.771	1	-9
447.965	1	3
449.159	1	-2
450.352	1	-1
451.546	1	-6
452.739	1	-2
453.933	1	3
455.126	1	14
456.320	1	0
457.513	1	8
458.706	1	4
459.899	1	2
461.093	1	13
462.286	1	-3
463.479	1	-13
464.672	1	-12
465.865	1	0
467.058	1	4
468.251	1	5
469.444	1	-4
470.637	1	3
471.830	1	-5
473.023	1	0
474.215	1	-5
475.408	1	1
476.601	1	-1
477.793	1	9
478.986	1	-2
480.179	1	-9
481.371	1	0
482.564	1	-8
483.756	1	-7
484.948	1	-5
486.141	1	2
487.333	1	-3
488.525	1	12
489.718	1	3
490.910	1	2
492.102	1	0
493.294	1	4
494.486	1	9
495.678	1	-3
496.870	1	7
498.062	1	2
499.254	1	5
500.446	1	-2
501.638	1	-4
502.829	1	8
504.021	1	2
505.213	1	5
506.404	1	4
507.596	1	-3
508.788	1	-6
509.979	1	10
511.171	1	2
512.362	1	2
513.553	1	-6
514.745	1	3
515.936	1	-1
517.127	1	8
518.319	1	8
519.510	1	5
520.701	1	-4
521.892	1	2
523.083	1	-2
524.274	1	3
525.465	1	12
526.656	1	-1
527.847	1	4
529.038	1	0
530.229	1	15
531.419	1	5
532.610	1	7
533.801	1	3
534.991	1	5
536.182	1	4
537.373	1	2
538.563	1	-2
539.754	1	-3
540.944	1	-1
542.134	1	3
543.325	1	8
544.515	1	4
545.705	1	14
546.896	1	1
548.086	1	5
549.276	1	8
550.466	1	0
551.656	1	2
552.846	1	7
554.036	1	6
555.226	1	-3
556.416	1	-3
557.606	1	7
558.796	1	6
559.986	1	6
561.175	1	-3
562.365	1	5
563.555	1	-3
564.744	1	-4
565.934	1	5
567.123	1	-3
568.313	1	5
569.502	1	-5
570.692	1	2
571.881	1	-4
573.070	1	8
574.260	1	1
575.449	1	8
576.638	1	4
577.827	1	5
579.016	1	6
580.205	1	1
581.394	1	2
582.583	1	-8
583.772	1	3
584.961	1	3
586.150	1	-3
587.339	1	0
588.528	1	-2
589.717	1	5
590.905	1	16
592.094	1	-2
593.283	1	7
594.471	1	11
595.660	1	-2
596.848	1	4
598.037	1	-8
599.225	1	3
600.413	1	3
601.602	1	4
602.790	1	14
603.978	1	5
605.166	1	5
606.355	1	9
607.543	1	14
608.731	1	8
609.919	1	2
611.107	1	3
612.295	1	2
613.483	1	-6
614.671	1	11
615.858	1	-4
617.046	1	-8
618.234	1	-5
619.422	1	-2
620.609	1	7
621.797	1	8
622.985	1	6
624.172	1	2
625.360	1	1
626.547	1	5
627.735	1	-11
628.922	1	-2
630.109	1	3
631.297	1	-2
632.484	1	5
633.671	1	11
634.858	1	-2
636.045	1	4
637.232	1	3
638.419	1	-3
639.606	1	-5
640.793	1	-11
641.980	1	1
643.167	1	5
644.354	1	6
645.541	1	5
646.728	1	1
647.914	1	5
649.101	1	2
650.288	1	-2
651.474	1	6
652.661	1	6
653.847	1	2
655.034	1	-4
656.220	1	6
657.406	1	-3
658.593	1	2
659.779	1	7
660.965	1	7
662.152	1	6
663.338	1	11
664.524	1	5
665.710	1	7
666.896	1	-1
668.082	1	10
669.268	1	-6
670.454	1	-3
671.640	1	12
672.826	1	2
674.011	1	5
675.197	1	9
676.383	1	4
677.569	1	-2
678.754	1	7
679.940	1	8
681.125	1	7
682.311	1	-8
683.496	1	2
684.682	1	6
685.867	1	9
687.053	1	-9
688.238	1	-5
688.746	1	3