File: Data/GaN_170K_550ms/GaN_sample D_spot 18_UVVIS_170 K_200um_550 ms 2x2mm1_93.txt
340.368	1	-2
341.565	1	-1
342.763	1	2
343.960	1	-3
345.157	1	-3
346.354	1	8
347.552	1	12
348.749	1	9
349.946	1	11
351.143	1	3
352.340	1	8
353.537	1	10
354.734	1	10
355.931	1	7
357.127	1	11
358.324	1	15
359.521	1	26
360.718	1	26
361.914	1	44
363.111	1	53
364.308	1	66
365.504	1	81
366.701	1	87
367.897	1	111
369.093	1	109
370.290	1	100
371.486	1	92
372.682	1	74
373.879	1	70
375.075	1	59
376.271	1	48
377.467	1	45
378.663	1	44
379.859	1	36
381.055	1	37
382.251	1	20
383.447	1	29
384.643	1	14
385.839	1	11
387.035	1	15
388.230	1	9
389.426	1	15
390.622	1	6
391.817	1	17
393.013	1	0
394.208	1	15
395.404	1	18
396.599	1	2
397.795	1	4
398.990	1	-7
400.186	1	4
401.381	1	8
402.576	1	-4
403.771	1	7
404.967	1	4
406.162	1	15
407.357	1	11
408.552	1	6
409.747	1	-3
410.942	1	3
412.137	1	-1
413.332	1	-1
414.526	1	4
415.721	1	4
416.916	1	-4
418.111	1	18
419.305	1	4
420.500	1	-2
421.695	1	-2
422.889	1	4
424.084	1	16
425.278	1	4
426.472	1	-7
427.667	1	13
428.861	1	1
430.055	1	5
431.250	1	16
432.444	1	3
433.638	1	10
434.832	1	11
436.026	1	0
437.220	1	6
438.414	1	-1
439.608	1	0
440.802	1	8
441.996	1	1
443.190	1	1
444.384	1	-3
445.578	1	6
446.771	1	-11
447.965	1	3
449.159	1	-1
450.352	1	2
451.546	1	-6
452.739	1	2
453.933	1	14
455.126	1	16
456.320	1	4
457.513	1	15
458.706	1	11
459.899	1	5
461.093	1	10
462.286	1	5
463.479	1	-4
464.672	1	7
465.865	1	5
467.058	1	0
468.251	1	4
469.444	1	2
470.637	1	11
471.830	1	9
473.023	1	0
474.215	1	8
475.408	1	2
476.601	1	5
477.793	1	2
478.986	1	4
480.179	1	5
481.371	1	6
482.564	1	-4
483.756	1	5
484.948	1	1
486.141	1	18
487.333	1	3
488.525	1	18
489.718	1	11
490.910	1	0
492.102	1	6
493.294	1	8
494.486	1	14
495.678	1	8
496.870	1	5
498.062	1	7
499.254	1	20
500.446	1	9
501.638	1	3
502.829	1	13
504.021	1	22
505.213	1	11
506.404	1	12
507.596	1	8
508.788	1	6
509.979	1	18
511.171	1	16
512.362	1	14
513.553	1	10
514.745	1	0
515.936	1	13
517.127	1	13
518.319	1	22
519.510	1	26
520.701	1	27
521.892	1	20
523.083	1	14
524.274	1	19
525.465	1	15
526.656	1	24
527.847	1	15
529.038	1	15
530.229	1	33
531.419	1	20
532.610	1	20
533.801	1	22
534.991	1	10
536.182	1	18
537.373	1	21
538.563	1	18
539.754	1	9
540.944	1	5
542.134	1	19
543.325	1	14
544.515	1	24
545.705	1	26
546.896	1	17
548.086	1	22
549.276	1	15
550.466	1	9
551.656	1	22
552.846	1	15
554.036	1	19
555.226	1	11
556.416	1	9
557.606	1	16
558.796	1	11
559.986	1	13
561.175	1	-2
562.365	1	19
563.555	1	8
564.744	1	18
565.934	1	15
567.123	1	10
568.313	1	11
569.502	1	9
570.692	1	22
571.881	1	1
573.070	1	6
574.260	1	21
575.449	1	6
576.638	1	9
577.827	1	3
579.016	1	3
580.205	1	11
581.394	1	11
582.583	1	13
583.772	1	9
584.961	1	4
586.150	1	8
587.339	1	-3
588.528	1	4
589.717	1	4
590.905	1	14
592.094	1	14
593.283	1	9
594.471	1	11
595.660	1	6
596.848	1	11
598.037	1	2
599.225	1	6
600.413	1	6
601.602	1	8
602.790	1	18
603.978	1	7
605.166	1	15
606.355	1	8
607.543	1	15
608.731	1	8
609.919	1	-1
611.107	1	-9
612.295	1	4
613.483	1	3
614.671	1	13
615.858	1	1
617.046	1	4
618.234	1	2
619.422	1	1
620.609	1	10
621.797	1	11
622.985	1	3
624.172	1	2
625.360	1	9
626.547	1	-3
627.735	1	0
628.922	1	-2
630.109	1	6
631.297	1	-2
632.484	1	-3
633.671	1	18
634.858	1	1
636.045	1	11
637.232	1	7
638.419	1	-4
639.606	1	-8
640.793	1	2
641.980	1	1
643.167	1	6
644.354	1	10
645.541	1	7
646.728	1	2
647.914	1	4
649.101	1	6
650.288	1	-4
651.474	1	3
652.661	1	10
653.847	1	3
655.034	1	-10
656.220	1	11
657.406	1	6
658.593	1	-7
659.779	1	-2
660.965	1	9
662.152	1	5
663.338	1	11
664.524	1	13
665.710	1	2
666.896	1	4
668.082	1	15
669.268	1	3
670.454	1	4
671.640	1	6
672.826	1	6
674.011	1	3
675.197	1	6
676.383	1	7
677.569	1	0
678.754	1	5
679.940	1	6
681.125	1	8
682.311	1	10
683.496	1	9
684.682	1	14
685.867	1	6
687.053	1	-6
688.238	1	2
688.746	1	-2