File: Data/GaN_170K_550ms/GaN_sample D_spot 18_UVVIS_170 K_200um_550 ms 2x2mm1_122.txt
340.368	1	0
341.565	1	3
342.763	1	7
343.960	1	3
345.157	1	-2
346.354	1	-9
347.552	1	17
348.749	1	9
349.946	1	13
351.143	1	0
352.340	1	10
353.537	1	9
354.734	1	10
355.931	1	11
357.127	1	9
358.324	1	10
359.521	1	12
360.718	1	22
361.914	1	20
363.111	1	34
364.308	1	32
365.504	1	42
366.701	1	56
367.897	1	52
369.093	1	49
370.290	1	49
371.486	1	38
372.682	1	48
373.879	1	41
375.075	1	38
376.271	1	34
377.467	1	31
378.663	1	23
379.859	1	16
381.055	1	19
382.251	1	7
383.447	1	19
384.643	1	2
385.839	1	6
387.035	1	6
388.230	1	3
389.426	1	6
390.622	1	12
391.817	1	4
393.013	1	8
394.208	1	4
395.404	1	8
396.599	1	-11
397.795	1	5
398.990	1	-11
400.186	1	5
401.381	1	13
402.576	1	3
403.771	1	0
404.967	1	4
406.162	1	9
407.357	1	-6
408.552	1	3
409.747	1	4
410.942	1	5
412.137	1	0
413.332	1	3
414.526	1	5
415.721	1	1
416.916	1	-7
418.111	1	7
419.305	1	4
420.500	1	4
421.695	1	-1
422.889	1	-7
424.084	1	15
425.278	1	-7
426.472	1	6
427.667	1	4
428.861	1	7
430.055	1	1
431.250	1	8
432.444	1	1
433.638	1	7
434.832	1	5
436.026	1	3
437.220	1	0
438.414	1	-5
439.608	1	3
440.802	1	6
441.996	1	8
443.190	1	4
444.384	1	8
445.578	1	2
446.771	1	-8
447.965	1	4
449.159	1	-1
450.352	1	-5
451.546	1	-6
452.739	1	5
453.933	1	-4
455.126	1	7
456.320	1	-6
457.513	1	14
458.706	1	6
459.899	1	1
461.093	1	13
462.286	1	-3
463.479	1	1
464.672	1	-4
465.865	1	4
467.058	1	9
468.251	1	2
469.444	1	4
470.637	1	10
471.830	1	-5
473.023	1	6
474.215	1	-8
475.408	1	-1
476.601	1	3
477.793	1	3
478.986	1	-8
480.179	1	7
481.371	1	5
482.564	1	-8
483.756	1	7
484.948	1	2
486.141	1	17
487.333	1	3
488.525	1	9
489.718	1	13
490.910	1	6
492.102	1	1
493.294	1	1
494.486	1	12
495.678	1	7
496.870	1	7
498.062	1	5
499.254	1	19
500.446	1	8
501.638	1	-2
502.829	1	9
504.021	1	17
505.213	1	0
506.404	1	10
507.596	1	8
508.788	1	-1
509.979	1	5
511.171	1	12
512.362	1	6
513.553	1	7
514.745	1	12
515.936	1	7
517.127	1	13
518.319	1	13
519.510	1	11
520.701	1	8
521.892	1	11
523.083	1	2
524.274	1	-1
525.465	1	17
526.656	1	7
527.847	1	13
529.038	1	7
530.229	1	22
531.419	1	13
532.610	1	4
533.801	1	11
534.991	1	3
536.182	1	10
537.373	1	11
538.563	1	5
539.754	1	6
540.944	1	9
542.134	1	9
543.325	1	13
544.515	1	12
545.705	1	11
546.896	1	1
548.086	1	10
549.276	1	12
550.466	1	4
551.656	1	9
552.846	1	7
554.036	1	16
555.226	1	2
556.416	1	8
557.606	1	13
558.796	1	3
559.986	1	7
561.175	1	0
562.365	1	7
563.555	1	6
564.744	1	8
565.934	1	10
567.123	1	9
568.313	1	-1
569.502	1	11
570.692	1	16
571.881	1	-1
573.070	1	10
574.260	1	12
575.449	1	9
576.638	1	12
577.827	1	2
579.016	1	10
580.205	1	8
581.394	1	3
582.583	1	10
583.772	1	1
584.961	1	-2
586.150	1	-6
587.339	1	3
588.528	1	8
589.717	1	7
590.905	1	6
592.094	1	4
593.283	1	11
594.471	1	13
595.660	1	5
596.848	1	13
598.037	1	4
599.225	1	13
600.413	1	-6
601.602	1	2
602.790	1	11
603.978	1	10
605.166	1	17
606.355	1	9
607.543	1	10
608.731	1	4
609.919	1	2
611.107	1	-3
612.295	1	2
613.483	1	0
614.671	1	13
615.858	1	-2
617.046	1	4
618.234	1	7
619.422	1	-7
620.609	1	5
621.797	1	-2
622.985	1	8
624.172	1	6
625.360	1	-1
626.547	1	4
627.735	1	-5
628.922	1	-7
630.109	1	0
631.297	1	-8
632.484	1	-4
633.671	1	4
634.858	1	11
636.045	1	13
637.232	1	1
638.419	1	-8
639.606	1	-4
640.793	1	-2
641.980	1	-8
643.167	1	1
644.354	1	1
645.541	1	5
646.728	1	11
647.914	1	5
649.101	1	1
650.288	1	-3
651.474	1	9
652.661	1	2
653.847	1	5
655.034	1	10
656.220	1	0
657.406	1	1
658.593	1	4
659.779	1	4
660.965	1	7
662.152	1	0
663.338	1	3
664.524	1	2
665.710	1	10
666.896	1	-2
668.082	1	5
669.268	1	0
670.454	1	-4
671.640	1	7
672.826	1	3
674.011	1	6
675.197	1	6
676.383	1	-3
677.569	1	-2
678.754	1	7
679.940	1	10
681.125	1	1
682.311	1	4
683.496	1	5
684.682	1	9
685.867	1	12
687.053	1	-5
688.238	1	-2
688.746	1	-1