File: Data/GaN_170K_550ms/GaN_sample D_spot 18_UVVIS_170 K_200um_550 ms 2x2mm1_154.txt
340.368	1	-5
341.565	1	1
342.763	1	-3
343.960	1	-2
345.157	1	3
346.354	1	-1
347.552	1	8
348.749	1	3
349.946	1	20
351.143	1	2
352.340	1	5
353.537	1	11
354.734	1	5
355.931	1	1
357.127	1	15
358.324	1	4
359.521	1	11
360.718	1	5
361.914	1	12
363.111	1	24
364.308	1	21
365.504	1	23
366.701	1	40
367.897	1	32
369.093	1	25
370.290	1	31
371.486	1	21
372.682	1	30
373.879	1	23
375.075	1	23
376.271	1	15
377.467	1	2
378.663	1	9
379.859	1	8
381.055	1	4
382.251	1	13
383.447	1	22
384.643	1	12
385.839	1	4
387.035	1	11
388.230	1	-3
389.426	1	6
390.622	1	-7
391.817	1	1
393.013	1	2
394.208	1	7
395.404	1	6
396.599	1	-3
397.795	1	0
398.990	1	1
400.186	1	1
401.381	1	15
402.576	1	3
403.771	1	6
404.967	1	7
406.162	1	0
407.357	1	7
408.552	1	0
409.747	1	-2
410.942	1	-4
412.137	1	3
413.332	1	-5
414.526	1	2
415.721	1	-1
416.916	1	-4
418.111	1	10
419.305	1	-1
420.500	1	1
421.695	1	-7
422.889	1	0
424.084	1	16
425.278	1	2
426.472	1	5
427.667	1	8
428.861	1	3
430.055	1	1
431.250	1	12
432.444	1	5
433.638	1	16
434.832	1	12
436.026	1	-1
437.220	1	6
438.414	1	-2
439.608	1	-4
440.802	1	6
441.996	1	3
443.190	1	6
444.384	1	-2
445.578	1	14
446.771	1	-8
447.965	1	8
449.159	1	6
450.352	1	-1
451.546	1	-14
452.739	1	9
453.933	1	16
455.126	1	17
456.320	1	8
457.513	1	16
458.706	1	10
459.899	1	6
461.093	1	3
462.286	1	-11
463.479	1	-3
464.672	1	-1
465.865	1	-5
467.058	1	1
468.251	1	1
469.444	1	3
470.637	1	6
471.830	1	-1
473.023	1	10
474.215	1	8
475.408	1	1
476.601	1	7
477.793	1	10
478.986	1	3
480.179	1	-10
481.371	1	4
482.564	1	4
483.756	1	1
484.948	1	9
486.141	1	6
487.333	1	-7
488.525	1	11
489.718	1	12
490.910	1	5
492.102	1	4
493.294	1	2
494.486	1	9
495.678	1	12
496.870	1	4
498.062	1	-2
499.254	1	6
500.446	1	4
501.638	1	-1
502.829	1	8
504.021	1	8
505.213	1	-11
506.404	1	3
507.596	1	11
508.788	1	-3
509.979	1	10
511.171	1	11
512.362	1	-1
513.553	1	7
514.745	1	12
515.936	1	7
517.127	1	1
518.319	1	6
519.510	1	7
520.701	1	11
521.892	1	6
523.083	1	2
524.274	1	9
525.465	1	9
526.656	1	14
527.847	1	10
529.038	1	3
530.229	1	12
531.419	1	17
532.610	1	8
533.801	1	7
534.991	1	0
536.182	1	0
537.373	1	-1
538.563	1	5
539.754	1	10
540.944	1	2
542.134	1	2
543.325	1	6
544.515	1	6
545.705	1	5
546.896	1	9
548.086	1	10
549.276	1	4
550.466	1	-1
551.656	1	18
552.846	1	0
554.036	1	6
555.226	1	6
556.416	1	5
557.606	1	-2
558.796	1	7
559.986	1	4
561.175	1	-8
562.365	1	9
563.555	1	0
564.744	1	-2
565.934	1	4
567.123	1	0
568.313	1	-1
569.502	1	3
570.692	1	0
571.881	1	1
573.070	1	6
574.260	1	8
575.449	1	7
576.638	1	10
577.827	1	5
579.016	1	4
580.205	1	2
581.394	1	2
582.583	1	4
583.772	1	-3
584.961	1	1
586.150	1	-5
587.339	1	-2
588.528	1	0
589.717	1	5
590.905	1	9
592.094	1	5
593.283	1	3
594.471	1	13
595.660	1	0
596.848	1	2
598.037	1	5
599.225	1	8
600.413	1	-3
601.602	1	5
602.790	1	14
603.978	1	16
605.166	1	10
606.355	1	2
607.543	1	8
608.731	1	2
609.919	1	-4
611.107	1	1
612.295	1	6
613.483	1	-4
614.671	1	14
615.858	1	-5
617.046	1	-8
618.234	1	-1
619.422	1	-5
620.609	1	1
621.797	1	-1
622.985	1	0
624.172	1	1
625.360	1	3
626.547	1	2
627.735	1	-5
628.922	1	-7
630.109	1	-2
631.297	1	-4
632.484	1	2
633.671	1	7
634.858	1	6
636.045	1	9
637.232	1	4
638.419	1	-10
639.606	1	-6
640.793	1	-6
641.980	1	-3
643.167	1	-2
644.354	1	4
645.541	1	2
646.728	1	12
647.914	1	-2
649.101	1	-4
650.288	1	1
651.474	1	11
652.661	1	2
653.847	1	7
655.034	1	3
656.220	1	6
657.406	1	3
658.593	1	2
659.779	1	-1
660.965	1	12
662.152	1	-1
663.338	1	8
664.524	1	4
665.710	1	0
666.896	1	1
668.082	1	9
669.268	1	-1
670.454	1	-3
671.640	1	1
672.826	1	2
674.011	1	8
675.197	1	8
676.383	1	1
677.569	1	-5
678.754	1	8
679.940	1	5
681.125	1	6
682.311	1	3
683.496	1	4
684.682	1	5
685.867	1	5
687.053	1	-7
688.238	1	-4
688.746	1	-2