File: Data/GaN_170K_550ms/GaN_sample D_spot 18_UVVIS_170 K_200um_550 ms 2x2mm1_157.txt
340.368	1	2
341.565	1	9
342.763	1	-2
343.960	1	-5
345.157	1	-6
346.354	1	-8
347.552	1	-4
348.749	1	1
349.946	1	13
351.143	1	-3
352.340	1	7
353.537	1	-1
354.734	1	12
355.931	1	6
357.127	1	1
358.324	1	9
359.521	1	10
360.718	1	15
361.914	1	16
363.111	1	28
364.308	1	6
365.504	1	19
366.701	1	24
367.897	1	43
369.093	1	25
370.290	1	23
371.486	1	31
372.682	1	19
373.879	1	23
375.075	1	16
376.271	1	17
377.467	1	19
378.663	1	14
379.859	1	14
381.055	1	7
382.251	1	11
383.447	1	7
384.643	1	5
385.839	1	1
387.035	1	4
388.230	1	10
389.426	1	0
390.622	1	2
391.817	1	9
393.013	1	3
394.208	1	5
395.404	1	2
396.599	1	-2
397.795	1	-1
398.990	1	-9
400.186	1	4
401.381	1	13
402.576	1	0
403.771	1	7
404.967	1	5
406.162	1	6
407.357	1	-2
408.552	1	1
409.747	1	-2
410.942	1	3
412.137	1	-8
413.332	1	0
414.526	1	2
415.721	1	4
416.916	1	3
418.111	1	6
419.305	1	1
420.500	1	-9
421.695	1	-6
422.889	1	-6
424.084	1	19
425.278	1	2
426.472	1	1
427.667	1	2
428.861	1	4
430.055	1	5
431.250	1	7
432.444	1	1
433.638	1	14
434.832	1	1
436.026	1	-2
437.220	1	-3
438.414	1	-12
439.608	1	0
440.802	1	7
441.996	1	-1
443.190	1	1
444.384	1	5
445.578	1	4
446.771	1	-8
447.965	1	4
449.159	1	1
450.352	1	0
451.546	1	-6
452.739	1	-1
453.933	1	-9
455.126	1	11
456.320	1	-1
457.513	1	17
458.706	1	10
459.899	1	10
461.093	1	4
462.286	1	-3
463.479	1	0
464.672	1	3
465.865	1	10
467.058	1	5
468.251	1	4
469.444	1	-6
470.637	1	-5
471.830	1	-3
473.023	1	6
474.215	1	10
475.408	1	-5
476.601	1	-2
477.793	1	8
478.986	1	4
480.179	1	-2
481.371	1	4
482.564	1	-4
483.756	1	6
484.948	1	-1
486.141	1	17
487.333	1	-10
488.525	1	10
489.718	1	1
490.910	1	-5
492.102	1	4
493.294	1	2
494.486	1	11
495.678	1	9
496.870	1	2
498.062	1	-1
499.254	1	5
500.446	1	2
501.638	1	-5
502.829	1	2
504.021	1	8
505.213	1	2
506.404	1	-2
507.596	1	11
508.788	1	-5
509.979	1	6
511.171	1	12
512.362	1	-1
513.553	1	-2
514.745	1	6
515.936	1	6
517.127	1	11
518.319	1	13
519.510	1	1
520.701	1	15
521.892	1	0
523.083	1	3
524.274	1	5
525.465	1	9
526.656	1	15
527.847	1	5
529.038	1	3
530.229	1	13
531.419	1	14
532.610	1	8
533.801	1	8
534.991	1	-2
536.182	1	13
537.373	1	-3
538.563	1	0
539.754	1	1
540.944	1	-9
542.134	1	1
543.325	1	14
544.515	1	2
545.705	1	2
546.896	1	12
548.086	1	6
549.276	1	3
550.466	1	0
551.656	1	10
552.846	1	4
554.036	1	2
555.226	1	2
556.416	1	3
557.606	1	3
558.796	1	-4
559.986	1	6
561.175	1	-4
562.365	1	3
563.555	1	5
564.744	1	-4
565.934	1	9
567.123	1	3
568.313	1	-6
569.502	1	-2
570.692	1	9
571.881	1	6
573.070	1	-1
574.260	1	6
575.449	1	0
576.638	1	9
577.827	1	-6
579.016	1	6
580.205	1	-11
581.394	1	7
582.583	1	1
583.772	1	-1
584.961	1	-1
586.150	1	2
587.339	1	-3
588.528	1	3
589.717	1	6
590.905	1	7
592.094	1	9
593.283	1	11
594.471	1	5
595.660	1	2
596.848	1	1
598.037	1	2
599.225	1	2
600.413	1	0
601.602	1	7
602.790	1	6
603.978	1	13
605.166	1	11
606.355	1	6
607.543	1	9
608.731	1	3
609.919	1	-1
611.107	1	-7
612.295	1	2
613.483	1	0
614.671	1	7
615.858	1	0
617.046	1	-2
618.234	1	-2
619.422	1	-7
620.609	1	14
621.797	1	2
622.985	1	5
624.172	1	1
625.360	1	9
626.547	1	2
627.735	1	-3
628.922	1	-3
630.109	1	-3
631.297	1	-5
632.484	1	-1
633.671	1	1
634.858	1	6
636.045	1	9
637.232	1	10
638.419	1	-6
639.606	1	-6
640.793	1	-1
641.980	1	-7
643.167	1	0
644.354	1	7
645.541	1	8
646.728	1	7
647.914	1	3
649.101	1	-1
650.288	1	3
651.474	1	12
652.661	1	2
653.847	1	7
655.034	1	1
656.220	1	6
657.406	1	3
658.593	1	-1
659.779	1	-2
660.965	1	14
662.152	1	9
663.338	1	11
664.524	1	6
665.710	1	7
666.896	1	1
668.082	1	9
669.268	1	-4
670.454	1	3
671.640	1	10
672.826	1	-1
674.011	1	6
675.197	1	6
676.383	1	-5
677.569	1	-3
678.754	1	2
679.940	1	9
681.125	1	5
682.311	1	5
683.496	1	5
684.682	1	-2
685.867	1	9
687.053	1	-3
688.238	1	-6
688.746	1	8