File: Data/GaN_170K_550ms/GaN_sample D_spot 18_UVVIS_170 K_200um_550 ms 2x2mm1_201.txt
340.368	1	-1
341.565	1	3
342.763	1	8
343.960	1	2
345.157	1	-8
346.354	1	-2
347.552	1	8
348.749	1	9
349.946	1	14
351.143	1	-2
352.340	1	10
353.537	1	7
354.734	1	2
355.931	1	3
357.127	1	3
358.324	1	12
359.521	1	9
360.718	1	1
361.914	1	10
363.111	1	19
364.308	1	9
365.504	1	10
366.701	1	10
367.897	1	21
369.093	1	14
370.290	1	10
371.486	1	17
372.682	1	26
373.879	1	4
375.075	1	17
376.271	1	17
377.467	1	15
378.663	1	4
379.859	1	10
381.055	1	9
382.251	1	12
383.447	1	14
384.643	1	2
385.839	1	0
387.035	1	6
388.230	1	5
389.426	1	9
390.622	1	7
391.817	1	1
393.013	1	2
394.208	1	8
395.404	1	5
396.599	1	-9
397.795	1	-1
398.990	1	-7
400.186	1	4
401.381	1	10
402.576	1	-9
403.771	1	-5
404.967	1	10
406.162	1	5
407.357	1	3
408.552	1	-9
409.747	1	2
410.942	1	4
412.137	1	-2
413.332	1	1
414.526	1	4
415.721	1	-7
416.916	1	-3
418.111	1	1
419.305	1	-3
420.500	1	-1
421.695	1	-11
422.889	1	0
424.084	1	17
425.278	1	-2
426.472	1	-4
427.667	1	5
428.861	1	5
430.055	1	3
431.250	1	14
432.444	1	2
433.638	1	12
434.832	1	2
436.026	1	3
437.220	1	3
438.414	1	-3
439.608	1	-5
440.802	1	11
441.996	1	-5
443.190	1	-6
444.384	1	-2
445.578	1	-4
446.771	1	-11
447.965	1	-2
449.159	1	2
450.352	1	-11
451.546	1	-9
452.739	1	-3
453.933	1	6
455.126	1	7
456.320	1	7
457.513	1	11
458.706	1	-1
459.899	1	2
461.093	1	8
462.286	1	-11
463.479	1	3
464.672	1	-2
465.865	1	10
467.058	1	2
468.251	1	-9
469.444	1	3
470.637	1	1
471.830	1	4
473.023	1	4
474.215	1	1
475.408	1	-8
476.601	1	-3
477.793	1	4
478.986	1	-5
480.179	1	-8
481.371	1	0
482.564	1	1
483.756	1	5
484.948	1	-1
486.141	1	4
487.333	1	-1
488.525	1	7
489.718	1	8
490.910	1	11
492.102	1	1
493.294	1	-1
494.486	1	11
495.678	1	0
496.870	1	-2
498.062	1	5
499.254	1	4
500.446	1	3
501.638	1	-2
502.829	1	-3
504.021	1	1
505.213	1	-6
506.404	1	1
507.596	1	2
508.788	1	-8
509.979	1	6
511.171	1	4
512.362	1	-1
513.553	1	6
514.745	1	7
515.936	1	1
517.127	1	11
518.319	1	12
519.510	1	4
520.701	1	7
521.892	1	8
523.083	1	2
524.274	1	4
525.465	1	2
526.656	1	9
527.847	1	3
529.038	1	0
530.229	1	16
531.419	1	9
532.610	1	-1
533.801	1	10
534.991	1	3
536.182	1	2
537.373	1	2
538.563	1	1
539.754	1	5
540.944	1	2
542.134	1	-3
543.325	1	3
544.515	1	4
545.705	1	8
546.896	1	4
548.086	1	1
549.276	1	7
550.466	1	12
551.656	1	10
552.846	1	0
554.036	1	9
555.226	1	-7
556.416	1	2
557.606	1	5
558.796	1	-1
559.986	1	5
561.175	1	-3
562.365	1	4
563.555	1	1
564.744	1	5
565.934	1	3
567.123	1	-6
568.313	1	-1
569.502	1	6
570.692	1	6
571.881	1	0
573.070	1	-4
574.260	1	12
575.449	1	3
576.638	1	9
577.827	1	-9
579.016	1	10
580.205	1	0
581.394	1	5
582.583	1	-6
583.772	1	0
584.961	1	2
586.150	1	1
587.339	1	2
588.528	1	4
589.717	1	7
590.905	1	6
592.094	1	5
593.283	1	4
594.471	1	9
595.660	1	4
596.848	1	-2
598.037	1	-2
599.225	1	9
600.413	1	-4
601.602	1	-4
602.790	1	11
603.978	1	8
605.166	1	10
606.355	1	4
607.543	1	7
608.731	1	8
609.919	1	-5
611.107	1	0
612.295	1	0
613.483	1	-5
614.671	1	9
615.858	1	0
617.046	1	-5
618.234	1	-1
619.422	1	-13
620.609	1	8
621.797	1	10
622.985	1	-4
624.172	1	6
625.360	1	7
626.547	1	-5
627.735	1	-6
628.922	1	-6
630.109	1	5
631.297	1	-3
632.484	1	-3
633.671	1	12
634.858	1	-2
636.045	1	6
637.232	1	1
638.419	1	-1
639.606	1	-8
640.793	1	1
641.980	1	2
643.167	1	1
644.354	1	1
645.541	1	2
646.728	1	-1
647.914	1	0
649.101	1	8
650.288	1	-3
651.474	1	11
652.661	1	-3
653.847	1	4
655.034	1	0
656.220	1	3
657.406	1	5
658.593	1	5
659.779	1	2
660.965	1	4
662.152	1	10
663.338	1	0
664.524	1	7
665.710	1	6
666.896	1	1
668.082	1	8
669.268	1	0
670.454	1	-8
671.640	1	3
672.826	1	2
674.011	1	12
675.197	1	5
676.383	1	-4
677.569	1	-2
678.754	1	-5
679.940	1	10
681.125	1	4
682.311	1	5
683.496	1	-1
684.682	1	7
685.867	1	8
687.053	1	-5
688.238	1	-2
688.746	1	-9