File: Data/GaN_170K_550ms/GaN_sample D_spot 18_UVVIS_170 K_200um_550 ms 2x2mm1_80.txt
340.368	1	3
341.565	1	7
342.763	1	3
343.960	1	5
345.157	1	-3
346.354	1	1
347.552	1	9
348.749	1	8
349.946	1	13
351.143	1	11
352.340	1	13
353.537	1	8
354.734	1	18
355.931	1	8
357.127	1	13
358.324	1	17
359.521	1	31
360.718	1	37
361.914	1	50
363.111	1	79
364.308	1	85
365.504	1	119
366.701	1	147
367.897	1	177
369.093	1	188
370.290	1	172
371.486	1	145
372.682	1	127
373.879	1	98
375.075	1	91
376.271	1	70
377.467	1	65
378.663	1	58
379.859	1	43
381.055	1	45
382.251	1	39
383.447	1	42
384.643	1	31
385.839	1	16
387.035	1	28
388.230	1	12
389.426	1	24
390.622	1	6
391.817	1	23
393.013	1	7
394.208	1	17
395.404	1	14
396.599	1	1
397.795	1	7
398.990	1	0
400.186	1	1
401.381	1	12
402.576	1	2
403.771	1	2
404.967	1	14
406.162	1	-3
407.357	1	6
408.552	1	5
409.747	1	3
410.942	1	9
412.137	1	-6
413.332	1	3
414.526	1	15
415.721	1	-1
416.916	1	2
418.111	1	13
419.305	1	10
420.500	1	4
421.695	1	0
422.889	1	-2
424.084	1	28
425.278	1	9
426.472	1	3
427.667	1	0
428.861	1	9
430.055	1	6
431.250	1	19
432.444	1	9
433.638	1	8
434.832	1	8
436.026	1	3
437.220	1	1
438.414	1	-2
439.608	1	0
440.802	1	7
441.996	1	6
443.190	1	5
444.384	1	-6
445.578	1	7
446.771	1	-4
447.965	1	8
449.159	1	-6
450.352	1	4
451.546	1	-5
452.739	1	7
453.933	1	5
455.126	1	15
456.320	1	-3
457.513	1	12
458.706	1	5
459.899	1	1
461.093	1	13
462.286	1	-4
463.479	1	-2
464.672	1	2
465.865	1	13
467.058	1	6
468.251	1	9
469.444	1	6
470.637	1	10
471.830	1	12
473.023	1	13
474.215	1	7
475.408	1	0
476.601	1	10
477.793	1	12
478.986	1	1
480.179	1	4
481.371	1	3
482.564	1	8
483.756	1	-1
484.948	1	8
486.141	1	17
487.333	1	-3
488.525	1	19
489.718	1	16
490.910	1	4
492.102	1	4
493.294	1	5
494.486	1	12
495.678	1	11
496.870	1	19
498.062	1	12
499.254	1	20
500.446	1	11
501.638	1	10
502.829	1	20
504.021	1	18
505.213	1	11
506.404	1	20
507.596	1	28
508.788	1	16
509.979	1	32
511.171	1	29
512.362	1	27
513.553	1	26
514.745	1	26
515.936	1	19
517.127	1	26
518.319	1	30
519.510	1	34
520.701	1	40
521.892	1	26
523.083	1	24
524.274	1	30
525.465	1	22
526.656	1	39
527.847	1	33
529.038	1	24
530.229	1	44
531.419	1	40
532.610	1	34
533.801	1	25
534.991	1	25
536.182	1	25
537.373	1	21
538.563	1	30
539.754	1	27
540.944	1	17
542.134	1	34
543.325	1	25
544.515	1	27
545.705	1	28
546.896	1	27
548.086	1	31
549.276	1	28
550.466	1	37
551.656	1	24
552.846	1	12
554.036	1	28
555.226	1	8
556.416	1	18
557.606	1	24
558.796	1	14
559.986	1	24
561.175	1	10
562.365	1	13
563.555	1	18
564.744	1	14
565.934	1	19
567.123	1	14
568.313	1	10
569.502	1	13
570.692	1	26
571.881	1	10
573.070	1	8
574.260	1	15
575.449	1	13
576.638	1	19
577.827	1	11
579.016	1	17
580.205	1	4
581.394	1	13
582.583	1	16
583.772	1	12
584.961	1	8
586.150	1	5
587.339	1	12
588.528	1	12
589.717	1	16
590.905	1	14
592.094	1	15
593.283	1	8
594.471	1	12
595.660	1	10
596.848	1	1
598.037	1	-3
599.225	1	12
600.413	1	6
601.602	1	3
602.790	1	9
603.978	1	12
605.166	1	10
606.355	1	14
607.543	1	15
608.731	1	1
609.919	1	10
611.107	1	2
612.295	1	5
613.483	1	5
614.671	1	11
615.858	1	2
617.046	1	7
618.234	1	9
619.422	1	-1
620.609	1	11
621.797	1	10
622.985	1	9
624.172	1	0
625.360	1	10
626.547	1	0
627.735	1	3
628.922	1	-6
630.109	1	2
631.297	1	3
632.484	1	-2
633.671	1	12
634.858	1	15
636.045	1	10
637.232	1	9
638.419	1	5
639.606	1	4
640.793	1	4
641.980	1	-4
643.167	1	0
644.354	1	13
645.541	1	9
646.728	1	8
647.914	1	1
649.101	1	-1
650.288	1	0
651.474	1	17
652.661	1	12
653.847	1	3
655.034	1	8
656.220	1	4
657.406	1	6
658.593	1	10
659.779	1	9
660.965	1	12
662.152	1	8
663.338	1	11
664.524	1	11
665.710	1	0
666.896	1	5
668.082	1	14
669.268	1	3
670.454	1	0
671.640	1	8
672.826	1	4
674.011	1	6
675.197	1	9
676.383	1	4
677.569	1	3
678.754	1	9
679.940	1	12
681.125	1	12
682.311	1	2
683.496	1	9
684.682	1	10
685.867	1	13
687.053	1	1
688.238	1	3
688.746	1	3