File: Data/GaN_170K_550ms/GaN_sample D_spot 18_UVVIS_170 K_200um_550 ms 2x2mm1_348.txt
340.368	1	0
341.565	1	3
342.763	1	2
343.960	1	-4
345.157	1	8
346.354	1	-7
347.552	1	4
348.749	1	2
349.946	1	11
351.143	1	-6
352.340	1	0
353.537	1	-1
354.734	1	4
355.931	1	-7
357.127	1	5
358.324	1	5
359.521	1	4
360.718	1	3
361.914	1	0
363.111	1	17
364.308	1	4
365.504	1	-2
366.701	1	1
367.897	1	1
369.093	1	-4
370.290	1	12
371.486	1	-2
372.682	1	8
373.879	1	2
375.075	1	0
376.271	1	14
377.467	1	-3
378.663	1	1
379.859	1	0
381.055	1	-3
382.251	1	-1
383.447	1	12
384.643	1	0
385.839	1	-6
387.035	1	1
388.230	1	2
389.426	1	5
390.622	1	-2
391.817	1	4
393.013	1	0
394.208	1	6
395.404	1	5
396.599	1	-5
397.795	1	-1
398.990	1	-12
400.186	1	-6
401.381	1	6
402.576	1	0
403.771	1	1
404.967	1	-1
406.162	1	3
407.357	1	-6
408.552	1	3
409.747	1	-5
410.942	1	1
412.137	1	-3
413.332	1	2
414.526	1	3
415.721	1	-10
416.916	1	-10
418.111	1	1
419.305	1	-3
420.500	1	0
421.695	1	-1
422.889	1	-11
424.084	1	16
425.278	1	-2
426.472	1	1
427.667	1	-3
428.861	1	4
430.055	1	1
431.250	1	8
432.444	1	2
433.638	1	3
434.832	1	1
436.026	1	5
437.220	1	-5
438.414	1	-9
439.608	1	-1
440.802	1	9
441.996	1	2
443.190	1	-4
444.384	1	4
445.578	1	-3
446.771	1	-2
447.965	1	2
449.159	1	2
450.352	1	-7
451.546	1	-12
452.739	1	1
453.933	1	-4
455.126	1	6
456.320	1	0
457.513	1	8
458.706	1	11
459.899	1	-1
461.093	1	5
462.286	1	-6
463.479	1	-5
464.672	1	-9
465.865	1	-4
467.058	1	-3
468.251	1	1
469.444	1	2
470.637	1	-2
471.830	1	2
473.023	1	9
474.215	1	6
475.408	1	-3
476.601	1	-5
477.793	1	9
478.986	1	-3
480.179	1	0
481.371	1	-2
482.564	1	-4
483.756	1	-6
484.948	1	-3
486.141	1	12
487.333	1	-6
488.525	1	9
489.718	1	5
490.910	1	2
492.102	1	1
493.294	1	3
494.486	1	13
495.678	1	3
496.870	1	0
498.062	1	-2
499.254	1	7
500.446	1	-2
501.638	1	-5
502.829	1	-7
504.021	1	4
505.213	1	-5
506.404	1	-2
507.596	1	2
508.788	1	-2
509.979	1	9
511.171	1	2
512.362	1	-1
513.553	1	6
514.745	1	-1
515.936	1	1
517.127	1	2
518.319	1	2
519.510	1	4
520.701	1	9
521.892	1	9
523.083	1	3
524.274	1	-4
525.465	1	9
526.656	1	4
527.847	1	-4
529.038	1	-8
530.229	1	11
531.419	1	9
532.610	1	9
533.801	1	6
534.991	1	6
536.182	1	4
537.373	1	-7
538.563	1	-8
539.754	1	-8
540.944	1	5
542.134	1	-4
543.325	1	-1
544.515	1	2
545.705	1	9
546.896	1	4
548.086	1	4
549.276	1	-5
550.466	1	3
551.656	1	-4
552.846	1	3
554.036	1	-2
555.226	1	-5
556.416	1	-2
557.606	1	0
558.796	1	0
559.986	1	-6
561.175	1	-8
562.365	1	7
563.555	1	3
564.744	1	5
565.934	1	11
567.123	1	-4
568.313	1	-1
569.502	1	1
570.692	1	14
571.881	1	-3
573.070	1	-7
574.260	1	4
575.449	1	6
576.638	1	6
577.827	1	-4
579.016	1	1
580.205	1	1
581.394	1	-3
582.583	1	-5
583.772	1	-6
584.961	1	-2
586.150	1	-7
587.339	1	-6
588.528	1	7
589.717	1	10
590.905	1	6
592.094	1	5
593.283	1	2
594.471	1	6
595.660	1	2
596.848	1	9
598.037	1	4
599.225	1	8
600.413	1	-3
601.602	1	-2
602.790	1	4
603.978	1	4
605.166	1	-5
606.355	1	12
607.543	1	13
608.731	1	-9
609.919	1	-5
611.107	1	-7
612.295	1	-6
613.483	1	-8
614.671	1	12
615.858	1	-4
617.046	1	-2
618.234	1	7
619.422	1	-3
620.609	1	3
621.797	1	-9
622.985	1	3
624.172	1	1
625.360	1	0
626.547	1	-7
627.735	1	-12
628.922	1	-9
630.109	1	-1
631.297	1	2
632.484	1	-3
633.671	1	5
634.858	1	2
636.045	1	2
637.232	1	-1
638.419	1	-11
639.606	1	-6
640.793	1	-5
641.980	1	-7
643.167	1	-9
644.354	1	-1
645.541	1	0
646.728	1	-8
647.914	1	0
649.101	1	1
650.288	1	-6
651.474	1	8
652.661	1	3
653.847	1	-3
655.034	1	-9
656.220	1	0
657.406	1	0
658.593	1	-5
659.779	1	-4
660.965	1	13
662.152	1	5
663.338	1	6
664.524	1	-4
665.710	1	7
666.896	1	3
668.082	1	8
669.268	1	-3
670.454	1	-11
671.640	1	4
672.826	1	-2
674.011	1	-5
675.197	1	7
676.383	1	1
677.569	1	-6
678.754	1	3
679.940	1	2
681.125	1	8
682.311	1	5
683.496	1	-3
684.682	1	-1
685.867	1	5
687.053	1	-6
688.238	1	-6
688.746	1	-7