File: Data/GaN_170K_550ms/GaN_sample D_spot 18_UVVIS_170 K_200um_550 ms 2x2mm1_112.txt
340.368	1	2
341.565	1	2
342.763	1	3
343.960	1	4
345.157	1	-6
346.354	1	-10
347.552	1	10
348.749	1	10
349.946	1	9
351.143	1	6
352.340	1	4
353.537	1	7
354.734	1	5
355.931	1	16
357.127	1	4
358.324	1	14
359.521	1	12
360.718	1	20
361.914	1	32
363.111	1	37
364.308	1	41
365.504	1	53
366.701	1	53
367.897	1	68
369.093	1	58
370.290	1	61
371.486	1	46
372.682	1	61
373.879	1	37
375.075	1	45
376.271	1	33
377.467	1	27
378.663	1	25
379.859	1	25
381.055	1	13
382.251	1	18
383.447	1	20
384.643	1	10
385.839	1	4
387.035	1	12
388.230	1	7
389.426	1	5
390.622	1	2
391.817	1	10
393.013	1	8
394.208	1	20
395.404	1	11
396.599	1	7
397.795	1	2
398.990	1	2
400.186	1	2
401.381	1	9
402.576	1	2
403.771	1	3
404.967	1	1
406.162	1	9
407.357	1	-4
408.552	1	0
409.747	1	9
410.942	1	3
412.137	1	-6
413.332	1	0
414.526	1	5
415.721	1	4
416.916	1	-11
418.111	1	7
419.305	1	3
420.500	1	3
421.695	1	-3
422.889	1	6
424.084	1	14
425.278	1	8
426.472	1	9
427.667	1	2
428.861	1	12
430.055	1	0
431.250	1	13
432.444	1	10
433.638	1	10
434.832	1	6
436.026	1	-4
437.220	1	1
438.414	1	-4
439.608	1	6
440.802	1	4
441.996	1	7
443.190	1	7
444.384	1	-1
445.578	1	2
446.771	1	-8
447.965	1	3
449.159	1	6
450.352	1	-4
451.546	1	-4
452.739	1	9
453.933	1	-1
455.126	1	7
456.320	1	3
457.513	1	8
458.706	1	7
459.899	1	8
461.093	1	6
462.286	1	-5
463.479	1	5
464.672	1	-2
465.865	1	-3
467.058	1	11
468.251	1	2
469.444	1	2
470.637	1	1
471.830	1	3
473.023	1	5
474.215	1	3
475.408	1	1
476.601	1	10
477.793	1	6
478.986	1	3
480.179	1	11
481.371	1	-2
482.564	1	2
483.756	1	6
484.948	1	9
486.141	1	14
487.333	1	-11
488.525	1	14
489.718	1	13
490.910	1	4
492.102	1	-3
493.294	1	3
494.486	1	16
495.678	1	8
496.870	1	11
498.062	1	8
499.254	1	7
500.446	1	7
501.638	1	-6
502.829	1	7
504.021	1	12
505.213	1	4
506.404	1	10
507.596	1	4
508.788	1	6
509.979	1	17
511.171	1	13
512.362	1	8
513.553	1	9
514.745	1	7
515.936	1	3
517.127	1	10
518.319	1	14
519.510	1	16
520.701	1	18
521.892	1	16
523.083	1	9
524.274	1	12
525.465	1	12
526.656	1	16
527.847	1	8
529.038	1	9
530.229	1	21
531.419	1	14
532.610	1	17
533.801	1	22
534.991	1	13
536.182	1	5
537.373	1	10
538.563	1	9
539.754	1	5
540.944	1	3
542.134	1	5
543.325	1	5
544.515	1	10
545.705	1	11
546.896	1	8
548.086	1	9
549.276	1	10
550.466	1	11
551.656	1	14
552.846	1	13
554.036	1	5
555.226	1	4
556.416	1	2
557.606	1	11
558.796	1	3
559.986	1	16
561.175	1	1
562.365	1	2
563.555	1	-2
564.744	1	14
565.934	1	10
567.123	1	10
568.313	1	10
569.502	1	1
570.692	1	17
571.881	1	6
573.070	1	-3
574.260	1	16
575.449	1	19
576.638	1	15
577.827	1	3
579.016	1	3
580.205	1	-4
581.394	1	8
582.583	1	-1
583.772	1	-3
584.961	1	7
586.150	1	-7
587.339	1	7
588.528	1	7
589.717	1	6
590.905	1	12
592.094	1	5
593.283	1	7
594.471	1	13
595.660	1	0
596.848	1	10
598.037	1	6
599.225	1	11
600.413	1	-7
601.602	1	14
602.790	1	6
603.978	1	2
605.166	1	10
606.355	1	12
607.543	1	14
608.731	1	9
609.919	1	-5
611.107	1	-5
612.295	1	4
613.483	1	-4
614.671	1	11
615.858	1	1
617.046	1	-3
618.234	1	0
619.422	1	-1
620.609	1	8
621.797	1	3
622.985	1	5
624.172	1	4
625.360	1	7
626.547	1	-5
627.735	1	-11
628.922	1	-11
630.109	1	-3
631.297	1	-2
632.484	1	1
633.671	1	5
634.858	1	-3
636.045	1	13
637.232	1	8
638.419	1	-8
639.606	1	-2
640.793	1	5
641.980	1	-3
643.167	1	4
644.354	1	3
645.541	1	8
646.728	1	10
647.914	1	9
649.101	1	2
650.288	1	1
651.474	1	9
652.661	1	-1
653.847	1	0
655.034	1	-5
656.220	1	7
657.406	1	4
658.593	1	1
659.779	1	3
660.965	1	10
662.152	1	-5
663.338	1	7
664.524	1	6
665.710	1	9
666.896	1	0
668.082	1	3
669.268	1	-3
670.454	1	-10
671.640	1	8
672.826	1	2
674.011	1	2
675.197	1	11
676.383	1	4
677.569	1	-5
678.754	1	5
679.940	1	9
681.125	1	10
682.311	1	2
683.496	1	0
684.682	1	8
685.867	1	6
687.053	1	2
688.238	1	-3
688.746	1	-3