File: Data/GaN_170K_550ms/GaN_sample D_spot 18_UVVIS_170 K_200um_550 ms 2x2mm1_131.txt
340.368	1	2
341.565	1	1
342.763	1	9
343.960	1	0
345.157	1	-1
346.354	1	-7
347.552	1	6
348.749	1	13
349.946	1	12
351.143	1	2
352.340	1	6
353.537	1	-3
354.734	1	4
355.931	1	17
357.127	1	2
358.324	1	6
359.521	1	12
360.718	1	7
361.914	1	16
363.111	1	23
364.308	1	27
365.504	1	39
366.701	1	43
367.897	1	52
369.093	1	34
370.290	1	51
371.486	1	31
372.682	1	40
373.879	1	41
375.075	1	36
376.271	1	21
377.467	1	12
378.663	1	11
379.859	1	18
381.055	1	10
382.251	1	17
383.447	1	16
384.643	1	11
385.839	1	8
387.035	1	11
388.230	1	6
389.426	1	13
390.622	1	10
391.817	1	2
393.013	1	1
394.208	1	13
395.404	1	14
396.599	1	-5
397.795	1	-6
398.990	1	2
400.186	1	2
401.381	1	9
402.576	1	11
403.771	1	3
404.967	1	15
406.162	1	3
407.357	1	-2
408.552	1	1
409.747	1	-2
410.942	1	5
412.137	1	-3
413.332	1	3
414.526	1	13
415.721	1	3
416.916	1	-3
418.111	1	3
419.305	1	1
420.500	1	-3
421.695	1	-2
422.889	1	-7
424.084	1	11
425.278	1	-2
426.472	1	3
427.667	1	-3
428.861	1	3
430.055	1	-3
431.250	1	11
432.444	1	6
433.638	1	-2
434.832	1	1
436.026	1	4
437.220	1	-6
438.414	1	-6
439.608	1	1
440.802	1	8
441.996	1	-6
443.190	1	6
444.384	1	-8
445.578	1	9
446.771	1	-12
447.965	1	7
449.159	1	-5
450.352	1	-3
451.546	1	-12
452.739	1	3
453.933	1	-1
455.126	1	0
456.320	1	0
457.513	1	14
458.706	1	13
459.899	1	2
461.093	1	11
462.286	1	-4
463.479	1	3
464.672	1	-8
465.865	1	1
467.058	1	8
468.251	1	4
469.444	1	0
470.637	1	6
471.830	1	-1
473.023	1	8
474.215	1	8
475.408	1	-5
476.601	1	5
477.793	1	8
478.986	1	7
480.179	1	-8
481.371	1	-6
482.564	1	4
483.756	1	7
484.948	1	-8
486.141	1	13
487.333	1	-6
488.525	1	6
489.718	1	7
490.910	1	0
492.102	1	4
493.294	1	-4
494.486	1	16
495.678	1	3
496.870	1	0
498.062	1	-2
499.254	1	5
500.446	1	-5
501.638	1	-1
502.829	1	13
504.021	1	9
505.213	1	6
506.404	1	6
507.596	1	10
508.788	1	4
509.979	1	11
511.171	1	7
512.362	1	3
513.553	1	10
514.745	1	5
515.936	1	13
517.127	1	13
518.319	1	11
519.510	1	9
520.701	1	15
521.892	1	4
523.083	1	5
524.274	1	10
525.465	1	15
526.656	1	16
527.847	1	3
529.038	1	7
530.229	1	15
531.419	1	24
532.610	1	7
533.801	1	16
534.991	1	10
536.182	1	0
537.373	1	1
538.563	1	15
539.754	1	6
540.944	1	3
542.134	1	5
543.325	1	8
544.515	1	5
545.705	1	6
546.896	1	10
548.086	1	4
549.276	1	11
550.466	1	7
551.656	1	14
552.846	1	7
554.036	1	5
555.226	1	2
556.416	1	4
557.606	1	5
558.796	1	13
559.986	1	13
561.175	1	-6
562.365	1	12
563.555	1	3
564.744	1	7
565.934	1	11
567.123	1	4
568.313	1	7
569.502	1	7
570.692	1	11
571.881	1	2
573.070	1	-1
574.260	1	7
575.449	1	7
576.638	1	18
577.827	1	5
579.016	1	10
580.205	1	-5
581.394	1	13
582.583	1	5
583.772	1	2
584.961	1	6
586.150	1	-3
587.339	1	2
588.528	1	-5
589.717	1	10
590.905	1	15
592.094	1	8
593.283	1	2
594.471	1	9
595.660	1	7
596.848	1	8
598.037	1	5
599.225	1	-4
600.413	1	-1
601.602	1	10
602.790	1	10
603.978	1	2
605.166	1	8
606.355	1	18
607.543	1	9
608.731	1	-2
609.919	1	2
611.107	1	-2
612.295	1	0
613.483	1	-2
614.671	1	12
615.858	1	-2
617.046	1	5
618.234	1	-3
619.422	1	-4
620.609	1	1
621.797	1	2
622.985	1	7
624.172	1	-2
625.360	1	5
626.547	1	-3
627.735	1	-8
628.922	1	-9
630.109	1	0
631.297	1	-1
632.484	1	3
633.671	1	15
634.858	1	-1
636.045	1	6
637.232	1	7
638.419	1	-1
639.606	1	-5
640.793	1	-1
641.980	1	-4
643.167	1	0
644.354	1	1
645.541	1	0
646.728	1	3
647.914	1	-1
649.101	1	4
650.288	1	-2
651.474	1	9
652.661	1	0
653.847	1	-2
655.034	1	6
656.220	1	0
657.406	1	7
658.593	1	9
659.779	1	14
660.965	1	5
662.152	1	-7
663.338	1	8
664.524	1	-2
665.710	1	10
666.896	1	5
668.082	1	16
669.268	1	2
670.454	1	-4
671.640	1	6
672.826	1	-6
674.011	1	11
675.197	1	7
676.383	1	4
677.569	1	-3
678.754	1	7
679.940	1	3
681.125	1	7
682.311	1	7
683.496	1	5
684.682	1	9
685.867	1	11
687.053	1	-6
688.238	1	-3
688.746	1	1