File: Data/GaN_170K_550ms/GaN_sample D_spot 18_UVVIS_170 K_200um_550 ms 2x2mm1_85.txt
340.368	1	-9
341.565	1	9
342.763	1	5
343.960	1	3
345.157	1	4
346.354	1	-3
347.552	1	22
348.749	1	2
349.946	1	14
351.143	1	9
352.340	1	1
353.537	1	14
354.734	1	10
355.931	1	4
357.127	1	7
358.324	1	15
359.521	1	23
360.718	1	30
361.914	1	45
363.111	1	64
364.308	1	77
365.504	1	83
366.701	1	124
367.897	1	148
369.093	1	140
370.290	1	136
371.486	1	107
372.682	1	108
373.879	1	85
375.075	1	70
376.271	1	60
377.467	1	57
378.663	1	54
379.859	1	44
381.055	1	41
382.251	1	33
383.447	1	28
384.643	1	21
385.839	1	25
387.035	1	17
388.230	1	6
389.426	1	21
390.622	1	4
391.817	1	17
393.013	1	10
394.208	1	13
395.404	1	9
396.599	1	6
397.795	1	14
398.990	1	-2
400.186	1	3
401.381	1	18
402.576	1	-3
403.771	1	2
404.967	1	10
406.162	1	11
407.357	1	3
408.552	1	12
409.747	1	0
410.942	1	9
412.137	1	-1
413.332	1	-3
414.526	1	4
415.721	1	8
416.916	1	-8
418.111	1	17
419.305	1	15
420.500	1	-1
421.695	1	-4
422.889	1	4
424.084	1	14
425.278	1	8
426.472	1	0
427.667	1	6
428.861	1	8
430.055	1	8
431.250	1	18
432.444	1	-1
433.638	1	8
434.832	1	5
436.026	1	3
437.220	1	0
438.414	1	-1
439.608	1	10
440.802	1	7
441.996	1	6
443.190	1	4
444.384	1	5
445.578	1	11
446.771	1	-5
447.965	1	3
449.159	1	-1
450.352	1	-2
451.546	1	1
452.739	1	1
453.933	1	4
455.126	1	10
456.320	1	1
457.513	1	14
458.706	1	5
459.899	1	4
461.093	1	8
462.286	1	-2
463.479	1	-6
464.672	1	-1
465.865	1	13
467.058	1	7
468.251	1	4
469.444	1	0
470.637	1	3
471.830	1	10
473.023	1	7
474.215	1	5
475.408	1	5
476.601	1	0
477.793	1	13
478.986	1	7
480.179	1	6
481.371	1	5
482.564	1	11
483.756	1	7
484.948	1	2
486.141	1	18
487.333	1	1
488.525	1	9
489.718	1	16
490.910	1	4
492.102	1	3
493.294	1	-2
494.486	1	13
495.678	1	11
496.870	1	13
498.062	1	10
499.254	1	19
500.446	1	3
501.638	1	11
502.829	1	19
504.021	1	18
505.213	1	2
506.404	1	17
507.596	1	23
508.788	1	6
509.979	1	22
511.171	1	26
512.362	1	18
513.553	1	17
514.745	1	13
515.936	1	25
517.127	1	15
518.319	1	26
519.510	1	21
520.701	1	27
521.892	1	22
523.083	1	22
524.274	1	23
525.465	1	28
526.656	1	24
527.847	1	21
529.038	1	21
530.229	1	37
531.419	1	28
532.610	1	31
533.801	1	25
534.991	1	27
536.182	1	18
537.373	1	23
538.563	1	20
539.754	1	26
540.944	1	18
542.134	1	18
543.325	1	13
544.515	1	12
545.705	1	24
546.896	1	18
548.086	1	16
549.276	1	27
550.466	1	5
551.656	1	23
552.846	1	22
554.036	1	17
555.226	1	11
556.416	1	8
557.606	1	27
558.796	1	13
559.986	1	17
561.175	1	7
562.365	1	17
563.555	1	15
564.744	1	16
565.934	1	15
567.123	1	23
568.313	1	6
569.502	1	12
570.692	1	19
571.881	1	0
573.070	1	21
574.260	1	5
575.449	1	10
576.638	1	25
577.827	1	7
579.016	1	13
580.205	1	8
581.394	1	9
582.583	1	8
583.772	1	6
584.961	1	11
586.150	1	10
587.339	1	3
588.528	1	7
589.717	1	19
590.905	1	12
592.094	1	12
593.283	1	9
594.471	1	8
595.660	1	11
596.848	1	8
598.037	1	11
599.225	1	13
600.413	1	1
601.602	1	14
602.790	1	18
603.978	1	10
605.166	1	6
606.355	1	7
607.543	1	12
608.731	1	9
609.919	1	-3
611.107	1	-10
612.295	1	-1
613.483	1	16
614.671	1	18
615.858	1	9
617.046	1	0
618.234	1	12
619.422	1	0
620.609	1	15
621.797	1	8
622.985	1	3
624.172	1	5
625.360	1	6
626.547	1	-2
627.735	1	-6
628.922	1	-3
630.109	1	1
631.297	1	1
632.484	1	-3
633.671	1	11
634.858	1	3
636.045	1	11
637.232	1	12
638.419	1	2
639.606	1	-5
640.793	1	-1
641.980	1	0
643.167	1	1
644.354	1	12
645.541	1	2
646.728	1	3
647.914	1	-2
649.101	1	-3
650.288	1	4
651.474	1	13
652.661	1	5
653.847	1	-2
655.034	1	3
656.220	1	10
657.406	1	4
658.593	1	12
659.779	1	4
660.965	1	7
662.152	1	0
663.338	1	11
664.524	1	-6
665.710	1	11
666.896	1	6
668.082	1	13
669.268	1	-1
670.454	1	-4
671.640	1	5
672.826	1	7
674.011	1	4
675.197	1	8
676.383	1	4
677.569	1	3
678.754	1	8
679.940	1	10
681.125	1	11
682.311	1	3
683.496	1	-5
684.682	1	11
685.867	1	7
687.053	1	2
688.238	1	3
688.746	1	-3