File: Data/GaN_170K_550ms/GaN_sample D_spot 18_UVVIS_170 K_200um_550 ms 2x2mm1_64.txt
340.368	1	-1
341.565	1	3
342.763	1	2
343.960	1	6
345.157	1	-2
346.354	1	4
347.552	1	4
348.749	1	0
349.946	1	6
351.143	1	9
352.340	1	12
353.537	1	16
354.734	1	22
355.931	1	15
357.127	1	27
358.324	1	45
359.521	1	52
360.718	1	62
361.914	1	91
363.111	1	141
364.308	1	210
365.504	1	297
366.701	1	407
367.897	1	488
369.093	1	488
370.290	1	444
371.486	1	349
372.682	1	288
373.879	1	257
375.075	1	198
376.271	1	157
377.467	1	145
378.663	1	113
379.859	1	98
381.055	1	84
382.251	1	70
383.447	1	67
384.643	1	61
385.839	1	52
387.035	1	45
388.230	1	41
389.426	1	43
390.622	1	33
391.817	1	25
393.013	1	21
394.208	1	38
395.404	1	26
396.599	1	18
397.795	1	14
398.990	1	12
400.186	1	18
401.381	1	29
402.576	1	4
403.771	1	17
404.967	1	11
406.162	1	13
407.357	1	6
408.552	1	20
409.747	1	11
410.942	1	9
412.137	1	1
413.332	1	10
414.526	1	8
415.721	1	5
416.916	1	6
418.111	1	12
419.305	1	9
420.500	1	5
421.695	1	5
422.889	1	8
424.084	1	22
425.278	1	14
426.472	1	5
427.667	1	2
428.861	1	3
430.055	1	13
431.250	1	13
432.444	1	9
433.638	1	16
434.832	1	13
436.026	1	-2
437.220	1	4
438.414	1	2
439.608	1	8
440.802	1	11
441.996	1	6
443.190	1	10
444.384	1	13
445.578	1	16
446.771	1	-2
447.965	1	7
449.159	1	10
450.352	1	5
451.546	1	-3
452.739	1	-1
453.933	1	14
455.126	1	15
456.320	1	6
457.513	1	16
458.706	1	17
459.899	1	-1
461.093	1	9
462.286	1	6
463.479	1	2
464.672	1	-1
465.865	1	7
467.058	1	7
468.251	1	7
469.444	1	4
470.637	1	-1
471.830	1	7
473.023	1	21
474.215	1	9
475.408	1	8
476.601	1	10
477.793	1	18
478.986	1	-1
480.179	1	13
481.371	1	8
482.564	1	17
483.756	1	16
484.948	1	15
486.141	1	22
487.333	1	10
488.525	1	24
489.718	1	24
490.910	1	20
492.102	1	15
493.294	1	32
494.486	1	20
495.678	1	34
496.870	1	29
498.062	1	26
499.254	1	43
500.446	1	31
501.638	1	25
502.829	1	46
504.021	1	45
505.213	1	41
506.404	1	49
507.596	1	48
508.788	1	49
509.979	1	48
511.171	1	43
512.362	1	44
513.553	1	43
514.745	1	38
515.936	1	59
517.127	1	75
518.319	1	59
519.510	1	62
520.701	1	60
521.892	1	67
523.083	1	51
524.274	1	58
525.465	1	60
526.656	1	69
527.847	1	58
529.038	1	61
530.229	1	78
531.419	1	69
532.610	1	68
533.801	1	67
534.991	1	61
536.182	1	59
537.373	1	51
538.563	1	50
539.754	1	58
540.944	1	51
542.134	1	60
543.325	1	61
544.515	1	57
545.705	1	63
546.896	1	57
548.086	1	60
549.276	1	53
550.466	1	53
551.656	1	61
552.846	1	53
554.036	1	44
555.226	1	41
556.416	1	36
557.606	1	53
558.796	1	39
559.986	1	52
561.175	1	43
562.365	1	37
563.555	1	34
564.744	1	52
565.934	1	45
567.123	1	44
568.313	1	41
569.502	1	32
570.692	1	44
571.881	1	30
573.070	1	29
574.260	1	46
575.449	1	35
576.638	1	47
577.827	1	24
579.016	1	27
580.205	1	26
581.394	1	35
582.583	1	33
583.772	1	27
584.961	1	28
586.150	1	24
587.339	1	19
588.528	1	28
589.717	1	20
590.905	1	29
592.094	1	27
593.283	1	17
594.471	1	26
595.660	1	22
596.848	1	23
598.037	1	11
599.225	1	26
600.413	1	8
601.602	1	16
602.790	1	28
603.978	1	18
605.166	1	24
606.355	1	18
607.543	1	18
608.731	1	18
609.919	1	12
611.107	1	12
612.295	1	15
613.483	1	13
614.671	1	13
615.858	1	15
617.046	1	6
618.234	1	20
619.422	1	4
620.609	1	14
621.797	1	17
622.985	1	7
624.172	1	12
625.360	1	9
626.547	1	12
627.735	1	10
628.922	1	4
630.109	1	7
631.297	1	14
632.484	1	11
633.671	1	15
634.858	1	11
636.045	1	17
637.232	1	12
638.419	1	6
639.606	1	0
640.793	1	-1
641.980	1	9
643.167	1	1
644.354	1	4
645.541	1	10
646.728	1	10
647.914	1	9
649.101	1	6
650.288	1	1
651.474	1	22
652.661	1	3
653.847	1	8
655.034	1	8
656.220	1	8
657.406	1	10
658.593	1	8
659.779	1	8
660.965	1	13
662.152	1	6
663.338	1	18
664.524	1	6
665.710	1	9
666.896	1	11
668.082	1	10
669.268	1	1
670.454	1	3
671.640	1	13
672.826	1	14
674.011	1	12
675.197	1	14
676.383	1	17
677.569	1	3
678.754	1	8
679.940	1	14
681.125	1	18
682.311	1	4
683.496	1	12
684.682	1	16
685.867	1	16
687.053	1	7
688.238	1	11
688.746	1	1