File: Data/GaN_170K_550ms/GaN_sample D_spot 18_UVVIS_170 K_200um_550 ms 2x2mm1_373.txt
340.368	1	1
341.565	1	7
342.763	1	12
343.960	1	5
345.157	1	1
346.354	1	3
347.552	1	8
348.749	1	2
349.946	1	6
351.143	1	-7
352.340	1	5
353.537	1	3
354.734	1	1
355.931	1	0
357.127	1	-4
358.324	1	1
359.521	1	8
360.718	1	-5
361.914	1	-10
363.111	1	17
364.308	1	8
365.504	1	2
366.701	1	5
367.897	1	9
369.093	1	-9
370.290	1	9
371.486	1	-8
372.682	1	6
373.879	1	9
375.075	1	15
376.271	1	4
377.467	1	6
378.663	1	0
379.859	1	-3
381.055	1	1
382.251	1	-11
383.447	1	8
384.643	1	-3
385.839	1	-3
387.035	1	3
388.230	1	6
389.426	1	0
390.622	1	0
391.817	1	-5
393.013	1	-11
394.208	1	7
395.404	1	11
396.599	1	3
397.795	1	-16
398.990	1	-13
400.186	1	-2
401.381	1	7
402.576	1	-7
403.771	1	4
404.967	1	2
406.162	1	2
407.357	1	-5
408.552	1	8
409.747	1	0
410.942	1	-4
412.137	1	-9
413.332	1	-5
414.526	1	5
415.721	1	-3
416.916	1	-2
418.111	1	6
419.305	1	4
420.500	1	1
421.695	1	-7
422.889	1	-3
424.084	1	18
425.278	1	-2
426.472	1	0
427.667	1	4
428.861	1	5
430.055	1	0
431.250	1	2
432.444	1	-3
433.638	1	3
434.832	1	4
436.026	1	-6
437.220	1	-3
438.414	1	0
439.608	1	-8
440.802	1	6
441.996	1	2
443.190	1	-2
444.384	1	-7
445.578	1	8
446.771	1	-10
447.965	1	0
449.159	1	6
450.352	1	-2
451.546	1	-8
452.739	1	6
453.933	1	2
455.126	1	9
456.320	1	1
457.513	1	-1
458.706	1	14
459.899	1	-15
461.093	1	6
462.286	1	-2
463.479	1	-6
464.672	1	-5
465.865	1	0
467.058	1	0
468.251	1	-2
469.444	1	3
470.637	1	2
471.830	1	4
473.023	1	-3
474.215	1	4
475.408	1	0
476.601	1	-6
477.793	1	1
478.986	1	-5
480.179	1	0
481.371	1	-3
482.564	1	-5
483.756	1	-1
484.948	1	-4
486.141	1	12
487.333	1	-1
488.525	1	3
489.718	1	-2
490.910	1	0
492.102	1	-5
493.294	1	-6
494.486	1	9
495.678	1	3
496.870	1	-2
498.062	1	-3
499.254	1	7
500.446	1	-10
501.638	1	-9
502.829	1	2
504.021	1	1
505.213	1	-11
506.404	1	2
507.596	1	-2
508.788	1	-6
509.979	1	-2
511.171	1	3
512.362	1	-3
513.553	1	-5
514.745	1	-3
515.936	1	-4
517.127	1	6
518.319	1	6
519.510	1	7
520.701	1	-1
521.892	1	-4
523.083	1	-1
524.274	1	-5
525.465	1	-1
526.656	1	11
527.847	1	2
529.038	1	-6
530.229	1	0
531.419	1	11
532.610	1	1
533.801	1	5
534.991	1	-3
536.182	1	2
537.373	1	-4
538.563	1	-5
539.754	1	3
540.944	1	1
542.134	1	-2
543.325	1	6
544.515	1	-5
545.705	1	8
546.896	1	10
548.086	1	2
549.276	1	0
550.466	1	1
551.656	1	3
552.846	1	7
554.036	1	-3
555.226	1	-9
556.416	1	4
557.606	1	-2
558.796	1	-3
559.986	1	9
561.175	1	-7
562.365	1	3
563.555	1	2
564.744	1	4
565.934	1	0
567.123	1	4
568.313	1	-1
569.502	1	7
570.692	1	-1
571.881	1	2
573.070	1	7
574.260	1	0
575.449	1	5
576.638	1	2
577.827	1	2
579.016	1	-3
580.205	1	-1
581.394	1	5
582.583	1	0
583.772	1	-3
584.961	1	-1
586.150	1	-2
587.339	1	-5
588.528	1	2
589.717	1	5
590.905	1	5
592.094	1	8
593.283	1	1
594.471	1	2
595.660	1	1
596.848	1	2
598.037	1	1
599.225	1	3
600.413	1	-16
601.602	1	-5
602.790	1	15
603.978	1	3
605.166	1	5
606.355	1	6
607.543	1	7
608.731	1	3
609.919	1	-4
611.107	1	-7
612.295	1	-4
613.483	1	-7
614.671	1	4
615.858	1	-4
617.046	1	-9
618.234	1	0
619.422	1	-11
620.609	1	0
621.797	1	-5
622.985	1	1
624.172	1	-2
625.360	1	7
626.547	1	-11
627.735	1	-6
628.922	1	-7
630.109	1	-4
631.297	1	-6
632.484	1	-7
633.671	1	10
634.858	1	0
636.045	1	5
637.232	1	1
638.419	1	-2
639.606	1	1
640.793	1	-6
641.980	1	-2
643.167	1	9
644.354	1	-7
645.541	1	5
646.728	1	2
647.914	1	-5
649.101	1	-1
650.288	1	0
651.474	1	6
652.661	1	6
653.847	1	-2
655.034	1	4
656.220	1	3
657.406	1	6
658.593	1	3
659.779	1	2
660.965	1	5
662.152	1	4
663.338	1	-4
664.524	1	-4
665.710	1	-2
666.896	1	3
668.082	1	5
669.268	1	-5
670.454	1	-7
671.640	1	-1
672.826	1	0
674.011	1	6
675.197	1	5
676.383	1	0
677.569	1	-6
678.754	1	3
679.940	1	1
681.125	1	4
682.311	1	0
683.496	1	1
684.682	1	-2
685.867	1	4
687.053	1	-13
688.238	1	-9
688.746	1	-5