File: Data/GaN_170K_550ms/GaN_sample D_spot 18_UVVIS_170 K_200um_550 ms 2x2mm1_54.txt
340.368	1	7
341.565	1	-1
342.763	1	8
343.960	1	9
345.157	1	1
346.354	1	1
347.552	1	12
348.749	1	7
349.946	1	18
351.143	1	8
352.340	1	17
353.537	1	29
354.734	1	24
355.931	1	25
357.127	1	34
358.324	1	49
359.521	1	54
360.718	1	99
361.914	1	146
363.111	1	259
364.308	1	425
365.504	1	719
366.701	1	1182
367.897	1	1590
369.093	1	1708
370.290	1	1495
371.486	1	1120
372.682	1	850
373.879	1	673
375.075	1	553
376.271	1	442
377.467	1	358
378.663	1	285
379.859	1	236
381.055	1	205
382.251	1	211
383.447	1	236
384.643	1	245
385.839	1	251
387.035	1	215
388.230	1	200
389.426	1	198
390.622	1	182
391.817	1	176
393.013	1	153
394.208	1	152
395.404	1	149
396.599	1	153
397.795	1	157
398.990	1	149
400.186	1	120
401.381	1	124
402.576	1	100
403.771	1	111
404.967	1	98
406.162	1	96
407.357	1	90
408.552	1	92
409.747	1	90
410.942	1	85
412.137	1	54
413.332	1	65
414.526	1	66
415.721	1	66
416.916	1	58
418.111	1	62
419.305	1	66
420.500	1	58
421.695	1	47
422.889	1	49
424.084	1	57
425.278	1	36
426.472	1	48
427.667	1	44
428.861	1	55
430.055	1	38
431.250	1	48
432.444	1	34
433.638	1	48
434.832	1	50
436.026	1	34
437.220	1	35
438.414	1	19
439.608	1	42
440.802	1	39
441.996	1	30
443.190	1	38
444.384	1	32
445.578	1	35
446.771	1	11
447.965	1	29
449.159	1	32
450.352	1	18
451.546	1	9
452.739	1	17
453.933	1	27
455.126	1	31
456.320	1	30
457.513	1	34
458.706	1	18
459.899	1	23
461.093	1	31
462.286	1	15
463.479	1	15
464.672	1	20
465.865	1	24
467.058	1	24
468.251	1	27
469.444	1	25
470.637	1	26
471.830	1	24
473.023	1	19
474.215	1	19
475.408	1	20
476.601	1	21
477.793	1	33
478.986	1	19
480.179	1	18
481.371	1	41
482.564	1	39
483.756	1	41
484.948	1	32
486.141	1	47
487.333	1	31
488.525	1	51
489.718	1	54
490.910	1	55
492.102	1	64
493.294	1	59
494.486	1	65
495.678	1	59
496.870	1	58
498.062	1	68
499.254	1	76
500.446	1	85
501.638	1	75
502.829	1	95
504.021	1	98
505.213	1	107
506.404	1	110
507.596	1	115
508.788	1	118
509.979	1	127
511.171	1	134
512.362	1	135
513.553	1	140
514.745	1	149
515.936	1	138
517.127	1	157
518.319	1	166
519.510	1	189
520.701	1	177
521.892	1	185
523.083	1	181
524.274	1	190
525.465	1	209
526.656	1	227
527.847	1	224
529.038	1	232
530.229	1	248
531.419	1	248
532.610	1	244
533.801	1	263
534.991	1	230
536.182	1	221
537.373	1	224
538.563	1	239
539.754	1	229
540.944	1	230
542.134	1	232
543.325	1	252
544.515	1	256
545.705	1	265
546.896	1	285
548.086	1	268
549.276	1	296
550.466	1	299
551.656	1	302
552.846	1	273
554.036	1	288
555.226	1	281
556.416	1	275
557.606	1	282
558.796	1	278
559.986	1	281
561.175	1	281
562.365	1	281
563.555	1	279
564.744	1	286
565.934	1	283
567.123	1	281
568.313	1	264
569.502	1	270
570.692	1	279
571.881	1	258
573.070	1	252
574.260	1	263
575.449	1	259
576.638	1	258
577.827	1	249
579.016	1	253
580.205	1	268
581.394	1	251
582.583	1	270
583.772	1	247
584.961	1	264
586.150	1	250
587.339	1	235
588.528	1	240
589.717	1	217
590.905	1	228
592.094	1	220
593.283	1	219
594.471	1	220
595.660	1	199
596.848	1	210
598.037	1	220
599.225	1	215
600.413	1	192
601.602	1	207
602.790	1	223
603.978	1	222
605.166	1	210
606.355	1	208
607.543	1	216
608.731	1	202
609.919	1	206
611.107	1	174
612.295	1	176
613.483	1	169
614.671	1	163
615.858	1	172
617.046	1	151
618.234	1	148
619.422	1	145
620.609	1	153
621.797	1	142
622.985	1	139
624.172	1	148
625.360	1	135
626.547	1	139
627.735	1	131
628.922	1	126
630.109	1	137
631.297	1	125
632.484	1	122
633.671	1	136
634.858	1	118
636.045	1	125
637.232	1	118
638.419	1	103
639.606	1	106
640.793	1	101
641.980	1	93
643.167	1	112
644.354	1	99
645.541	1	119
646.728	1	104
647.914	1	93
649.101	1	96
650.288	1	93
651.474	1	105
652.661	1	90
653.847	1	90
655.034	1	87
656.220	1	82
657.406	1	76
658.593	1	60
659.779	1	74
660.965	1	77
662.152	1	78
663.338	1	65
664.524	1	71
665.710	1	66
666.896	1	70
668.082	1	72
669.268	1	53
670.454	1	53
671.640	1	65
672.826	1	73
674.011	1	58
675.197	1	78
676.383	1	58
677.569	1	56
678.754	1	55
679.940	1	61
681.125	1	52
682.311	1	68
683.496	1	51
684.682	1	52
685.867	1	52
687.053	1	50
688.238	1	43
688.746	1	49