File: Data/GaN_170K_550ms/GaN_sample D_spot 18_UVVIS_170 K_200um_550 ms 2x2mm1_299.txt
340.368	1	0
341.565	1	4
342.763	1	-6
343.960	1	-5
345.157	1	-2
346.354	1	-12
347.552	1	10
348.749	1	0
349.946	1	11
351.143	1	2
352.340	1	1
353.537	1	2
354.734	1	8
355.931	1	3
357.127	1	-6
358.324	1	5
359.521	1	12
360.718	1	4
361.914	1	3
363.111	1	17
364.308	1	6
365.504	1	6
366.701	1	0
367.897	1	7
369.093	1	7
370.290	1	5
371.486	1	-5
372.682	1	10
373.879	1	4
375.075	1	5
376.271	1	13
377.467	1	12
378.663	1	9
379.859	1	1
381.055	1	7
382.251	1	14
383.447	1	4
384.643	1	1
385.839	1	-6
387.035	1	-6
388.230	1	2
389.426	1	4
390.622	1	-2
391.817	1	4
393.013	1	7
394.208	1	13
395.404	1	4
396.599	1	0
397.795	1	-4
398.990	1	-16
400.186	1	-6
401.381	1	7
402.576	1	5
403.771	1	4
404.967	1	2
406.162	1	12
407.357	1	4
408.552	1	-2
409.747	1	7
410.942	1	4
412.137	1	-4
413.332	1	3
414.526	1	11
415.721	1	-5
416.916	1	-12
418.111	1	1
419.305	1	14
420.500	1	-1
421.695	1	-16
422.889	1	-7
424.084	1	14
425.278	1	0
426.472	1	-5
427.667	1	1
428.861	1	-6
430.055	1	2
431.250	1	14
432.444	1	3
433.638	1	8
434.832	1	6
436.026	1	-3
437.220	1	2
438.414	1	-6
439.608	1	-6
440.802	1	7
441.996	1	-5
443.190	1	2
444.384	1	0
445.578	1	6
446.771	1	-6
447.965	1	1
449.159	1	-2
450.352	1	1
451.546	1	-6
452.739	1	8
453.933	1	9
455.126	1	-5
456.320	1	-2
457.513	1	4
458.706	1	9
459.899	1	10
461.093	1	2
462.286	1	-10
463.479	1	-3
464.672	1	-3
465.865	1	-3
467.058	1	4
468.251	1	2
469.444	1	-1
470.637	1	2
471.830	1	2
473.023	1	7
474.215	1	7
475.408	1	-6
476.601	1	2
477.793	1	5
478.986	1	-6
480.179	1	-7
481.371	1	-2
482.564	1	-3
483.756	1	11
484.948	1	-5
486.141	1	10
487.333	1	-6
488.525	1	13
489.718	1	-5
490.910	1	-2
492.102	1	-2
493.294	1	-5
494.486	1	5
495.678	1	7
496.870	1	6
498.062	1	-4
499.254	1	8
500.446	1	0
501.638	1	-4
502.829	1	9
504.021	1	-2
505.213	1	-5
506.404	1	3
507.596	1	-4
508.788	1	-1
509.979	1	-1
511.171	1	8
512.362	1	3
513.553	1	9
514.745	1	0
515.936	1	0
517.127	1	11
518.319	1	8
519.510	1	11
520.701	1	-2
521.892	1	-3
523.083	1	-1
524.274	1	0
525.465	1	0
526.656	1	8
527.847	1	6
529.038	1	-1
530.229	1	10
531.419	1	3
532.610	1	8
533.801	1	1
534.991	1	0
536.182	1	-2
537.373	1	-2
538.563	1	4
539.754	1	6
540.944	1	-7
542.134	1	-6
543.325	1	-1
544.515	1	-2
545.705	1	6
546.896	1	1
548.086	1	5
549.276	1	3
550.466	1	9
551.656	1	8
552.846	1	0
554.036	1	9
555.226	1	1
556.416	1	3
557.606	1	4
558.796	1	2
559.986	1	13
561.175	1	-4
562.365	1	12
563.555	1	0
564.744	1	5
565.934	1	-2
567.123	1	-1
568.313	1	0
569.502	1	4
570.692	1	7
571.881	1	0
573.070	1	7
574.260	1	9
575.449	1	-1
576.638	1	11
577.827	1	0
579.016	1	-5
580.205	1	-6
581.394	1	6
582.583	1	10
583.772	1	0
584.961	1	3
586.150	1	-15
587.339	1	-7
588.528	1	2
589.717	1	3
590.905	1	6
592.094	1	7
593.283	1	10
594.471	1	4
595.660	1	7
596.848	1	3
598.037	1	3
599.225	1	6
600.413	1	-6
601.602	1	2
602.790	1	9
603.978	1	10
605.166	1	0
606.355	1	6
607.543	1	5
608.731	1	7
609.919	1	-13
611.107	1	-6
612.295	1	-2
613.483	1	-4
614.671	1	7
615.858	1	-4
617.046	1	-2
618.234	1	9
619.422	1	-11
620.609	1	3
621.797	1	0
622.985	1	0
624.172	1	4
625.360	1	-1
626.547	1	-1
627.735	1	-12
628.922	1	-8
630.109	1	-8
631.297	1	2
632.484	1	-2
633.671	1	11
634.858	1	5
636.045	1	5
637.232	1	0
638.419	1	-3
639.606	1	-6
640.793	1	-3
641.980	1	-6
643.167	1	-3
644.354	1	3
645.541	1	-5
646.728	1	-6
647.914	1	1
649.101	1	-2
650.288	1	-1
651.474	1	10
652.661	1	5
653.847	1	4
655.034	1	-4
656.220	1	1
657.406	1	2
658.593	1	8
659.779	1	2
660.965	1	13
662.152	1	10
663.338	1	8
664.524	1	1
665.710	1	-1
666.896	1	1
668.082	1	3
669.268	1	-6
670.454	1	-10
671.640	1	1
672.826	1	6
674.011	1	-1
675.197	1	6
676.383	1	3
677.569	1	-10
678.754	1	1
679.940	1	5
681.125	1	5
682.311	1	4
683.496	1	7
684.682	1	4
685.867	1	-3
687.053	1	-12
688.238	1	-3
688.746	1	-5