File: Data/GaN_170K_550ms/GaN_sample D_spot 18_UVVIS_170 K_200um_550 ms 2x2mm1_359.txt
340.368	1	-3
341.565	1	3
342.763	1	1
343.960	1	-2
345.157	1	1
346.354	1	-4
347.552	1	5
348.749	1	5
349.946	1	5
351.143	1	-2
352.340	1	8
353.537	1	10
354.734	1	6
355.931	1	3
357.127	1	-2
358.324	1	8
359.521	1	5
360.718	1	3
361.914	1	3
363.111	1	10
364.308	1	11
365.504	1	4
366.701	1	5
367.897	1	7
369.093	1	3
370.290	1	6
371.486	1	-4
372.682	1	4
373.879	1	8
375.075	1	8
376.271	1	8
377.467	1	4
378.663	1	3
379.859	1	2
381.055	1	10
382.251	1	9
383.447	1	7
384.643	1	-2
385.839	1	-2
387.035	1	-1
388.230	1	-13
389.426	1	4
390.622	1	-4
391.817	1	-2
393.013	1	6
394.208	1	9
395.404	1	8
396.599	1	-6
397.795	1	-2
398.990	1	-11
400.186	1	-7
401.381	1	9
402.576	1	-7
403.771	1	4
404.967	1	-4
406.162	1	-3
407.357	1	0
408.552	1	0
409.747	1	-7
410.942	1	9
412.137	1	-2
413.332	1	-8
414.526	1	0
415.721	1	-5
416.916	1	-2
418.111	1	3
419.305	1	-1
420.500	1	-5
421.695	1	-10
422.889	1	-5
424.084	1	14
425.278	1	-6
426.472	1	0
427.667	1	2
428.861	1	0
430.055	1	0
431.250	1	16
432.444	1	9
433.638	1	9
434.832	1	7
436.026	1	-8
437.220	1	0
438.414	1	-6
439.608	1	1
440.802	1	8
441.996	1	-6
443.190	1	5
444.384	1	4
445.578	1	2
446.771	1	-3
447.965	1	0
449.159	1	-2
450.352	1	-5
451.546	1	-5
452.739	1	1
453.933	1	5
455.126	1	19
456.320	1	1
457.513	1	9
458.706	1	4
459.899	1	-1
461.093	1	20
462.286	1	0
463.479	1	0
464.672	1	-7
465.865	1	-3
467.058	1	2
468.251	1	-6
469.444	1	0
470.637	1	-6
471.830	1	5
473.023	1	-10
474.215	1	6
475.408	1	-6
476.601	1	5
477.793	1	-1
478.986	1	-7
480.179	1	-3
481.371	1	-5
482.564	1	-2
483.756	1	-2
484.948	1	2
486.141	1	12
487.333	1	-4
488.525	1	9
489.718	1	3
490.910	1	-4
492.102	1	-3
493.294	1	-5
494.486	1	12
495.678	1	1
496.870	1	-3
498.062	1	-1
499.254	1	3
500.446	1	0
501.638	1	-9
502.829	1	-5
504.021	1	0
505.213	1	-7
506.404	1	1
507.596	1	9
508.788	1	-6
509.979	1	3
511.171	1	6
512.362	1	3
513.553	1	-7
514.745	1	-5
515.936	1	1
517.127	1	-4
518.319	1	5
519.510	1	6
520.701	1	1
521.892	1	1
523.083	1	3
524.274	1	-7
525.465	1	-3
526.656	1	8
527.847	1	-5
529.038	1	2
530.229	1	7
531.419	1	9
532.610	1	2
533.801	1	5
534.991	1	-5
536.182	1	4
537.373	1	2
538.563	1	4
539.754	1	1
540.944	1	-1
542.134	1	3
543.325	1	-7
544.515	1	-9
545.705	1	3
546.896	1	-7
548.086	1	-1
549.276	1	-6
550.466	1	-4
551.656	1	2
552.846	1	-9
554.036	1	8
555.226	1	-6
556.416	1	-2
557.606	1	-4
558.796	1	5
559.986	1	2
561.175	1	-12
562.365	1	6
563.555	1	0
564.744	1	2
565.934	1	3
567.123	1	-5
568.313	1	-4
569.502	1	-5
570.692	1	14
571.881	1	2
573.070	1	3
574.260	1	0
575.449	1	5
576.638	1	3
577.827	1	-5
579.016	1	-4
580.205	1	-6
581.394	1	3
582.583	1	2
583.772	1	-1
584.961	1	-4
586.150	1	-3
587.339	1	-2
588.528	1	-3
589.717	1	4
590.905	1	10
592.094	1	1
593.283	1	2
594.471	1	3
595.660	1	4
596.848	1	-3
598.037	1	-10
599.225	1	12
600.413	1	-13
601.602	1	2
602.790	1	14
603.978	1	4
605.166	1	13
606.355	1	8
607.543	1	10
608.731	1	-2
609.919	1	-4
611.107	1	1
612.295	1	2
613.483	1	-7
614.671	1	9
615.858	1	3
617.046	1	-9
618.234	1	8
619.422	1	-4
620.609	1	1
621.797	1	-3
622.985	1	2
624.172	1	0
625.360	1	-1
626.547	1	-5
627.735	1	-12
628.922	1	-1
630.109	1	5
631.297	1	-3
632.484	1	-2
633.671	1	15
634.858	1	3
636.045	1	10
637.232	1	6
638.419	1	-3
639.606	1	-1
640.793	1	-7
641.980	1	-1
643.167	1	3
644.354	1	-2
645.541	1	-1
646.728	1	4
647.914	1	0
649.101	1	-6
650.288	1	1
651.474	1	8
652.661	1	1
653.847	1	6
655.034	1	3
656.220	1	6
657.406	1	-7
658.593	1	2
659.779	1	1
660.965	1	5
662.152	1	-1
663.338	1	3
664.524	1	3
665.710	1	11
666.896	1	3
668.082	1	12
669.268	1	-6
670.454	1	-10
671.640	1	-1
672.826	1	3
674.011	1	0
675.197	1	6
676.383	1	1
677.569	1	-5
678.754	1	-1
679.940	1	-1
681.125	1	12
682.311	1	-1
683.496	1	5
684.682	1	-4
685.867	1	-1
687.053	1	-9
688.238	1	-2
688.746	1	-6