File: Data/GaN_170K_550ms/GaN_sample D_spot 18_UVVIS_170 K_200um_550 ms 2x2mm1_62.txt
340.368	1	2
341.565	1	4
342.763	1	10
343.960	1	3
345.157	1	0
346.354	1	1
347.552	1	14
348.749	1	7
349.946	1	14
351.143	1	2
352.340	1	11
353.537	1	15
354.734	1	25
355.931	1	22
357.127	1	41
358.324	1	46
359.521	1	47
360.718	1	73
361.914	1	106
363.111	1	155
364.308	1	234
365.504	1	338
366.701	1	479
367.897	1	570
369.093	1	583
370.290	1	523
371.486	1	427
372.682	1	358
373.879	1	297
375.075	1	242
376.271	1	208
377.467	1	164
378.663	1	131
379.859	1	103
381.055	1	102
382.251	1	78
383.447	1	85
384.643	1	70
385.839	1	58
387.035	1	46
388.230	1	37
389.426	1	42
390.622	1	34
391.817	1	30
393.013	1	28
394.208	1	28
395.404	1	34
396.599	1	20
397.795	1	15
398.990	1	16
400.186	1	8
401.381	1	29
402.576	1	20
403.771	1	13
404.967	1	17
406.162	1	23
407.357	1	13
408.552	1	11
409.747	1	13
410.942	1	11
412.137	1	1
413.332	1	-1
414.526	1	15
415.721	1	5
416.916	1	-12
418.111	1	10
419.305	1	4
420.500	1	5
421.695	1	4
422.889	1	12
424.084	1	24
425.278	1	9
426.472	1	-1
427.667	1	15
428.861	1	7
430.055	1	10
431.250	1	19
432.444	1	9
433.638	1	11
434.832	1	6
436.026	1	8
437.220	1	7
438.414	1	4
439.608	1	6
440.802	1	12
441.996	1	9
443.190	1	7
444.384	1	7
445.578	1	11
446.771	1	-9
447.965	1	0
449.159	1	7
450.352	1	1
451.546	1	-8
452.739	1	13
453.933	1	13
455.126	1	10
456.320	1	7
457.513	1	19
458.706	1	7
459.899	1	10
461.093	1	18
462.286	1	4
463.479	1	5
464.672	1	6
465.865	1	4
467.058	1	14
468.251	1	10
469.444	1	7
470.637	1	10
471.830	1	8
473.023	1	12
474.215	1	12
475.408	1	-3
476.601	1	10
477.793	1	9
478.986	1	17
480.179	1	6
481.371	1	11
482.564	1	11
483.756	1	23
484.948	1	13
486.141	1	23
487.333	1	15
488.525	1	24
489.718	1	29
490.910	1	34
492.102	1	24
493.294	1	27
494.486	1	47
495.678	1	28
496.870	1	25
498.062	1	26
499.254	1	50
500.446	1	39
501.638	1	42
502.829	1	45
504.021	1	47
505.213	1	45
506.404	1	44
507.596	1	55
508.788	1	43
509.979	1	50
511.171	1	53
512.362	1	45
513.553	1	64
514.745	1	57
515.936	1	60
517.127	1	71
518.319	1	63
519.510	1	64
520.701	1	72
521.892	1	73
523.083	1	63
524.274	1	63
525.465	1	80
526.656	1	85
527.847	1	83
529.038	1	77
530.229	1	91
531.419	1	88
532.610	1	83
533.801	1	77
534.991	1	72
536.182	1	70
537.373	1	56
538.563	1	67
539.754	1	66
540.944	1	59
542.134	1	62
543.325	1	68
544.515	1	63
545.705	1	76
546.896	1	70
548.086	1	62
549.276	1	68
550.466	1	63
551.656	1	64
552.846	1	59
554.036	1	48
555.226	1	58
556.416	1	54
557.606	1	54
558.796	1	42
559.986	1	55
561.175	1	42
562.365	1	42
563.555	1	40
564.744	1	50
565.934	1	58
567.123	1	44
568.313	1	49
569.502	1	44
570.692	1	50
571.881	1	30
573.070	1	42
574.260	1	42
575.449	1	45
576.638	1	49
577.827	1	46
579.016	1	42
580.205	1	33
581.394	1	44
582.583	1	32
583.772	1	24
584.961	1	36
586.150	1	29
587.339	1	33
588.528	1	26
589.717	1	33
590.905	1	28
592.094	1	35
593.283	1	23
594.471	1	27
595.660	1	22
596.848	1	17
598.037	1	25
599.225	1	23
600.413	1	15
601.602	1	23
602.790	1	25
603.978	1	27
605.166	1	26
606.355	1	27
607.543	1	26
608.731	1	21
609.919	1	16
611.107	1	9
612.295	1	18
613.483	1	14
614.671	1	25
615.858	1	15
617.046	1	2
618.234	1	15
619.422	1	11
620.609	1	2
621.797	1	17
622.985	1	21
624.172	1	11
625.360	1	17
626.547	1	1
627.735	1	-3
628.922	1	2
630.109	1	1
631.297	1	11
632.484	1	1
633.671	1	20
634.858	1	17
636.045	1	15
637.232	1	12
638.419	1	6
639.606	1	7
640.793	1	5
641.980	1	4
643.167	1	8
644.354	1	11
645.541	1	18
646.728	1	15
647.914	1	12
649.101	1	10
650.288	1	0
651.474	1	20
652.661	1	1
653.847	1	15
655.034	1	4
656.220	1	14
657.406	1	9
658.593	1	2
659.779	1	8
660.965	1	25
662.152	1	4
663.338	1	16
664.524	1	11
665.710	1	13
666.896	1	9
668.082	1	15
669.268	1	7
670.454	1	-3
671.640	1	16
672.826	1	1
674.011	1	18
675.197	1	11
676.383	1	15
677.569	1	2
678.754	1	14
679.940	1	10
681.125	1	21
682.311	1	11
683.496	1	18
684.682	1	12
685.867	1	19
687.053	1	5
688.238	1	5
688.746	1	3