File: Data/GaN_170K_550ms/GaN_sample D_spot 18_UVVIS_170 K_200um_550 ms 2x2mm1_78.txt
340.368	1	1
341.565	1	6
342.763	1	6
343.960	1	-2
345.157	1	7
346.354	1	-3
347.552	1	9
348.749	1	12
349.946	1	6
351.143	1	7
352.340	1	11
353.537	1	14
354.734	1	19
355.931	1	10
357.127	1	11
358.324	1	33
359.521	1	31
360.718	1	44
361.914	1	57
363.111	1	77
364.308	1	94
365.504	1	135
366.701	1	172
367.897	1	189
369.093	1	199
370.290	1	193
371.486	1	150
372.682	1	132
373.879	1	114
375.075	1	95
376.271	1	79
377.467	1	68
378.663	1	61
379.859	1	48
381.055	1	52
382.251	1	38
383.447	1	44
384.643	1	33
385.839	1	24
387.035	1	27
388.230	1	21
389.426	1	22
390.622	1	19
391.817	1	16
393.013	1	9
394.208	1	15
395.404	1	13
396.599	1	5
397.795	1	-3
398.990	1	8
400.186	1	1
401.381	1	15
402.576	1	3
403.771	1	9
404.967	1	16
406.162	1	14
407.357	1	13
408.552	1	6
409.747	1	8
410.942	1	1
412.137	1	-8
413.332	1	2
414.526	1	5
415.721	1	-7
416.916	1	-4
418.111	1	1
419.305	1	7
420.500	1	-4
421.695	1	0
422.889	1	2
424.084	1	17
425.278	1	6
426.472	1	9
427.667	1	9
428.861	1	8
430.055	1	6
431.250	1	19
432.444	1	9
433.638	1	11
434.832	1	9
436.026	1	8
437.220	1	9
438.414	1	5
439.608	1	0
440.802	1	5
441.996	1	-2
443.190	1	5
444.384	1	4
445.578	1	5
446.771	1	-10
447.965	1	10
449.159	1	3
450.352	1	-3
451.546	1	-3
452.739	1	4
453.933	1	8
455.126	1	14
456.320	1	0
457.513	1	8
458.706	1	6
459.899	1	6
461.093	1	7
462.286	1	-3
463.479	1	4
464.672	1	2
465.865	1	0
467.058	1	4
468.251	1	11
469.444	1	4
470.637	1	9
471.830	1	-1
473.023	1	-2
474.215	1	12
475.408	1	-7
476.601	1	8
477.793	1	11
478.986	1	6
480.179	1	0
481.371	1	3
482.564	1	1
483.756	1	6
484.948	1	-2
486.141	1	12
487.333	1	9
488.525	1	18
489.718	1	13
490.910	1	13
492.102	1	12
493.294	1	8
494.486	1	21
495.678	1	9
496.870	1	15
498.062	1	7
499.254	1	26
500.446	1	10
501.638	1	9
502.829	1	16
504.021	1	27
505.213	1	24
506.404	1	25
507.596	1	27
508.788	1	18
509.979	1	25
511.171	1	29
512.362	1	21
513.553	1	24
514.745	1	29
515.936	1	32
517.127	1	37
518.319	1	32
519.510	1	18
520.701	1	26
521.892	1	35
523.083	1	26
524.274	1	18
525.465	1	32
526.656	1	32
527.847	1	32
529.038	1	29
530.229	1	34
531.419	1	42
532.610	1	41
533.801	1	31
534.991	1	37
536.182	1	30
537.373	1	27
538.563	1	21
539.754	1	29
540.944	1	29
542.134	1	20
543.325	1	30
544.515	1	22
545.705	1	38
546.896	1	32
548.086	1	19
549.276	1	25
550.466	1	32
551.656	1	33
552.846	1	25
554.036	1	19
555.226	1	12
556.416	1	22
557.606	1	18
558.796	1	19
559.986	1	29
561.175	1	7
562.365	1	27
563.555	1	14
564.744	1	18
565.934	1	25
567.123	1	18
568.313	1	14
569.502	1	26
570.692	1	19
571.881	1	12
573.070	1	19
574.260	1	15
575.449	1	13
576.638	1	18
577.827	1	4
579.016	1	11
580.205	1	16
581.394	1	10
582.583	1	7
583.772	1	9
584.961	1	9
586.150	1	13
587.339	1	15
588.528	1	10
589.717	1	14
590.905	1	19
592.094	1	8
593.283	1	16
594.471	1	10
595.660	1	7
596.848	1	2
598.037	1	7
599.225	1	12
600.413	1	12
601.602	1	6
602.790	1	12
603.978	1	9
605.166	1	15
606.355	1	17
607.543	1	12
608.731	1	12
609.919	1	1
611.107	1	4
612.295	1	19
613.483	1	8
614.671	1	6
615.858	1	6
617.046	1	4
618.234	1	7
619.422	1	1
620.609	1	2
621.797	1	9
622.985	1	11
624.172	1	-3
625.360	1	0
626.547	1	4
627.735	1	-2
628.922	1	-3
630.109	1	6
631.297	1	1
632.484	1	0
633.671	1	12
634.858	1	5
636.045	1	5
637.232	1	1
638.419	1	4
639.606	1	0
640.793	1	7
641.980	1	6
643.167	1	3
644.354	1	7
645.541	1	10
646.728	1	2
647.914	1	3
649.101	1	3
650.288	1	8
651.474	1	10
652.661	1	6
653.847	1	6
655.034	1	2
656.220	1	11
657.406	1	7
658.593	1	5
659.779	1	6
660.965	1	16
662.152	1	8
663.338	1	6
664.524	1	5
665.710	1	0
666.896	1	5
668.082	1	16
669.268	1	4
670.454	1	-12
671.640	1	13
672.826	1	2
674.011	1	5
675.197	1	5
676.383	1	4
677.569	1	-6
678.754	1	8
679.940	1	13
681.125	1	13
682.311	1	3
683.496	1	5
684.682	1	3
685.867	1	10
687.053	1	0
688.238	1	-2
688.746	1	-1