File: Data/GaN_170K_550ms/GaN_sample D_spot 18_UVVIS_170 K_200um_550 ms 2x2mm1_81.txt
340.368	1	2
341.565	1	3
342.763	1	7
343.960	1	2
345.157	1	6
346.354	1	6
347.552	1	10
348.749	1	8
349.946	1	19
351.143	1	5
352.340	1	13
353.537	1	11
354.734	1	18
355.931	1	14
357.127	1	18
358.324	1	20
359.521	1	43
360.718	1	45
361.914	1	51
363.111	1	72
364.308	1	93
365.504	1	111
366.701	1	152
367.897	1	186
369.093	1	168
370.290	1	158
371.486	1	132
372.682	1	116
373.879	1	100
375.075	1	86
376.271	1	79
377.467	1	68
378.663	1	60
379.859	1	48
381.055	1	40
382.251	1	36
383.447	1	40
384.643	1	29
385.839	1	18
387.035	1	21
388.230	1	16
389.426	1	12
390.622	1	22
391.817	1	16
393.013	1	15
394.208	1	21
395.404	1	7
396.599	1	9
397.795	1	1
398.990	1	-8
400.186	1	5
401.381	1	16
402.576	1	14
403.771	1	5
404.967	1	5
406.162	1	6
407.357	1	1
408.552	1	3
409.747	1	0
410.942	1	3
412.137	1	-6
413.332	1	5
414.526	1	11
415.721	1	3
416.916	1	-3
418.111	1	12
419.305	1	5
420.500	1	-4
421.695	1	4
422.889	1	-1
424.084	1	22
425.278	1	6
426.472	1	6
427.667	1	8
428.861	1	3
430.055	1	7
431.250	1	14
432.444	1	3
433.638	1	10
434.832	1	0
436.026	1	0
437.220	1	1
438.414	1	3
439.608	1	5
440.802	1	7
441.996	1	4
443.190	1	11
444.384	1	5
445.578	1	12
446.771	1	-1
447.965	1	10
449.159	1	3
450.352	1	-8
451.546	1	-9
452.739	1	5
453.933	1	2
455.126	1	8
456.320	1	6
457.513	1	13
458.706	1	5
459.899	1	5
461.093	1	5
462.286	1	-8
463.479	1	-1
464.672	1	9
465.865	1	1
467.058	1	3
468.251	1	9
469.444	1	6
470.637	1	4
471.830	1	0
473.023	1	4
474.215	1	10
475.408	1	5
476.601	1	8
477.793	1	17
478.986	1	6
480.179	1	3
481.371	1	9
482.564	1	9
483.756	1	10
484.948	1	-2
486.141	1	18
487.333	1	4
488.525	1	13
489.718	1	8
490.910	1	2
492.102	1	10
493.294	1	9
494.486	1	19
495.678	1	15
496.870	1	17
498.062	1	7
499.254	1	14
500.446	1	5
501.638	1	7
502.829	1	22
504.021	1	16
505.213	1	13
506.404	1	15
507.596	1	29
508.788	1	5
509.979	1	27
511.171	1	26
512.362	1	16
513.553	1	26
514.745	1	19
515.936	1	21
517.127	1	23
518.319	1	23
519.510	1	24
520.701	1	25
521.892	1	30
523.083	1	28
524.274	1	34
525.465	1	28
526.656	1	29
527.847	1	26
529.038	1	27
530.229	1	36
531.419	1	37
532.610	1	24
533.801	1	25
534.991	1	19
536.182	1	20
537.373	1	28
538.563	1	17
539.754	1	23
540.944	1	16
542.134	1	26
543.325	1	31
544.515	1	19
545.705	1	27
546.896	1	26
548.086	1	27
549.276	1	29
550.466	1	19
551.656	1	21
552.846	1	29
554.036	1	18
555.226	1	8
556.416	1	15
557.606	1	16
558.796	1	16
559.986	1	22
561.175	1	11
562.365	1	20
563.555	1	20
564.744	1	25
565.934	1	16
567.123	1	9
568.313	1	10
569.502	1	17
570.692	1	26
571.881	1	3
573.070	1	12
574.260	1	23
575.449	1	15
576.638	1	15
577.827	1	7
579.016	1	13
580.205	1	4
581.394	1	17
582.583	1	10
583.772	1	12
584.961	1	12
586.150	1	7
587.339	1	14
588.528	1	9
589.717	1	8
590.905	1	19
592.094	1	16
593.283	1	-1
594.471	1	19
595.660	1	8
596.848	1	8
598.037	1	9
599.225	1	-2
600.413	1	8
601.602	1	6
602.790	1	12
603.978	1	10
605.166	1	17
606.355	1	10
607.543	1	14
608.731	1	10
609.919	1	3
611.107	1	-1
612.295	1	1
613.483	1	-5
614.671	1	10
615.858	1	6
617.046	1	-1
618.234	1	9
619.422	1	5
620.609	1	13
621.797	1	4
622.985	1	7
624.172	1	13
625.360	1	3
626.547	1	-6
627.735	1	-8
628.922	1	-3
630.109	1	5
631.297	1	-2
632.484	1	2
633.671	1	9
634.858	1	5
636.045	1	18
637.232	1	6
638.419	1	8
639.606	1	1
640.793	1	0
641.980	1	11
643.167	1	-2
644.354	1	5
645.541	1	3
646.728	1	7
647.914	1	10
649.101	1	10
650.288	1	8
651.474	1	16
652.661	1	1
653.847	1	5
655.034	1	7
656.220	1	11
657.406	1	7
658.593	1	1
659.779	1	15
660.965	1	14
662.152	1	8
663.338	1	8
664.524	1	11
665.710	1	8
666.896	1	10
668.082	1	18
669.268	1	2
670.454	1	-4
671.640	1	4
672.826	1	2
674.011	1	14
675.197	1	4
676.383	1	4
677.569	1	7
678.754	1	7
679.940	1	10
681.125	1	4
682.311	1	6
683.496	1	15
684.682	1	-2
685.867	1	10
687.053	1	-7
688.238	1	8
688.746	1	2