File: Data/GaN_170K_550ms/GaN_sample D_spot 18_UVVIS_170 K_200um_550 ms 2x2mm1_142.txt
340.368	1	4
341.565	1	5
342.763	1	0
343.960	1	-6
345.157	1	6
346.354	1	1
347.552	1	13
348.749	1	-1
349.946	1	13
351.143	1	-1
352.340	1	2
353.537	1	1
354.734	1	7
355.931	1	10
357.127	1	6
358.324	1	3
359.521	1	15
360.718	1	16
361.914	1	20
363.111	1	31
364.308	1	21
365.504	1	23
366.701	1	37
367.897	1	42
369.093	1	29
370.290	1	36
371.486	1	26
372.682	1	35
373.879	1	40
375.075	1	12
376.271	1	26
377.467	1	11
378.663	1	19
379.859	1	10
381.055	1	18
382.251	1	11
383.447	1	12
384.643	1	-3
385.839	1	2
387.035	1	8
388.230	1	0
389.426	1	2
390.622	1	1
391.817	1	5
393.013	1	4
394.208	1	19
395.404	1	6
396.599	1	-2
397.795	1	9
398.990	1	-13
400.186	1	-10
401.381	1	8
402.576	1	12
403.771	1	4
404.967	1	8
406.162	1	6
407.357	1	-3
408.552	1	1
409.747	1	-1
410.942	1	5
412.137	1	-11
413.332	1	-7
414.526	1	1
415.721	1	-4
416.916	1	-11
418.111	1	6
419.305	1	-4
420.500	1	5
421.695	1	-11
422.889	1	4
424.084	1	23
425.278	1	-1
426.472	1	-10
427.667	1	10
428.861	1	4
430.055	1	15
431.250	1	12
432.444	1	2
433.638	1	11
434.832	1	8
436.026	1	-7
437.220	1	0
438.414	1	-1
439.608	1	1
440.802	1	11
441.996	1	2
443.190	1	3
444.384	1	7
445.578	1	8
446.771	1	-11
447.965	1	2
449.159	1	-4
450.352	1	-7
451.546	1	-5
452.739	1	-4
453.933	1	-3
455.126	1	13
456.320	1	7
457.513	1	11
458.706	1	8
459.899	1	1
461.093	1	6
462.286	1	-2
463.479	1	-2
464.672	1	1
465.865	1	8
467.058	1	2
468.251	1	1
469.444	1	2
470.637	1	4
471.830	1	-9
473.023	1	4
474.215	1	1
475.408	1	-2
476.601	1	-5
477.793	1	7
478.986	1	-3
480.179	1	-5
481.371	1	4
482.564	1	11
483.756	1	-4
484.948	1	-2
486.141	1	13
487.333	1	-1
488.525	1	-2
489.718	1	13
490.910	1	-1
492.102	1	5
493.294	1	0
494.486	1	10
495.678	1	0
496.870	1	10
498.062	1	-1
499.254	1	15
500.446	1	3
501.638	1	-6
502.829	1	6
504.021	1	0
505.213	1	-1
506.404	1	5
507.596	1	7
508.788	1	2
509.979	1	5
511.171	1	13
512.362	1	7
513.553	1	11
514.745	1	-3
515.936	1	3
517.127	1	4
518.319	1	17
519.510	1	9
520.701	1	4
521.892	1	17
523.083	1	6
524.274	1	11
525.465	1	13
526.656	1	17
527.847	1	3
529.038	1	3
530.229	1	10
531.419	1	16
532.610	1	8
533.801	1	11
534.991	1	5
536.182	1	4
537.373	1	1
538.563	1	-2
539.754	1	3
540.944	1	-1
542.134	1	7
543.325	1	16
544.515	1	9
545.705	1	5
546.896	1	22
548.086	1	14
549.276	1	1
550.466	1	-2
551.656	1	12
552.846	1	3
554.036	1	5
555.226	1	-2
556.416	1	4
557.606	1	5
558.796	1	6
559.986	1	-3
561.175	1	-8
562.365	1	10
563.555	1	-1
564.744	1	-2
565.934	1	12
567.123	1	9
568.313	1	7
569.502	1	-2
570.692	1	8
571.881	1	3
573.070	1	-3
574.260	1	6
575.449	1	2
576.638	1	11
577.827	1	1
579.016	1	9
580.205	1	-3
581.394	1	5
582.583	1	4
583.772	1	3
584.961	1	0
586.150	1	-1
587.339	1	-2
588.528	1	7
589.717	1	6
590.905	1	12
592.094	1	18
593.283	1	2
594.471	1	5
595.660	1	1
596.848	1	2
598.037	1	1
599.225	1	10
600.413	1	1
601.602	1	4
602.790	1	0
603.978	1	11
605.166	1	8
606.355	1	2
607.543	1	12
608.731	1	6
609.919	1	0
611.107	1	1
612.295	1	-5
613.483	1	-4
614.671	1	18
615.858	1	3
617.046	1	2
618.234	1	3
619.422	1	-4
620.609	1	1
621.797	1	5
622.985	1	6
624.172	1	0
625.360	1	-2
626.547	1	-1
627.735	1	-13
628.922	1	-4
630.109	1	-2
631.297	1	-2
632.484	1	-4
633.671	1	10
634.858	1	6
636.045	1	9
637.232	1	9
638.419	1	-12
639.606	1	3
640.793	1	4
641.980	1	-4
643.167	1	-3
644.354	1	3
645.541	1	3
646.728	1	-3
647.914	1	3
649.101	1	-1
650.288	1	5
651.474	1	-3
652.661	1	6
653.847	1	-1
655.034	1	5
656.220	1	4
657.406	1	-1
658.593	1	-4
659.779	1	2
660.965	1	11
662.152	1	-4
663.338	1	9
664.524	1	4
665.710	1	-5
666.896	1	7
668.082	1	9
669.268	1	1
670.454	1	-2
671.640	1	0
672.826	1	4
674.011	1	3
675.197	1	11
676.383	1	9
677.569	1	-3
678.754	1	-2
679.940	1	-1
681.125	1	3
682.311	1	3
683.496	1	1
684.682	1	-3
685.867	1	10
687.053	1	-7
688.238	1	-2
688.746	1	-2