File: Data/GaN_170K_550ms/GaN_sample D_spot 18_UVVIS_170 K_200um_550 ms 2x2mm1_172.txt
340.368	1	-5
341.565	1	2
342.763	1	8
343.960	1	-6
345.157	1	-2
346.354	1	-7
347.552	1	8
348.749	1	14
349.946	1	11
351.143	1	5
352.340	1	5
353.537	1	10
354.734	1	3
355.931	1	6
357.127	1	9
358.324	1	8
359.521	1	5
360.718	1	5
361.914	1	7
363.111	1	14
364.308	1	22
365.504	1	23
366.701	1	27
367.897	1	27
369.093	1	20
370.290	1	11
371.486	1	17
372.682	1	25
373.879	1	16
375.075	1	19
376.271	1	15
377.467	1	16
378.663	1	10
379.859	1	13
381.055	1	7
382.251	1	11
383.447	1	7
384.643	1	2
385.839	1	2
387.035	1	4
388.230	1	4
389.426	1	13
390.622	1	3
391.817	1	5
393.013	1	4
394.208	1	14
395.404	1	6
396.599	1	-1
397.795	1	-3
398.990	1	-14
400.186	1	-7
401.381	1	14
402.576	1	-4
403.771	1	7
404.967	1	3
406.162	1	7
407.357	1	-6
408.552	1	6
409.747	1	-4
410.942	1	11
412.137	1	-5
413.332	1	-7
414.526	1	-1
415.721	1	-1
416.916	1	-4
418.111	1	4
419.305	1	-3
420.500	1	2
421.695	1	0
422.889	1	-7
424.084	1	10
425.278	1	-7
426.472	1	2
427.667	1	3
428.861	1	5
430.055	1	-7
431.250	1	12
432.444	1	7
433.638	1	3
434.832	1	11
436.026	1	1
437.220	1	6
438.414	1	-6
439.608	1	-3
440.802	1	13
441.996	1	8
443.190	1	-1
444.384	1	1
445.578	1	5
446.771	1	-13
447.965	1	3
449.159	1	3
450.352	1	-2
451.546	1	-12
452.739	1	-1
453.933	1	8
455.126	1	1
456.320	1	4
457.513	1	9
458.706	1	8
459.899	1	4
461.093	1	7
462.286	1	-3
463.479	1	-3
464.672	1	-3
465.865	1	6
467.058	1	5
468.251	1	0
469.444	1	-1
470.637	1	8
471.830	1	6
473.023	1	-4
474.215	1	-1
475.408	1	-11
476.601	1	-2
477.793	1	9
478.986	1	-3
480.179	1	4
481.371	1	-3
482.564	1	3
483.756	1	10
484.948	1	3
486.141	1	9
487.333	1	-5
488.525	1	13
489.718	1	1
490.910	1	0
492.102	1	2
493.294	1	-4
494.486	1	8
495.678	1	12
496.870	1	3
498.062	1	2
499.254	1	11
500.446	1	2
501.638	1	1
502.829	1	6
504.021	1	4
505.213	1	2
506.404	1	-2
507.596	1	12
508.788	1	5
509.979	1	7
511.171	1	7
512.362	1	-1
513.553	1	5
514.745	1	-3
515.936	1	5
517.127	1	2
518.319	1	8
519.510	1	3
520.701	1	12
521.892	1	6
523.083	1	0
524.274	1	5
525.465	1	1
526.656	1	13
527.847	1	3
529.038	1	5
530.229	1	8
531.419	1	9
532.610	1	7
533.801	1	13
534.991	1	1
536.182	1	-2
537.373	1	-2
538.563	1	6
539.754	1	5
540.944	1	0
542.134	1	4
543.325	1	11
544.515	1	6
545.705	1	4
546.896	1	12
548.086	1	-3
549.276	1	3
550.466	1	5
551.656	1	13
552.846	1	8
554.036	1	7
555.226	1	1
556.416	1	3
557.606	1	13
558.796	1	4
559.986	1	9
561.175	1	-13
562.365	1	-3
563.555	1	-4
564.744	1	-1
565.934	1	1
567.123	1	3
568.313	1	8
569.502	1	1
570.692	1	4
571.881	1	-2
573.070	1	7
574.260	1	6
575.449	1	-3
576.638	1	8
577.827	1	-18
579.016	1	-1
580.205	1	-4
581.394	1	7
582.583	1	2
583.772	1	6
584.961	1	-2
586.150	1	2
587.339	1	2
588.528	1	1
589.717	1	1
590.905	1	16
592.094	1	-2
593.283	1	-1
594.471	1	7
595.660	1	2
596.848	1	7
598.037	1	1
599.225	1	4
600.413	1	-13
601.602	1	2
602.790	1	8
603.978	1	3
605.166	1	13
606.355	1	14
607.543	1	8
608.731	1	2
609.919	1	-8
611.107	1	-3
612.295	1	0
613.483	1	-1
614.671	1	2
615.858	1	6
617.046	1	-8
618.234	1	8
619.422	1	1
620.609	1	7
621.797	1	3
622.985	1	10
624.172	1	0
625.360	1	-3
626.547	1	-12
627.735	1	-6
628.922	1	0
630.109	1	2
631.297	1	-6
632.484	1	0
633.671	1	5
634.858	1	6
636.045	1	2
637.232	1	9
638.419	1	-9
639.606	1	2
640.793	1	1
641.980	1	-10
643.167	1	2
644.354	1	9
645.541	1	3
646.728	1	1
647.914	1	1
649.101	1	4
650.288	1	-4
651.474	1	5
652.661	1	3
653.847	1	4
655.034	1	5
656.220	1	0
657.406	1	2
658.593	1	1
659.779	1	-2
660.965	1	2
662.152	1	2
663.338	1	-1
664.524	1	1
665.710	1	9
666.896	1	1
668.082	1	4
669.268	1	-5
670.454	1	-1
671.640	1	11
672.826	1	-5
674.011	1	2
675.197	1	8
676.383	1	-2
677.569	1	-6
678.754	1	5
679.940	1	16
681.125	1	8
682.311	1	4
683.496	1	6
684.682	1	10
685.867	1	10
687.053	1	-13
688.238	1	-5
688.746	1	-5