File: Data/GaN_170K_550ms/GaN_sample D_spot 18_UVVIS_170 K_200um_550 ms 2x2mm1_168.txt
340.368	1	0
341.565	1	3
342.763	1	-1
343.960	1	-3
345.157	1	11
346.354	1	-5
347.552	1	-4
348.749	1	10
349.946	1	4
351.143	1	-1
352.340	1	4
353.537	1	13
354.734	1	8
355.931	1	11
357.127	1	8
358.324	1	15
359.521	1	5
360.718	1	4
361.914	1	21
363.111	1	19
364.308	1	13
365.504	1	10
366.701	1	20
367.897	1	18
369.093	1	14
370.290	1	26
371.486	1	19
372.682	1	25
373.879	1	17
375.075	1	14
376.271	1	16
377.467	1	12
378.663	1	6
379.859	1	16
381.055	1	8
382.251	1	11
383.447	1	17
384.643	1	11
385.839	1	-4
387.035	1	1
388.230	1	10
389.426	1	11
390.622	1	1
391.817	1	5
393.013	1	2
394.208	1	9
395.404	1	16
396.599	1	-6
397.795	1	3
398.990	1	-1
400.186	1	-4
401.381	1	12
402.576	1	4
403.771	1	6
404.967	1	7
406.162	1	1
407.357	1	-5
408.552	1	-6
409.747	1	1
410.942	1	2
412.137	1	-1
413.332	1	5
414.526	1	14
415.721	1	2
416.916	1	-6
418.111	1	2
419.305	1	-4
420.500	1	9
421.695	1	-9
422.889	1	-9
424.084	1	15
425.278	1	-1
426.472	1	2
427.667	1	4
428.861	1	4
430.055	1	-4
431.250	1	15
432.444	1	2
433.638	1	4
434.832	1	10
436.026	1	-2
437.220	1	4
438.414	1	1
439.608	1	-2
440.802	1	9
441.996	1	-4
443.190	1	-1
444.384	1	4
445.578	1	8
446.771	1	-9
447.965	1	-5
449.159	1	9
450.352	1	-4
451.546	1	-3
452.739	1	3
453.933	1	3
455.126	1	4
456.320	1	2
457.513	1	16
458.706	1	13
459.899	1	-4
461.093	1	1
462.286	1	0
463.479	1	3
464.672	1	3
465.865	1	1
467.058	1	5
468.251	1	7
469.444	1	-3
470.637	1	2
471.830	1	-1
473.023	1	-5
474.215	1	6
475.408	1	-6
476.601	1	0
477.793	1	3
478.986	1	-1
480.179	1	-1
481.371	1	8
482.564	1	-2
483.756	1	2
484.948	1	0
486.141	1	6
487.333	1	-4
488.525	1	1
489.718	1	11
490.910	1	-1
492.102	1	-1
493.294	1	5
494.486	1	10
495.678	1	-2
496.870	1	9
498.062	1	2
499.254	1	2
500.446	1	-1
501.638	1	-8
502.829	1	2
504.021	1	0
505.213	1	-1
506.404	1	7
507.596	1	8
508.788	1	5
509.979	1	9
511.171	1	3
512.362	1	6
513.553	1	12
514.745	1	3
515.936	1	10
517.127	1	11
518.319	1	11
519.510	1	6
520.701	1	4
521.892	1	6
523.083	1	0
524.274	1	10
525.465	1	9
526.656	1	9
527.847	1	6
529.038	1	2
530.229	1	17
531.419	1	10
532.610	1	9
533.801	1	8
534.991	1	3
536.182	1	5
537.373	1	8
538.563	1	6
539.754	1	4
540.944	1	-2
542.134	1	6
543.325	1	3
544.515	1	-3
545.705	1	8
546.896	1	8
548.086	1	5
549.276	1	7
550.466	1	5
551.656	1	8
552.846	1	2
554.036	1	1
555.226	1	3
556.416	1	2
557.606	1	4
558.796	1	-2
559.986	1	7
561.175	1	-7
562.365	1	8
563.555	1	3
564.744	1	10
565.934	1	-1
567.123	1	5
568.313	1	4
569.502	1	-4
570.692	1	8
571.881	1	-4
573.070	1	5
574.260	1	8
575.449	1	7
576.638	1	1
577.827	1	7
579.016	1	5
580.205	1	-2
581.394	1	3
582.583	1	2
583.772	1	-1
584.961	1	-9
586.150	1	-4
587.339	1	9
588.528	1	0
589.717	1	12
590.905	1	8
592.094	1	13
593.283	1	8
594.471	1	8
595.660	1	8
596.848	1	0
598.037	1	-5
599.225	1	6
600.413	1	-4
601.602	1	14
602.790	1	19
603.978	1	6
605.166	1	12
606.355	1	5
607.543	1	14
608.731	1	2
609.919	1	2
611.107	1	0
612.295	1	0
613.483	1	-8
614.671	1	9
615.858	1	6
617.046	1	-7
618.234	1	1
619.422	1	-5
620.609	1	3
621.797	1	3
622.985	1	4
624.172	1	-3
625.360	1	9
626.547	1	-2
627.735	1	-15
628.922	1	1
630.109	1	-2
631.297	1	-3
632.484	1	-6
633.671	1	7
634.858	1	3
636.045	1	8
637.232	1	7
638.419	1	0
639.606	1	-3
640.793	1	-1
641.980	1	-5
643.167	1	-2
644.354	1	5
645.541	1	7
646.728	1	3
647.914	1	12
649.101	1	11
650.288	1	6
651.474	1	9
652.661	1	3
653.847	1	10
655.034	1	-1
656.220	1	7
657.406	1	0
658.593	1	6
659.779	1	4
660.965	1	12
662.152	1	-3
663.338	1	3
664.524	1	10
665.710	1	12
666.896	1	5
668.082	1	8
669.268	1	-5
670.454	1	-1
671.640	1	-5
672.826	1	-3
674.011	1	2
675.197	1	4
676.383	1	4
677.569	1	-4
678.754	1	-4
679.940	1	3
681.125	1	12
682.311	1	-6
683.496	1	-3
684.682	1	2
685.867	1	1
687.053	1	-5
688.238	1	2
688.746	1	-1