File: Data/GaN_170K_550ms/GaN_sample D_spot 18_UVVIS_170 K_200um_550 ms 2x2mm1_312.txt
340.368	1	-6
341.565	1	1
342.763	1	1
343.960	1	7
345.157	1	-7
346.354	1	-6
347.552	1	8
348.749	1	7
349.946	1	12
351.143	1	-4
352.340	1	0
353.537	1	0
354.734	1	9
355.931	1	3
357.127	1	3
358.324	1	7
359.521	1	-4
360.718	1	1
361.914	1	-5
363.111	1	11
364.308	1	11
365.504	1	-1
366.701	1	10
367.897	1	10
369.093	1	4
370.290	1	7
371.486	1	4
372.682	1	4
373.879	1	3
375.075	1	2
376.271	1	7
377.467	1	6
378.663	1	7
379.859	1	10
381.055	1	1
382.251	1	4
383.447	1	1
384.643	1	-1
385.839	1	-3
387.035	1	2
388.230	1	1
389.426	1	9
390.622	1	-2
391.817	1	6
393.013	1	-6
394.208	1	8
395.404	1	7
396.599	1	-6
397.795	1	0
398.990	1	-1
400.186	1	0
401.381	1	9
402.576	1	3
403.771	1	0
404.967	1	2
406.162	1	7
407.357	1	-1
408.552	1	-5
409.747	1	-3
410.942	1	2
412.137	1	-4
413.332	1	-4
414.526	1	4
415.721	1	-3
416.916	1	0
418.111	1	3
419.305	1	-4
420.500	1	-5
421.695	1	-4
422.889	1	4
424.084	1	8
425.278	1	-3
426.472	1	3
427.667	1	0
428.861	1	2
430.055	1	1
431.250	1	11
432.444	1	5
433.638	1	11
434.832	1	7
436.026	1	-9
437.220	1	1
438.414	1	-2
439.608	1	-1
440.802	1	11
441.996	1	0
443.190	1	2
444.384	1	-4
445.578	1	-3
446.771	1	-9
447.965	1	4
449.159	1	-1
450.352	1	-5
451.546	1	-14
452.739	1	-2
453.933	1	4
455.126	1	9
456.320	1	1
457.513	1	3
458.706	1	4
459.899	1	-4
461.093	1	7
462.286	1	-7
463.479	1	-13
464.672	1	-3
465.865	1	0
467.058	1	3
468.251	1	-2
469.444	1	3
470.637	1	-2
471.830	1	4
473.023	1	3
474.215	1	4
475.408	1	-1
476.601	1	-2
477.793	1	8
478.986	1	5
480.179	1	-8
481.371	1	-9
482.564	1	6
483.756	1	3
484.948	1	0
486.141	1	11
487.333	1	-5
488.525	1	2
489.718	1	6
490.910	1	0
492.102	1	-1
493.294	1	-7
494.486	1	7
495.678	1	3
496.870	1	3
498.062	1	-11
499.254	1	12
500.446	1	-1
501.638	1	-10
502.829	1	1
504.021	1	3
505.213	1	-1
506.404	1	6
507.596	1	-4
508.788	1	-5
509.979	1	13
511.171	1	2
512.362	1	-1
513.553	1	-1
514.745	1	-2
515.936	1	-2
517.127	1	8
518.319	1	3
519.510	1	11
520.701	1	9
521.892	1	2
523.083	1	1
524.274	1	0
525.465	1	1
526.656	1	10
527.847	1	-3
529.038	1	5
530.229	1	18
531.419	1	4
532.610	1	1
533.801	1	3
534.991	1	-4
536.182	1	-2
537.373	1	-2
538.563	1	-6
539.754	1	-7
540.944	1	-6
542.134	1	-1
543.325	1	0
544.515	1	-1
545.705	1	8
546.896	1	5
548.086	1	1
549.276	1	5
550.466	1	1
551.656	1	3
552.846	1	0
554.036	1	-3
555.226	1	-7
556.416	1	4
557.606	1	2
558.796	1	4
559.986	1	2
561.175	1	-9
562.365	1	-5
563.555	1	-1
564.744	1	-6
565.934	1	3
567.123	1	0
568.313	1	-9
569.502	1	0
570.692	1	12
571.881	1	-4
573.070	1	8
574.260	1	-4
575.449	1	5
576.638	1	0
577.827	1	-6
579.016	1	0
580.205	1	-4
581.394	1	2
582.583	1	7
583.772	1	-6
584.961	1	-6
586.150	1	-5
587.339	1	-1
588.528	1	0
589.717	1	-1
590.905	1	7
592.094	1	7
593.283	1	-3
594.471	1	14
595.660	1	1
596.848	1	3
598.037	1	1
599.225	1	3
600.413	1	-7
601.602	1	-2
602.790	1	13
603.978	1	3
605.166	1	2
606.355	1	-2
607.543	1	1
608.731	1	2
609.919	1	-2
611.107	1	-8
612.295	1	0
613.483	1	-9
614.671	1	8
615.858	1	-7
617.046	1	-3
618.234	1	-4
619.422	1	-2
620.609	1	2
621.797	1	-5
622.985	1	-6
624.172	1	-3
625.360	1	6
626.547	1	1
627.735	1	-7
628.922	1	0
630.109	1	-7
631.297	1	-1
632.484	1	-9
633.671	1	6
634.858	1	2
636.045	1	4
637.232	1	-4
638.419	1	7
639.606	1	-8
640.793	1	-5
641.980	1	-2
643.167	1	-7
644.354	1	5
645.541	1	10
646.728	1	-4
647.914	1	2
649.101	1	-2
650.288	1	-3
651.474	1	9
652.661	1	0
653.847	1	3
655.034	1	2
656.220	1	5
657.406	1	7
658.593	1	3
659.779	1	-1
660.965	1	19
662.152	1	0
663.338	1	8
664.524	1	1
665.710	1	-1
666.896	1	-1
668.082	1	16
669.268	1	0
670.454	1	-8
671.640	1	3
672.826	1	2
674.011	1	7
675.197	1	6
676.383	1	-2
677.569	1	-8
678.754	1	-7
679.940	1	13
681.125	1	8
682.311	1	0
683.496	1	9
684.682	1	-1
685.867	1	10
687.053	1	-9
688.238	1	-3
688.746	1	-8