File: Data/GaN_170K_550ms/GaN_sample D_spot 18_UVVIS_170 K_200um_550 ms 2x2mm1_60.txt
340.368	1	-3
341.565	1	8
342.763	1	12
343.960	1	-2
345.157	1	7
346.354	1	-4
347.552	1	25
348.749	1	9
349.946	1	9
351.143	1	14
352.340	1	3
353.537	1	19
354.734	1	26
355.931	1	25
357.127	1	35
358.324	1	41
359.521	1	65
360.718	1	93
361.914	1	118
363.111	1	188
364.308	1	282
365.504	1	439
366.701	1	613
367.897	1	732
369.093	1	753
370.290	1	652
371.486	1	521
372.682	1	418
373.879	1	345
375.075	1	283
376.271	1	223
377.467	1	201
378.663	1	155
379.859	1	130
381.055	1	115
382.251	1	102
383.447	1	94
384.643	1	79
385.839	1	73
387.035	1	61
388.230	1	53
389.426	1	44
390.622	1	38
391.817	1	44
393.013	1	34
394.208	1	32
395.404	1	44
396.599	1	24
397.795	1	32
398.990	1	15
400.186	1	4
401.381	1	25
402.576	1	15
403.771	1	13
404.967	1	19
406.162	1	21
407.357	1	13
408.552	1	6
409.747	1	20
410.942	1	16
412.137	1	13
413.332	1	7
414.526	1	13
415.721	1	12
416.916	1	3
418.111	1	19
419.305	1	14
420.500	1	4
421.695	1	-3
422.889	1	0
424.084	1	17
425.278	1	8
426.472	1	19
427.667	1	17
428.861	1	20
430.055	1	15
431.250	1	32
432.444	1	12
433.638	1	20
434.832	1	11
436.026	1	3
437.220	1	2
438.414	1	4
439.608	1	0
440.802	1	18
441.996	1	3
443.190	1	14
444.384	1	16
445.578	1	21
446.771	1	-1
447.965	1	10
449.159	1	4
450.352	1	6
451.546	1	7
452.739	1	8
453.933	1	11
455.126	1	28
456.320	1	11
457.513	1	18
458.706	1	11
459.899	1	3
461.093	1	16
462.286	1	1
463.479	1	7
464.672	1	0
465.865	1	5
467.058	1	15
468.251	1	10
469.444	1	19
470.637	1	11
471.830	1	9
473.023	1	11
474.215	1	15
475.408	1	13
476.601	1	15
477.793	1	20
478.986	1	19
480.179	1	14
481.371	1	15
482.564	1	15
483.756	1	14
484.948	1	19
486.141	1	31
487.333	1	15
488.525	1	33
489.718	1	42
490.910	1	28
492.102	1	27
493.294	1	34
494.486	1	44
495.678	1	32
496.870	1	37
498.062	1	39
499.254	1	57
500.446	1	46
501.638	1	43
502.829	1	49
504.021	1	58
505.213	1	46
506.404	1	61
507.596	1	69
508.788	1	60
509.979	1	61
511.171	1	64
512.362	1	68
513.553	1	71
514.745	1	73
515.936	1	72
517.127	1	82
518.319	1	78
519.510	1	87
520.701	1	79
521.892	1	82
523.083	1	81
524.274	1	76
525.465	1	90
526.656	1	100
527.847	1	89
529.038	1	78
530.229	1	105
531.419	1	98
532.610	1	99
533.801	1	84
534.991	1	86
536.182	1	89
537.373	1	71
538.563	1	74
539.754	1	76
540.944	1	63
542.134	1	79
543.325	1	73
544.515	1	77
545.705	1	88
546.896	1	82
548.086	1	73
549.276	1	89
550.466	1	87
551.656	1	83
552.846	1	73
554.036	1	68
555.226	1	64
556.416	1	66
557.606	1	71
558.796	1	50
559.986	1	59
561.175	1	49
562.365	1	54
563.555	1	61
564.744	1	53
565.934	1	64
567.123	1	62
568.313	1	50
569.502	1	50
570.692	1	49
571.881	1	46
573.070	1	45
574.260	1	42
575.449	1	54
576.638	1	55
577.827	1	43
579.016	1	47
580.205	1	43
581.394	1	50
582.583	1	42
583.772	1	42
584.961	1	44
586.150	1	35
587.339	1	35
588.528	1	30
589.717	1	36
590.905	1	33
592.094	1	41
593.283	1	40
594.471	1	33
595.660	1	33
596.848	1	26
598.037	1	28
599.225	1	38
600.413	1	24
601.602	1	31
602.790	1	38
603.978	1	29
605.166	1	28
606.355	1	33
607.543	1	31
608.731	1	28
609.919	1	14
611.107	1	20
612.295	1	30
613.483	1	23
614.671	1	33
615.858	1	13
617.046	1	6
618.234	1	19
619.422	1	15
620.609	1	15
621.797	1	22
622.985	1	24
624.172	1	13
625.360	1	24
626.547	1	3
627.735	1	3
628.922	1	8
630.109	1	9
631.297	1	7
632.484	1	16
633.671	1	17
634.858	1	13
636.045	1	19
637.232	1	11
638.419	1	8
639.606	1	12
640.793	1	14
641.980	1	10
643.167	1	8
644.354	1	18
645.541	1	13
646.728	1	17
647.914	1	9
649.101	1	12
650.288	1	16
651.474	1	18
652.661	1	18
653.847	1	8
655.034	1	20
656.220	1	7
657.406	1	10
658.593	1	7
659.779	1	12
660.965	1	21
662.152	1	13
663.338	1	20
664.524	1	19
665.710	1	20
666.896	1	10
668.082	1	16
669.268	1	3
670.454	1	7
671.640	1	13
672.826	1	17
674.011	1	12
675.197	1	16
676.383	1	15
677.569	1	9
678.754	1	13
679.940	1	18
681.125	1	14
682.311	1	6
683.496	1	18
684.682	1	13
685.867	1	13
687.053	1	7
688.238	1	12
688.746	1	1