File: Data/GaN_170K_550ms/GaN_sample D_spot 18_UVVIS_170 K_200um_550 ms 2x2mm1_335.txt
340.368	1	-3
341.565	1	1
342.763	1	4
343.960	1	2
345.157	1	5
346.354	1	-7
347.552	1	9
348.749	1	2
349.946	1	4
351.143	1	2
352.340	1	8
353.537	1	4
354.734	1	3
355.931	1	-5
357.127	1	3
358.324	1	1
359.521	1	5
360.718	1	14
361.914	1	6
363.111	1	1
364.308	1	11
365.504	1	-3
366.701	1	6
367.897	1	-1
369.093	1	-8
370.290	1	5
371.486	1	3
372.682	1	4
373.879	1	8
375.075	1	4
376.271	1	15
377.467	1	8
378.663	1	4
379.859	1	4
381.055	1	-1
382.251	1	4
383.447	1	7
384.643	1	-7
385.839	1	-2
387.035	1	-1
388.230	1	-2
389.426	1	7
390.622	1	1
391.817	1	-2
393.013	1	-3
394.208	1	7
395.404	1	3
396.599	1	-9
397.795	1	-2
398.990	1	-13
400.186	1	-13
401.381	1	7
402.576	1	-4
403.771	1	4
404.967	1	1
406.162	1	6
407.357	1	-2
408.552	1	3
409.747	1	2
410.942	1	8
412.137	1	-7
413.332	1	-6
414.526	1	8
415.721	1	-3
416.916	1	-7
418.111	1	8
419.305	1	2
420.500	1	1
421.695	1	-14
422.889	1	5
424.084	1	10
425.278	1	0
426.472	1	-2
427.667	1	-4
428.861	1	0
430.055	1	0
431.250	1	9
432.444	1	3
433.638	1	1
434.832	1	3
436.026	1	-5
437.220	1	0
438.414	1	-13
439.608	1	-4
440.802	1	10
441.996	1	-9
443.190	1	4
444.384	1	-1
445.578	1	10
446.771	1	-14
447.965	1	0
449.159	1	0
450.352	1	-6
451.546	1	-4
452.739	1	2
453.933	1	-3
455.126	1	10
456.320	1	1
457.513	1	5
458.706	1	8
459.899	1	1
461.093	1	0
462.286	1	-4
463.479	1	0
464.672	1	2
465.865	1	0
467.058	1	1
468.251	1	0
469.444	1	2
470.637	1	3
471.830	1	-5
473.023	1	0
474.215	1	10
475.408	1	-2
476.601	1	1
477.793	1	2
478.986	1	-5
480.179	1	-3
481.371	1	0
482.564	1	-5
483.756	1	4
484.948	1	-1
486.141	1	4
487.333	1	-13
488.525	1	5
489.718	1	3
490.910	1	0
492.102	1	3
493.294	1	-4
494.486	1	9
495.678	1	-2
496.870	1	8
498.062	1	-10
499.254	1	4
500.446	1	-3
501.638	1	-6
502.829	1	-2
504.021	1	4
505.213	1	6
506.404	1	0
507.596	1	7
508.788	1	-6
509.979	1	6
511.171	1	-3
512.362	1	-8
513.553	1	3
514.745	1	5
515.936	1	4
517.127	1	6
518.319	1	5
519.510	1	2
520.701	1	-1
521.892	1	-3
523.083	1	-4
524.274	1	-12
525.465	1	4
526.656	1	4
527.847	1	1
529.038	1	0
530.229	1	16
531.419	1	11
532.610	1	8
533.801	1	3
534.991	1	-3
536.182	1	-4
537.373	1	-5
538.563	1	-2
539.754	1	8
540.944	1	5
542.134	1	5
543.325	1	-4
544.515	1	2
545.705	1	3
546.896	1	-3
548.086	1	5
549.276	1	3
550.466	1	-4
551.656	1	5
552.846	1	0
554.036	1	3
555.226	1	-7
556.416	1	-4
557.606	1	5
558.796	1	-5
559.986	1	9
561.175	1	-13
562.365	1	-4
563.555	1	2
564.744	1	-1
565.934	1	-1
567.123	1	2
568.313	1	0
569.502	1	-6
570.692	1	4
571.881	1	0
573.070	1	-5
574.260	1	0
575.449	1	4
576.638	1	-1
577.827	1	-9
579.016	1	4
580.205	1	0
581.394	1	-2
582.583	1	0
583.772	1	-3
584.961	1	8
586.150	1	-6
587.339	1	-1
588.528	1	-4
589.717	1	-3
590.905	1	6
592.094	1	4
593.283	1	2
594.471	1	6
595.660	1	6
596.848	1	5
598.037	1	0
599.225	1	0
600.413	1	-9
601.602	1	2
602.790	1	10
603.978	1	-2
605.166	1	9
606.355	1	1
607.543	1	0
608.731	1	-6
609.919	1	-6
611.107	1	-3
612.295	1	6
613.483	1	-2
614.671	1	11
615.858	1	1
617.046	1	-3
618.234	1	2
619.422	1	-10
620.609	1	1
621.797	1	3
622.985	1	4
624.172	1	-3
625.360	1	4
626.547	1	1
627.735	1	-13
628.922	1	-9
630.109	1	5
631.297	1	0
632.484	1	-1
633.671	1	3
634.858	1	3
636.045	1	9
637.232	1	5
638.419	1	-4
639.606	1	-7
640.793	1	-1
641.980	1	-5
643.167	1	-8
644.354	1	0
645.541	1	4
646.728	1	-5
647.914	1	-4
649.101	1	-2
650.288	1	-1
651.474	1	2
652.661	1	-2
653.847	1	-4
655.034	1	-5
656.220	1	2
657.406	1	1
658.593	1	3
659.779	1	0
660.965	1	15
662.152	1	10
663.338	1	2
664.524	1	6
665.710	1	6
666.896	1	1
668.082	1	7
669.268	1	4
670.454	1	-4
671.640	1	5
672.826	1	-2
674.011	1	-1
675.197	1	-1
676.383	1	7
677.569	1	-7
678.754	1	0
679.940	1	5
681.125	1	4
682.311	1	2
683.496	1	-5
684.682	1	1
685.867	1	4
687.053	1	-8
688.238	1	-2
688.746	1	-14