File: Data/GaN_170K_550ms/GaN_sample D_spot 18_UVVIS_170 K_200um_550 ms 2x2mm1_260.txt
340.368	1	3
341.565	1	1
342.763	1	2
343.960	1	-4
345.157	1	0
346.354	1	-5
347.552	1	1
348.749	1	3
349.946	1	7
351.143	1	-1
352.340	1	8
353.537	1	-6
354.734	1	1
355.931	1	1
357.127	1	1
358.324	1	10
359.521	1	6
360.718	1	-1
361.914	1	3
363.111	1	12
364.308	1	15
365.504	1	7
366.701	1	11
367.897	1	6
369.093	1	10
370.290	1	9
371.486	1	0
372.682	1	16
373.879	1	9
375.075	1	-1
376.271	1	14
377.467	1	6
378.663	1	1
379.859	1	-1
381.055	1	6
382.251	1	3
383.447	1	8
384.643	1	0
385.839	1	0
387.035	1	4
388.230	1	-4
389.426	1	4
390.622	1	7
391.817	1	5
393.013	1	0
394.208	1	2
395.404	1	5
396.599	1	4
397.795	1	-4
398.990	1	-8
400.186	1	-5
401.381	1	7
402.576	1	-1
403.771	1	7
404.967	1	3
406.162	1	-4
407.357	1	1
408.552	1	-4
409.747	1	-2
410.942	1	-5
412.137	1	-7
413.332	1	8
414.526	1	-5
415.721	1	-7
416.916	1	-6
418.111	1	5
419.305	1	4
420.500	1	-12
421.695	1	-1
422.889	1	0
424.084	1	8
425.278	1	0
426.472	1	2
427.667	1	5
428.861	1	3
430.055	1	-5
431.250	1	11
432.444	1	5
433.638	1	3
434.832	1	11
436.026	1	5
437.220	1	0
438.414	1	-14
439.608	1	4
440.802	1	3
441.996	1	-3
443.190	1	4
444.384	1	-1
445.578	1	2
446.771	1	-18
447.965	1	4
449.159	1	-6
450.352	1	-6
451.546	1	-7
452.739	1	1
453.933	1	2
455.126	1	7
456.320	1	-6
457.513	1	1
458.706	1	3
459.899	1	-4
461.093	1	1
462.286	1	0
463.479	1	-6
464.672	1	-7
465.865	1	5
467.058	1	1
468.251	1	3
469.444	1	-5
470.637	1	-3
471.830	1	6
473.023	1	5
474.215	1	0
475.408	1	-10
476.601	1	1
477.793	1	14
478.986	1	4
480.179	1	-5
481.371	1	-2
482.564	1	2
483.756	1	1
484.948	1	1
486.141	1	7
487.333	1	-9
488.525	1	6
489.718	1	0
490.910	1	-3
492.102	1	9
493.294	1	-3
494.486	1	5
495.678	1	1
496.870	1	-5
498.062	1	-6
499.254	1	11
500.446	1	0
501.638	1	-12
502.829	1	9
504.021	1	1
505.213	1	-7
506.404	1	3
507.596	1	0
508.788	1	-9
509.979	1	-1
511.171	1	8
512.362	1	-2
513.553	1	-1
514.745	1	1
515.936	1	-4
517.127	1	4
518.319	1	7
519.510	1	2
520.701	1	5
521.892	1	-5
523.083	1	6
524.274	1	-3
525.465	1	4
526.656	1	7
527.847	1	1
529.038	1	-2
530.229	1	13
531.419	1	10
532.610	1	7
533.801	1	9
534.991	1	2
536.182	1	4
537.373	1	4
538.563	1	-2
539.754	1	3
540.944	1	0
542.134	1	-6
543.325	1	6
544.515	1	8
545.705	1	8
546.896	1	6
548.086	1	12
549.276	1	8
550.466	1	1
551.656	1	0
552.846	1	-5
554.036	1	6
555.226	1	-6
556.416	1	1
557.606	1	5
558.796	1	-1
559.986	1	4
561.175	1	-4
562.365	1	1
563.555	1	6
564.744	1	-1
565.934	1	8
567.123	1	5
568.313	1	0
569.502	1	1
570.692	1	-2
571.881	1	-4
573.070	1	4
574.260	1	10
575.449	1	6
576.638	1	5
577.827	1	0
579.016	1	-2
580.205	1	-3
581.394	1	0
582.583	1	6
583.772	1	-2
584.961	1	8
586.150	1	-10
587.339	1	3
588.528	1	-9
589.717	1	0
590.905	1	11
592.094	1	8
593.283	1	11
594.471	1	0
595.660	1	1
596.848	1	-6
598.037	1	-3
599.225	1	-2
600.413	1	-12
601.602	1	5
602.790	1	7
603.978	1	6
605.166	1	1
606.355	1	6
607.543	1	18
608.731	1	2
609.919	1	1
611.107	1	-6
612.295	1	-5
613.483	1	-2
614.671	1	8
615.858	1	0
617.046	1	0
618.234	1	8
619.422	1	1
620.609	1	8
621.797	1	4
622.985	1	0
624.172	1	8
625.360	1	3
626.547	1	-4
627.735	1	-17
628.922	1	-8
630.109	1	-5
631.297	1	-3
632.484	1	-7
633.671	1	10
634.858	1	4
636.045	1	6
637.232	1	0
638.419	1	-10
639.606	1	-1
640.793	1	5
641.980	1	-5
643.167	1	5
644.354	1	3
645.541	1	1
646.728	1	6
647.914	1	0
649.101	1	6
650.288	1	-1
651.474	1	9
652.661	1	8
653.847	1	2
655.034	1	1
656.220	1	0
657.406	1	5
658.593	1	1
659.779	1	3
660.965	1	10
662.152	1	-3
663.338	1	3
664.524	1	4
665.710	1	7
666.896	1	4
668.082	1	8
669.268	1	0
670.454	1	-4
671.640	1	7
672.826	1	0
674.011	1	6
675.197	1	3
676.383	1	5
677.569	1	0
678.754	1	4
679.940	1	7
681.125	1	3
682.311	1	0
683.496	1	1
684.682	1	2
685.867	1	2
687.053	1	-12
688.238	1	-4
688.746	1	2