File: Data/GaN_170K_550ms/GaN_sample D_spot 18_UVVIS_170 K_200um_550 ms 2x2mm1_156.txt
340.368	1	7
341.565	1	0
342.763	1	-1
343.960	1	-3
345.157	1	-1
346.354	1	-8
347.552	1	10
348.749	1	4
349.946	1	1
351.143	1	6
352.340	1	7
353.537	1	-2
354.734	1	4
355.931	1	2
357.127	1	9
358.324	1	9
359.521	1	12
360.718	1	17
361.914	1	14
363.111	1	18
364.308	1	19
365.504	1	24
366.701	1	22
367.897	1	33
369.093	1	23
370.290	1	29
371.486	1	19
372.682	1	26
373.879	1	23
375.075	1	20
376.271	1	14
377.467	1	16
378.663	1	8
379.859	1	12
381.055	1	11
382.251	1	9
383.447	1	14
384.643	1	8
385.839	1	4
387.035	1	2
388.230	1	5
389.426	1	8
390.622	1	1
391.817	1	7
393.013	1	7
394.208	1	12
395.404	1	9
396.599	1	-2
397.795	1	5
398.990	1	1
400.186	1	-4
401.381	1	17
402.576	1	-3
403.771	1	0
404.967	1	6
406.162	1	5
407.357	1	7
408.552	1	-4
409.747	1	-7
410.942	1	6
412.137	1	-4
413.332	1	6
414.526	1	4
415.721	1	0
416.916	1	-3
418.111	1	8
419.305	1	4
420.500	1	-1
421.695	1	-10
422.889	1	0
424.084	1	12
425.278	1	0
426.472	1	-4
427.667	1	0
428.861	1	6
430.055	1	-1
431.250	1	20
432.444	1	3
433.638	1	10
434.832	1	11
436.026	1	9
437.220	1	-2
438.414	1	4
439.608	1	1
440.802	1	7
441.996	1	-1
443.190	1	5
444.384	1	-3
445.578	1	13
446.771	1	-3
447.965	1	7
449.159	1	1
450.352	1	-6
451.546	1	-4
452.739	1	8
453.933	1	-1
455.126	1	8
456.320	1	4
457.513	1	4
458.706	1	8
459.899	1	-1
461.093	1	8
462.286	1	1
463.479	1	0
464.672	1	3
465.865	1	-2
467.058	1	9
468.251	1	8
469.444	1	-3
470.637	1	-6
471.830	1	-1
473.023	1	2
474.215	1	12
475.408	1	-8
476.601	1	3
477.793	1	0
478.986	1	-2
480.179	1	-8
481.371	1	-1
482.564	1	-4
483.756	1	0
484.948	1	-5
486.141	1	5
487.333	1	-5
488.525	1	8
489.718	1	3
490.910	1	0
492.102	1	0
493.294	1	-4
494.486	1	9
495.678	1	9
496.870	1	1
498.062	1	3
499.254	1	7
500.446	1	2
501.638	1	-1
502.829	1	7
504.021	1	7
505.213	1	6
506.404	1	6
507.596	1	15
508.788	1	-2
509.979	1	-4
511.171	1	2
512.362	1	3
513.553	1	2
514.745	1	0
515.936	1	5
517.127	1	5
518.319	1	7
519.510	1	1
520.701	1	6
521.892	1	13
523.083	1	0
524.274	1	14
525.465	1	11
526.656	1	12
527.847	1	7
529.038	1	2
530.229	1	12
531.419	1	13
532.610	1	3
533.801	1	9
534.991	1	5
536.182	1	7
537.373	1	6
538.563	1	8
539.754	1	-1
540.944	1	0
542.134	1	-3
543.325	1	6
544.515	1	9
545.705	1	7
546.896	1	3
548.086	1	8
549.276	1	4
550.466	1	3
551.656	1	3
552.846	1	4
554.036	1	9
555.226	1	-12
556.416	1	-4
557.606	1	4
558.796	1	4
559.986	1	7
561.175	1	-8
562.365	1	1
563.555	1	2
564.744	1	0
565.934	1	5
567.123	1	3
568.313	1	3
569.502	1	9
570.692	1	16
571.881	1	-1
573.070	1	1
574.260	1	9
575.449	1	11
576.638	1	6
577.827	1	6
579.016	1	4
580.205	1	3
581.394	1	5
582.583	1	2
583.772	1	-2
584.961	1	-8
586.150	1	-3
587.339	1	7
588.528	1	-2
589.717	1	2
590.905	1	4
592.094	1	13
593.283	1	14
594.471	1	10
595.660	1	4
596.848	1	7
598.037	1	-2
599.225	1	-7
600.413	1	0
601.602	1	2
602.790	1	5
603.978	1	1
605.166	1	9
606.355	1	2
607.543	1	6
608.731	1	8
609.919	1	6
611.107	1	-3
612.295	1	2
613.483	1	-6
614.671	1	16
615.858	1	3
617.046	1	-3
618.234	1	3
619.422	1	4
620.609	1	-5
621.797	1	2
622.985	1	5
624.172	1	4
625.360	1	-3
626.547	1	3
627.735	1	-3
628.922	1	-5
630.109	1	-8
631.297	1	-3
632.484	1	4
633.671	1	7
634.858	1	-1
636.045	1	3
637.232	1	4
638.419	1	-10
639.606	1	-3
640.793	1	1
641.980	1	-2
643.167	1	-5
644.354	1	-3
645.541	1	4
646.728	1	-3
647.914	1	2
649.101	1	7
650.288	1	6
651.474	1	8
652.661	1	-1
653.847	1	3
655.034	1	-3
656.220	1	0
657.406	1	-1
658.593	1	2
659.779	1	-3
660.965	1	12
662.152	1	4
663.338	1	14
664.524	1	2
665.710	1	1
666.896	1	-5
668.082	1	14
669.268	1	-5
670.454	1	0
671.640	1	7
672.826	1	7
674.011	1	7
675.197	1	8
676.383	1	7
677.569	1	-5
678.754	1	4
679.940	1	13
681.125	1	4
682.311	1	5
683.496	1	8
684.682	1	2
685.867	1	-1
687.053	1	-13
688.238	1	1
688.746	1	4