File: Data/GaN_170K_550ms/GaN_sample D_spot 18_UVVIS_170 K_200um_550 ms 2x2mm1_103.txt
340.368	1	6
341.565	1	8
342.763	1	-2
343.960	1	2
345.157	1	5
346.354	1	-2
347.552	1	9
348.749	1	3
349.946	1	7
351.143	1	7
352.340	1	12
353.537	1	-1
354.734	1	11
355.931	1	1
357.127	1	8
358.324	1	17
359.521	1	20
360.718	1	13
361.914	1	32
363.111	1	36
364.308	1	46
365.504	1	56
366.701	1	76
367.897	1	79
369.093	1	73
370.290	1	75
371.486	1	59
372.682	1	66
373.879	1	55
375.075	1	41
376.271	1	41
377.467	1	37
378.663	1	31
379.859	1	25
381.055	1	17
382.251	1	14
383.447	1	23
384.643	1	10
385.839	1	4
387.035	1	12
388.230	1	9
389.426	1	10
390.622	1	6
391.817	1	9
393.013	1	3
394.208	1	14
395.404	1	14
396.599	1	1
397.795	1	1
398.990	1	-5
400.186	1	1
401.381	1	12
402.576	1	-2
403.771	1	1
404.967	1	2
406.162	1	3
407.357	1	2
408.552	1	0
409.747	1	4
410.942	1	3
412.137	1	7
413.332	1	0
414.526	1	7
415.721	1	0
416.916	1	10
418.111	1	6
419.305	1	8
420.500	1	9
421.695	1	-2
422.889	1	-4
424.084	1	19
425.278	1	4
426.472	1	8
427.667	1	12
428.861	1	0
430.055	1	2
431.250	1	17
432.444	1	11
433.638	1	0
434.832	1	11
436.026	1	-5
437.220	1	0
438.414	1	-2
439.608	1	-3
440.802	1	13
441.996	1	1
443.190	1	1
444.384	1	-5
445.578	1	6
446.771	1	-5
447.965	1	3
449.159	1	3
450.352	1	-6
451.546	1	-3
452.739	1	6
453.933	1	4
455.126	1	6
456.320	1	1
457.513	1	3
458.706	1	2
459.899	1	4
461.093	1	11
462.286	1	4
463.479	1	5
464.672	1	-3
465.865	1	2
467.058	1	8
468.251	1	1
469.444	1	-1
470.637	1	2
471.830	1	0
473.023	1	6
474.215	1	-2
475.408	1	-2
476.601	1	4
477.793	1	9
478.986	1	-8
480.179	1	3
481.371	1	-1
482.564	1	4
483.756	1	12
484.948	1	7
486.141	1	15
487.333	1	0
488.525	1	20
489.718	1	8
490.910	1	3
492.102	1	11
493.294	1	5
494.486	1	14
495.678	1	8
496.870	1	8
498.062	1	15
499.254	1	9
500.446	1	15
501.638	1	0
502.829	1	18
504.021	1	15
505.213	1	8
506.404	1	15
507.596	1	18
508.788	1	7
509.979	1	8
511.171	1	1
512.362	1	10
513.553	1	11
514.745	1	2
515.936	1	3
517.127	1	16
518.319	1	14
519.510	1	20
520.701	1	15
521.892	1	10
523.083	1	17
524.274	1	12
525.465	1	10
526.656	1	22
527.847	1	11
529.038	1	9
530.229	1	19
531.419	1	31
532.610	1	11
533.801	1	18
534.991	1	7
536.182	1	5
537.373	1	5
538.563	1	11
539.754	1	18
540.944	1	8
542.134	1	6
543.325	1	14
544.515	1	12
545.705	1	13
546.896	1	7
548.086	1	18
549.276	1	10
550.466	1	5
551.656	1	17
552.846	1	5
554.036	1	8
555.226	1	-1
556.416	1	11
557.606	1	15
558.796	1	13
559.986	1	15
561.175	1	-4
562.365	1	9
563.555	1	7
564.744	1	17
565.934	1	5
567.123	1	9
568.313	1	6
569.502	1	14
570.692	1	18
571.881	1	3
573.070	1	10
574.260	1	11
575.449	1	11
576.638	1	9
577.827	1	4
579.016	1	13
580.205	1	12
581.394	1	11
582.583	1	18
583.772	1	5
584.961	1	8
586.150	1	-3
587.339	1	7
588.528	1	6
589.717	1	6
590.905	1	8
592.094	1	18
593.283	1	9
594.471	1	8
595.660	1	7
596.848	1	8
598.037	1	4
599.225	1	10
600.413	1	-2
601.602	1	9
602.790	1	19
603.978	1	10
605.166	1	14
606.355	1	13
607.543	1	18
608.731	1	5
609.919	1	5
611.107	1	4
612.295	1	-1
613.483	1	-9
614.671	1	6
615.858	1	2
617.046	1	-4
618.234	1	10
619.422	1	3
620.609	1	-3
621.797	1	2
622.985	1	12
624.172	1	-2
625.360	1	5
626.547	1	6
627.735	1	-5
628.922	1	-2
630.109	1	2
631.297	1	2
632.484	1	-7
633.671	1	12
634.858	1	7
636.045	1	9
637.232	1	9
638.419	1	-6
639.606	1	-6
640.793	1	-2
641.980	1	-3
643.167	1	-3
644.354	1	1
645.541	1	2
646.728	1	0
647.914	1	9
649.101	1	4
650.288	1	0
651.474	1	8
652.661	1	3
653.847	1	7
655.034	1	-3
656.220	1	2
657.406	1	13
658.593	1	10
659.779	1	4
660.965	1	10
662.152	1	-1
663.338	1	7
664.524	1	2
665.710	1	7
666.896	1	4
668.082	1	2
669.268	1	0
670.454	1	-8
671.640	1	7
672.826	1	-5
674.011	1	13
675.197	1	14
676.383	1	4
677.569	1	0
678.754	1	-1
679.940	1	9
681.125	1	8
682.311	1	5
683.496	1	11
684.682	1	13
685.867	1	4
687.053	1	-8
688.238	1	1
688.746	1	0