File: Data/GaN_170K_550ms/GaN_sample D_spot 18_UVVIS_170 K_200um_550 ms 2x2mm1_280.txt
340.368	1	3
341.565	1	4
342.763	1	-2
343.960	1	-4
345.157	1	0
346.354	1	-12
347.552	1	7
348.749	1	11
349.946	1	1
351.143	1	-6
352.340	1	9
353.537	1	3
354.734	1	8
355.931	1	2
357.127	1	3
358.324	1	14
359.521	1	-1
360.718	1	7
361.914	1	9
363.111	1	18
364.308	1	4
365.504	1	2
366.701	1	5
367.897	1	10
369.093	1	3
370.290	1	11
371.486	1	-4
372.682	1	8
373.879	1	15
375.075	1	7
376.271	1	9
377.467	1	12
378.663	1	10
379.859	1	0
381.055	1	3
382.251	1	5
383.447	1	16
384.643	1	2
385.839	1	-6
387.035	1	-3
388.230	1	-3
389.426	1	4
390.622	1	-2
391.817	1	1
393.013	1	-5
394.208	1	4
395.404	1	7
396.599	1	-7
397.795	1	4
398.990	1	-3
400.186	1	-6
401.381	1	5
402.576	1	1
403.771	1	5
404.967	1	1
406.162	1	5
407.357	1	3
408.552	1	-2
409.747	1	3
410.942	1	0
412.137	1	-6
413.332	1	-3
414.526	1	-1
415.721	1	-1
416.916	1	-10
418.111	1	8
419.305	1	1
420.500	1	-2
421.695	1	-4
422.889	1	2
424.084	1	17
425.278	1	-6
426.472	1	5
427.667	1	2
428.861	1	-2
430.055	1	5
431.250	1	19
432.444	1	4
433.638	1	5
434.832	1	1
436.026	1	4
437.220	1	6
438.414	1	3
439.608	1	-3
440.802	1	11
441.996	1	0
443.190	1	-5
444.384	1	2
445.578	1	5
446.771	1	-14
447.965	1	-5
449.159	1	-4
450.352	1	0
451.546	1	-1
452.739	1	0
453.933	1	4
455.126	1	17
456.320	1	2
457.513	1	7
458.706	1	7
459.899	1	1
461.093	1	6
462.286	1	-2
463.479	1	-12
464.672	1	-14
465.865	1	3
467.058	1	6
468.251	1	1
469.444	1	3
470.637	1	-3
471.830	1	-3
473.023	1	11
474.215	1	2
475.408	1	-10
476.601	1	12
477.793	1	15
478.986	1	-6
480.179	1	-8
481.371	1	-1
482.564	1	2
483.756	1	7
484.948	1	-8
486.141	1	12
487.333	1	-11
488.525	1	8
489.718	1	3
490.910	1	-1
492.102	1	0
493.294	1	-1
494.486	1	8
495.678	1	0
496.870	1	6
498.062	1	5
499.254	1	14
500.446	1	-1
501.638	1	-3
502.829	1	-5
504.021	1	4
505.213	1	-7
506.404	1	5
507.596	1	8
508.788	1	-9
509.979	1	5
511.171	1	0
512.362	1	-2
513.553	1	-1
514.745	1	-4
515.936	1	2
517.127	1	0
518.319	1	4
519.510	1	11
520.701	1	1
521.892	1	1
523.083	1	3
524.274	1	7
525.465	1	2
526.656	1	-1
527.847	1	-2
529.038	1	-10
530.229	1	13
531.419	1	3
532.610	1	7
533.801	1	-3
534.991	1	-1
536.182	1	6
537.373	1	3
538.563	1	2
539.754	1	4
540.944	1	-1
542.134	1	-6
543.325	1	1
544.515	1	0
545.705	1	14
546.896	1	6
548.086	1	0
549.276	1	3
550.466	1	2
551.656	1	4
552.846	1	-4
554.036	1	0
555.226	1	0
556.416	1	1
557.606	1	-3
558.796	1	1
559.986	1	7
561.175	1	-10
562.365	1	3
563.555	1	2
564.744	1	2
565.934	1	9
567.123	1	1
568.313	1	-1
569.502	1	6
570.692	1	6
571.881	1	8
573.070	1	-9
574.260	1	10
575.449	1	7
576.638	1	10
577.827	1	-7
579.016	1	7
580.205	1	-6
581.394	1	3
582.583	1	-4
583.772	1	9
584.961	1	4
586.150	1	-7
587.339	1	7
588.528	1	2
589.717	1	6
590.905	1	8
592.094	1	9
593.283	1	2
594.471	1	9
595.660	1	0
596.848	1	2
598.037	1	-5
599.225	1	10
600.413	1	-7
601.602	1	-5
602.790	1	7
603.978	1	5
605.166	1	1
606.355	1	7
607.543	1	11
608.731	1	4
609.919	1	-7
611.107	1	0
612.295	1	2
613.483	1	-2
614.671	1	5
615.858	1	-5
617.046	1	-3
618.234	1	0
619.422	1	-4
620.609	1	-1
621.797	1	0
622.985	1	3
624.172	1	0
625.360	1	1
626.547	1	-8
627.735	1	-10
628.922	1	2
630.109	1	-8
631.297	1	1
632.484	1	-2
633.671	1	9
634.858	1	1
636.045	1	-4
637.232	1	2
638.419	1	-4
639.606	1	-4
640.793	1	-5
641.980	1	-7
643.167	1	-1
644.354	1	-2
645.541	1	2
646.728	1	0
647.914	1	4
649.101	1	-1
650.288	1	-2
651.474	1	12
652.661	1	4
653.847	1	4
655.034	1	0
656.220	1	-1
657.406	1	-1
658.593	1	2
659.779	1	5
660.965	1	10
662.152	1	1
663.338	1	1
664.524	1	1
665.710	1	-2
666.896	1	2
668.082	1	9
669.268	1	-6
670.454	1	-6
671.640	1	3
672.826	1	-6
674.011	1	8
675.197	1	0
676.383	1	-3
677.569	1	-6
678.754	1	-4
679.940	1	16
681.125	1	4
682.311	1	1
683.496	1	2
684.682	1	-1
685.867	1	8
687.053	1	-10
688.238	1	0
688.746	1	-7