File: Data/GaN_170K_550ms/GaN_sample D_spot 18_UVVIS_170 K_200um_550 ms 2x2mm1_380.txt
340.368	1	-3
341.565	1	7
342.763	1	-7
343.960	1	1
345.157	1	-4
346.354	1	-5
347.552	1	5
348.749	1	2
349.946	1	5
351.143	1	2
352.340	1	2
353.537	1	4
354.734	1	6
355.931	1	1
357.127	1	0
358.324	1	8
359.521	1	5
360.718	1	-4
361.914	1	8
363.111	1	7
364.308	1	2
365.504	1	9
366.701	1	7
367.897	1	13
369.093	1	1
370.290	1	4
371.486	1	-4
372.682	1	5
373.879	1	10
375.075	1	-5
376.271	1	10
377.467	1	8
378.663	1	-4
379.859	1	11
381.055	1	4
382.251	1	1
383.447	1	4
384.643	1	1
385.839	1	-10
387.035	1	0
388.230	1	-7
389.426	1	-3
390.622	1	3
391.817	1	-2
393.013	1	-3
394.208	1	5
395.404	1	6
396.599	1	-8
397.795	1	1
398.990	1	-6
400.186	1	1
401.381	1	3
402.576	1	-7
403.771	1	2
404.967	1	6
406.162	1	4
407.357	1	-5
408.552	1	3
409.747	1	-1
410.942	1	3
412.137	1	-6
413.332	1	-1
414.526	1	-11
415.721	1	-1
416.916	1	-4
418.111	1	6
419.305	1	2
420.500	1	-1
421.695	1	-4
422.889	1	8
424.084	1	20
425.278	1	-5
426.472	1	3
427.667	1	-3
428.861	1	3
430.055	1	1
431.250	1	14
432.444	1	7
433.638	1	7
434.832	1	1
436.026	1	-6
437.220	1	11
438.414	1	-17
439.608	1	-3
440.802	1	5
441.996	1	-5
443.190	1	5
444.384	1	-11
445.578	1	4
446.771	1	-7
447.965	1	7
449.159	1	2
450.352	1	-5
451.546	1	-7
452.739	1	-2
453.933	1	-6
455.126	1	5
456.320	1	-3
457.513	1	-3
458.706	1	6
459.899	1	4
461.093	1	7
462.286	1	-13
463.479	1	2
464.672	1	-8
465.865	1	13
467.058	1	-5
468.251	1	-3
469.444	1	3
470.637	1	2
471.830	1	5
473.023	1	5
474.215	1	-6
475.408	1	0
476.601	1	3
477.793	1	8
478.986	1	1
480.179	1	-1
481.371	1	-7
482.564	1	-2
483.756	1	-2
484.948	1	-1
486.141	1	11
487.333	1	-3
488.525	1	3
489.718	1	4
490.910	1	3
492.102	1	-5
493.294	1	1
494.486	1	13
495.678	1	11
496.870	1	4
498.062	1	-5
499.254	1	8
500.446	1	-5
501.638	1	-5
502.829	1	7
504.021	1	3
505.213	1	1
506.404	1	4
507.596	1	-3
508.788	1	-9
509.979	1	5
511.171	1	15
512.362	1	-12
513.553	1	2
514.745	1	4
515.936	1	7
517.127	1	4
518.319	1	4
519.510	1	7
520.701	1	12
521.892	1	-1
523.083	1	-4
524.274	1	1
525.465	1	3
526.656	1	5
527.847	1	1
529.038	1	-2
530.229	1	12
531.419	1	6
532.610	1	4
533.801	1	6
534.991	1	-3
536.182	1	3
537.373	1	0
538.563	1	-4
539.754	1	4
540.944	1	-6
542.134	1	3
543.325	1	-5
544.515	1	-1
545.705	1	3
546.896	1	12
548.086	1	4
549.276	1	-1
550.466	1	1
551.656	1	0
552.846	1	-3
554.036	1	-1
555.226	1	-7
556.416	1	2
557.606	1	3
558.796	1	-9
559.986	1	-3
561.175	1	-6
562.365	1	2
563.555	1	1
564.744	1	-2
565.934	1	8
567.123	1	-4
568.313	1	-8
569.502	1	-4
570.692	1	5
571.881	1	-6
573.070	1	0
574.260	1	4
575.449	1	9
576.638	1	0
577.827	1	-7
579.016	1	14
580.205	1	-1
581.394	1	2
582.583	1	-3
583.772	1	2
584.961	1	6
586.150	1	-6
587.339	1	-1
588.528	1	3
589.717	1	12
590.905	1	11
592.094	1	9
593.283	1	6
594.471	1	10
595.660	1	3
596.848	1	4
598.037	1	2
599.225	1	0
600.413	1	-6
601.602	1	0
602.790	1	7
603.978	1	0
605.166	1	4
606.355	1	13
607.543	1	2
608.731	1	-1
609.919	1	-10
611.107	1	-7
612.295	1	-4
613.483	1	-1
614.671	1	8
615.858	1	0
617.046	1	-3
618.234	1	-3
619.422	1	-10
620.609	1	-2
621.797	1	2
622.985	1	5
624.172	1	2
625.360	1	2
626.547	1	-1
627.735	1	-10
628.922	1	-4
630.109	1	-6
631.297	1	-1
632.484	1	-5
633.671	1	12
634.858	1	-4
636.045	1	-2
637.232	1	-2
638.419	1	-2
639.606	1	-2
640.793	1	2
641.980	1	-5
643.167	1	-4
644.354	1	1
645.541	1	-2
646.728	1	5
647.914	1	0
649.101	1	3
650.288	1	4
651.474	1	6
652.661	1	7
653.847	1	10
655.034	1	-5
656.220	1	-6
657.406	1	-6
658.593	1	-3
659.779	1	0
660.965	1	2
662.152	1	6
663.338	1	3
664.524	1	6
665.710	1	0
666.896	1	-5
668.082	1	8
669.268	1	0
670.454	1	-3
671.640	1	-2
672.826	1	-4
674.011	1	-5
675.197	1	4
676.383	1	-1
677.569	1	-4
678.754	1	0
679.940	1	10
681.125	1	1
682.311	1	-6
683.496	1	1
684.682	1	11
685.867	1	1
687.053	1	0
688.238	1	-6
688.746	1	-5