File: Data/GaN_170K_550ms/GaN_sample D_spot 18_UVVIS_170 K_200um_550 ms 2x2mm1_138.txt
340.368	1	2
341.565	1	-3
342.763	1	3
343.960	1	-5
345.157	1	-3
346.354	1	-1
347.552	1	16
348.749	1	4
349.946	1	8
351.143	1	4
352.340	1	2
353.537	1	7
354.734	1	11
355.931	1	3
357.127	1	3
358.324	1	10
359.521	1	19
360.718	1	9
361.914	1	14
363.111	1	29
364.308	1	26
365.504	1	31
366.701	1	30
367.897	1	42
369.093	1	38
370.290	1	38
371.486	1	37
372.682	1	32
373.879	1	33
375.075	1	30
376.271	1	24
377.467	1	20
378.663	1	13
379.859	1	16
381.055	1	4
382.251	1	15
383.447	1	17
384.643	1	7
385.839	1	8
387.035	1	11
388.230	1	-2
389.426	1	14
390.622	1	6
391.817	1	4
393.013	1	-7
394.208	1	15
395.404	1	4
396.599	1	-1
397.795	1	-6
398.990	1	-5
400.186	1	2
401.381	1	4
402.576	1	-4
403.771	1	0
404.967	1	-4
406.162	1	1
407.357	1	-2
408.552	1	10
409.747	1	-1
410.942	1	6
412.137	1	2
413.332	1	-8
414.526	1	7
415.721	1	1
416.916	1	-2
418.111	1	5
419.305	1	0
420.500	1	-4
421.695	1	1
422.889	1	-5
424.084	1	10
425.278	1	0
426.472	1	-3
427.667	1	6
428.861	1	6
430.055	1	0
431.250	1	12
432.444	1	6
433.638	1	2
434.832	1	3
436.026	1	7
437.220	1	1
438.414	1	0
439.608	1	-9
440.802	1	11
441.996	1	-2
443.190	1	0
444.384	1	2
445.578	1	9
446.771	1	-8
447.965	1	1
449.159	1	-3
450.352	1	0
451.546	1	-6
452.739	1	2
453.933	1	-3
455.126	1	8
456.320	1	-1
457.513	1	2
458.706	1	9
459.899	1	7
461.093	1	5
462.286	1	-6
463.479	1	0
464.672	1	-1
465.865	1	11
467.058	1	8
468.251	1	6
469.444	1	2
470.637	1	7
471.830	1	-6
473.023	1	7
474.215	1	1
475.408	1	-7
476.601	1	6
477.793	1	4
478.986	1	-1
480.179	1	-2
481.371	1	-2
482.564	1	0
483.756	1	-5
484.948	1	0
486.141	1	16
487.333	1	-2
488.525	1	4
489.718	1	11
490.910	1	6
492.102	1	-2
493.294	1	0
494.486	1	10
495.678	1	2
496.870	1	5
498.062	1	4
499.254	1	12
500.446	1	9
501.638	1	-5
502.829	1	7
504.021	1	9
505.213	1	0
506.404	1	6
507.596	1	1
508.788	1	-2
509.979	1	7
511.171	1	8
512.362	1	-3
513.553	1	-2
514.745	1	7
515.936	1	3
517.127	1	12
518.319	1	7
519.510	1	4
520.701	1	14
521.892	1	8
523.083	1	0
524.274	1	4
525.465	1	8
526.656	1	12
527.847	1	9
529.038	1	2
530.229	1	12
531.419	1	7
532.610	1	9
533.801	1	13
534.991	1	4
536.182	1	9
537.373	1	1
538.563	1	7
539.754	1	8
540.944	1	2
542.134	1	-1
543.325	1	10
544.515	1	1
545.705	1	6
546.896	1	1
548.086	1	18
549.276	1	11
550.466	1	3
551.656	1	12
552.846	1	4
554.036	1	4
555.226	1	-5
556.416	1	1
557.606	1	10
558.796	1	8
559.986	1	8
561.175	1	3
562.365	1	-4
563.555	1	9
564.744	1	3
565.934	1	13
567.123	1	6
568.313	1	-1
569.502	1	4
570.692	1	9
571.881	1	3
573.070	1	8
574.260	1	17
575.449	1	12
576.638	1	13
577.827	1	3
579.016	1	12
580.205	1	0
581.394	1	11
582.583	1	11
583.772	1	-6
584.961	1	4
586.150	1	3
587.339	1	5
588.528	1	4
589.717	1	5
590.905	1	6
592.094	1	9
593.283	1	-3
594.471	1	8
595.660	1	7
596.848	1	-3
598.037	1	1
599.225	1	10
600.413	1	6
601.602	1	9
602.790	1	6
603.978	1	0
605.166	1	12
606.355	1	9
607.543	1	9
608.731	1	9
609.919	1	4
611.107	1	-7
612.295	1	6
613.483	1	-6
614.671	1	2
615.858	1	-2
617.046	1	0
618.234	1	0
619.422	1	-3
620.609	1	-1
621.797	1	4
622.985	1	-1
624.172	1	0
625.360	1	-3
626.547	1	0
627.735	1	-13
628.922	1	4
630.109	1	-4
631.297	1	-3
632.484	1	-3
633.671	1	13
634.858	1	1
636.045	1	15
637.232	1	2
638.419	1	-2
639.606	1	0
640.793	1	3
641.980	1	2
643.167	1	3
644.354	1	-2
645.541	1	9
646.728	1	10
647.914	1	4
649.101	1	-2
650.288	1	1
651.474	1	13
652.661	1	6
653.847	1	7
655.034	1	-3
656.220	1	7
657.406	1	-2
658.593	1	-4
659.779	1	-1
660.965	1	6
662.152	1	9
663.338	1	6
664.524	1	2
665.710	1	-4
666.896	1	10
668.082	1	14
669.268	1	1
670.454	1	-7
671.640	1	2
672.826	1	-2
674.011	1	8
675.197	1	15
676.383	1	1
677.569	1	-5
678.754	1	1
679.940	1	11
681.125	1	7
682.311	1	-11
683.496	1	1
684.682	1	4
685.867	1	1
687.053	1	4
688.238	1	0
688.746	1	-4