File: Data/GaN_170K_550ms/GaN_sample D_spot 18_UVVIS_170 K_200um_550 ms 2x2mm1_344.txt
340.368	1	4
341.565	1	8
342.763	1	4
343.960	1	5
345.157	1	-6
346.354	1	-11
347.552	1	16
348.749	1	11
349.946	1	8
351.143	1	-6
352.340	1	-2
353.537	1	0
354.734	1	6
355.931	1	-2
357.127	1	2
358.324	1	2
359.521	1	4
360.718	1	6
361.914	1	1
363.111	1	3
364.308	1	9
365.504	1	2
366.701	1	5
367.897	1	7
369.093	1	-10
370.290	1	1
371.486	1	0
372.682	1	12
373.879	1	-1
375.075	1	7
376.271	1	7
377.467	1	3
378.663	1	-3
379.859	1	5
381.055	1	8
382.251	1	0
383.447	1	-1
384.643	1	-4
385.839	1	-12
387.035	1	18
388.230	1	10
389.426	1	3
390.622	1	-3
391.817	1	0
393.013	1	3
394.208	1	1
395.404	1	11
396.599	1	-8
397.795	1	-1
398.990	1	-10
400.186	1	-13
401.381	1	11
402.576	1	-1
403.771	1	5
404.967	1	6
406.162	1	6
407.357	1	1
408.552	1	1
409.747	1	-6
410.942	1	-2
412.137	1	-9
413.332	1	-5
414.526	1	-6
415.721	1	2
416.916	1	-8
418.111	1	5
419.305	1	2
420.500	1	-3
421.695	1	-4
422.889	1	-1
424.084	1	8
425.278	1	4
426.472	1	4
427.667	1	4
428.861	1	9
430.055	1	-5
431.250	1	7
432.444	1	0
433.638	1	-3
434.832	1	9
436.026	1	-7
437.220	1	2
438.414	1	-9
439.608	1	0
440.802	1	7
441.996	1	0
443.190	1	-2
444.384	1	3
445.578	1	5
446.771	1	-5
447.965	1	-1
449.159	1	-4
450.352	1	-3
451.546	1	-4
452.739	1	-4
453.933	1	-6
455.126	1	10
456.320	1	1
457.513	1	7
458.706	1	-4
459.899	1	2
461.093	1	6
462.286	1	-10
463.479	1	2
464.672	1	-1
465.865	1	3
467.058	1	2
468.251	1	-4
469.444	1	4
470.637	1	0
471.830	1	5
473.023	1	-3
474.215	1	0
475.408	1	-1
476.601	1	-1
477.793	1	9
478.986	1	-3
480.179	1	-4
481.371	1	-1
482.564	1	-6
483.756	1	5
484.948	1	1
486.141	1	10
487.333	1	-8
488.525	1	-3
489.718	1	2
490.910	1	8
492.102	1	-1
493.294	1	-5
494.486	1	12
495.678	1	2
496.870	1	4
498.062	1	2
499.254	1	2
500.446	1	1
501.638	1	-8
502.829	1	-5
504.021	1	5
505.213	1	-2
506.404	1	-1
507.596	1	-7
508.788	1	-7
509.979	1	-3
511.171	1	8
512.362	1	3
513.553	1	0
514.745	1	2
515.936	1	0
517.127	1	-3
518.319	1	9
519.510	1	2
520.701	1	0
521.892	1	2
523.083	1	5
524.274	1	-2
525.465	1	3
526.656	1	2
527.847	1	2
529.038	1	3
530.229	1	9
531.419	1	1
532.610	1	3
533.801	1	-1
534.991	1	-5
536.182	1	1
537.373	1	-1
538.563	1	-1
539.754	1	-7
540.944	1	-10
542.134	1	3
543.325	1	3
544.515	1	-4
545.705	1	2
546.896	1	8
548.086	1	0
549.276	1	8
550.466	1	1
551.656	1	5
552.846	1	11
554.036	1	-8
555.226	1	-8
556.416	1	2
557.606	1	-2
558.796	1	3
559.986	1	1
561.175	1	-1
562.365	1	-4
563.555	1	4
564.744	1	-4
565.934	1	6
567.123	1	0
568.313	1	-2
569.502	1	0
570.692	1	6
571.881	1	-9
573.070	1	3
574.260	1	3
575.449	1	4
576.638	1	14
577.827	1	-2
579.016	1	0
580.205	1	-4
581.394	1	3
582.583	1	-4
583.772	1	5
584.961	1	3
586.150	1	-8
587.339	1	7
588.528	1	-2
589.717	1	8
590.905	1	6
592.094	1	10
593.283	1	7
594.471	1	8
595.660	1	4
596.848	1	0
598.037	1	-6
599.225	1	9
600.413	1	-11
601.602	1	2
602.790	1	7
603.978	1	6
605.166	1	-4
606.355	1	8
607.543	1	2
608.731	1	-1
609.919	1	-3
611.107	1	-2
612.295	1	6
613.483	1	-2
614.671	1	10
615.858	1	-4
617.046	1	-4
618.234	1	6
619.422	1	-10
620.609	1	-1
621.797	1	1
622.985	1	-3
624.172	1	3
625.360	1	2
626.547	1	-6
627.735	1	-6
628.922	1	-11
630.109	1	0
631.297	1	-6
632.484	1	-5
633.671	1	3
634.858	1	6
636.045	1	8
637.232	1	-6
638.419	1	-8
639.606	1	-1
640.793	1	-3
641.980	1	-2
643.167	1	-1
644.354	1	-2
645.541	1	6
646.728	1	-1
647.914	1	5
649.101	1	-7
650.288	1	-4
651.474	1	12
652.661	1	2
653.847	1	0
655.034	1	3
656.220	1	-1
657.406	1	-4
658.593	1	6
659.779	1	-2
660.965	1	14
662.152	1	-5
663.338	1	6
664.524	1	10
665.710	1	1
666.896	1	-3
668.082	1	7
669.268	1	0
670.454	1	-10
671.640	1	3
672.826	1	8
674.011	1	4
675.197	1	-4
676.383	1	5
677.569	1	-7
678.754	1	1
679.940	1	10
681.125	1	7
682.311	1	9
683.496	1	2
684.682	1	2
685.867	1	1
687.053	1	-8
688.238	1	-8
688.746	1	-5