File: Data/GaN_170K_550ms/GaN_sample D_spot 18_UVVIS_170 K_200um_550 ms 2x2mm1_149.txt
340.368	1	-2
341.565	1	1
342.763	1	4
343.960	1	-2
345.157	1	1
346.354	1	2
347.552	1	6
348.749	1	7
349.946	1	6
351.143	1	4
352.340	1	7
353.537	1	4
354.734	1	11
355.931	1	2
357.127	1	-2
358.324	1	10
359.521	1	10
360.718	1	7
361.914	1	15
363.111	1	19
364.308	1	19
365.504	1	32
366.701	1	35
367.897	1	34
369.093	1	27
370.290	1	25
371.486	1	25
372.682	1	31
373.879	1	26
375.075	1	16
376.271	1	13
377.467	1	14
378.663	1	16
379.859	1	9
381.055	1	5
382.251	1	7
383.447	1	19
384.643	1	6
385.839	1	2
387.035	1	9
388.230	1	2
389.426	1	12
390.622	1	2
391.817	1	9
393.013	1	4
394.208	1	9
395.404	1	6
396.599	1	9
397.795	1	0
398.990	1	1
400.186	1	0
401.381	1	2
402.576	1	-4
403.771	1	7
404.967	1	3
406.162	1	7
407.357	1	4
408.552	1	5
409.747	1	-4
410.942	1	7
412.137	1	-4
413.332	1	-1
414.526	1	3
415.721	1	2
416.916	1	3
418.111	1	11
419.305	1	1
420.500	1	3
421.695	1	-3
422.889	1	0
424.084	1	17
425.278	1	1
426.472	1	-1
427.667	1	6
428.861	1	4
430.055	1	-4
431.250	1	12
432.444	1	0
433.638	1	1
434.832	1	6
436.026	1	0
437.220	1	9
438.414	1	-10
439.608	1	-3
440.802	1	15
441.996	1	-3
443.190	1	1
444.384	1	-4
445.578	1	10
446.771	1	-2
447.965	1	0
449.159	1	6
450.352	1	3
451.546	1	4
452.739	1	6
453.933	1	3
455.126	1	11
456.320	1	2
457.513	1	5
458.706	1	9
459.899	1	2
461.093	1	14
462.286	1	1
463.479	1	1
464.672	1	-5
465.865	1	1
467.058	1	3
468.251	1	8
469.444	1	2
470.637	1	4
471.830	1	-2
473.023	1	1
474.215	1	5
475.408	1	0
476.601	1	6
477.793	1	6
478.986	1	3
480.179	1	-5
481.371	1	2
482.564	1	-2
483.756	1	1
484.948	1	-3
486.141	1	7
487.333	1	2
488.525	1	17
489.718	1	2
490.910	1	11
492.102	1	7
493.294	1	4
494.486	1	7
495.678	1	3
496.870	1	-4
498.062	1	6
499.254	1	10
500.446	1	-9
501.638	1	-2
502.829	1	6
504.021	1	11
505.213	1	3
506.404	1	3
507.596	1	3
508.788	1	3
509.979	1	8
511.171	1	8
512.362	1	-4
513.553	1	5
514.745	1	3
515.936	1	-1
517.127	1	13
518.319	1	11
519.510	1	6
520.701	1	10
521.892	1	8
523.083	1	9
524.274	1	9
525.465	1	13
526.656	1	8
527.847	1	10
529.038	1	3
530.229	1	16
531.419	1	11
532.610	1	8
533.801	1	4
534.991	1	1
536.182	1	8
537.373	1	6
538.563	1	0
539.754	1	5
540.944	1	3
542.134	1	10
543.325	1	6
544.515	1	7
545.705	1	8
546.896	1	10
548.086	1	9
549.276	1	12
550.466	1	4
551.656	1	7
552.846	1	0
554.036	1	6
555.226	1	-8
556.416	1	0
557.606	1	15
558.796	1	8
559.986	1	9
561.175	1	-6
562.365	1	8
563.555	1	7
564.744	1	12
565.934	1	8
567.123	1	-1
568.313	1	3
569.502	1	2
570.692	1	11
571.881	1	-7
573.070	1	2
574.260	1	2
575.449	1	8
576.638	1	3
577.827	1	9
579.016	1	9
580.205	1	-2
581.394	1	5
582.583	1	0
583.772	1	-4
584.961	1	-4
586.150	1	0
587.339	1	-6
588.528	1	3
589.717	1	11
590.905	1	4
592.094	1	10
593.283	1	2
594.471	1	14
595.660	1	0
596.848	1	-1
598.037	1	-3
599.225	1	-1
600.413	1	-3
601.602	1	9
602.790	1	9
603.978	1	11
605.166	1	10
606.355	1	1
607.543	1	7
608.731	1	0
609.919	1	-7
611.107	1	4
612.295	1	5
613.483	1	-1
614.671	1	13
615.858	1	-1
617.046	1	-8
618.234	1	13
619.422	1	-7
620.609	1	6
621.797	1	7
622.985	1	4
624.172	1	1
625.360	1	0
626.547	1	-8
627.735	1	-1
628.922	1	-9
630.109	1	5
631.297	1	7
632.484	1	0
633.671	1	11
634.858	1	2
636.045	1	5
637.232	1	8
638.419	1	-1
639.606	1	-3
640.793	1	6
641.980	1	-12
643.167	1	6
644.354	1	1
645.541	1	4
646.728	1	0
647.914	1	6
649.101	1	0
650.288	1	-6
651.474	1	-1
652.661	1	5
653.847	1	3
655.034	1	0
656.220	1	8
657.406	1	-1
658.593	1	-3
659.779	1	5
660.965	1	12
662.152	1	-1
663.338	1	5
664.524	1	8
665.710	1	3
666.896	1	2
668.082	1	10
669.268	1	-1
670.454	1	-9
671.640	1	5
672.826	1	2
674.011	1	6
675.197	1	7
676.383	1	3
677.569	1	-1
678.754	1	1
679.940	1	6
681.125	1	-1
682.311	1	4
683.496	1	7
684.682	1	-2
685.867	1	5
687.053	1	-3
688.238	1	5
688.746	1	-3