File: Data/GaN_170K_550ms/GaN_sample D_spot 18_UVVIS_170 K_200um_550 ms 2x2mm1_365.txt
340.368	1	-3
341.565	1	6
342.763	1	2
343.960	1	2
345.157	1	0
346.354	1	-2
347.552	1	6
348.749	1	3
349.946	1	5
351.143	1	-4
352.340	1	6
353.537	1	-1
354.734	1	6
355.931	1	-4
357.127	1	-3
358.324	1	3
359.521	1	5
360.718	1	2
361.914	1	-4
363.111	1	6
364.308	1	7
365.504	1	-1
366.701	1	-3
367.897	1	2
369.093	1	-5
370.290	1	6
371.486	1	-1
372.682	1	4
373.879	1	13
375.075	1	-3
376.271	1	15
377.467	1	1
378.663	1	7
379.859	1	0
381.055	1	-6
382.251	1	-1
383.447	1	12
384.643	1	-4
385.839	1	-6
387.035	1	8
388.230	1	0
389.426	1	8
390.622	1	-10
391.817	1	-4
393.013	1	-7
394.208	1	6
395.404	1	4
396.599	1	-5
397.795	1	-5
398.990	1	-11
400.186	1	-14
401.381	1	16
402.576	1	-3
403.771	1	2
404.967	1	5
406.162	1	0
407.357	1	-4
408.552	1	3
409.747	1	0
410.942	1	1
412.137	1	-3
413.332	1	-7
414.526	1	3
415.721	1	-2
416.916	1	-5
418.111	1	18
419.305	1	4
420.500	1	-1
421.695	1	-15
422.889	1	-5
424.084	1	22
425.278	1	1
426.472	1	5
427.667	1	1
428.861	1	6
430.055	1	4
431.250	1	9
432.444	1	6
433.638	1	-1
434.832	1	4
436.026	1	-10
437.220	1	-6
438.414	1	-15
439.608	1	-1
440.802	1	3
441.996	1	-3
443.190	1	-7
444.384	1	9
445.578	1	1
446.771	1	-12
447.965	1	0
449.159	1	-2
450.352	1	-4
451.546	1	-4
452.739	1	4
453.933	1	3
455.126	1	6
456.320	1	-7
457.513	1	8
458.706	1	9
459.899	1	-2
461.093	1	4
462.286	1	-13
463.479	1	-5
464.672	1	0
465.865	1	10
467.058	1	7
468.251	1	-1
469.444	1	-6
470.637	1	-1
471.830	1	-4
473.023	1	-4
474.215	1	12
475.408	1	4
476.601	1	11
477.793	1	-1
478.986	1	2
480.179	1	-8
481.371	1	2
482.564	1	4
483.756	1	-4
484.948	1	-1
486.141	1	9
487.333	1	-7
488.525	1	2
489.718	1	9
490.910	1	1
492.102	1	-3
493.294	1	-5
494.486	1	9
495.678	1	-5
496.870	1	-1
498.062	1	5
499.254	1	2
500.446	1	-1
501.638	1	-7
502.829	1	-5
504.021	1	3
505.213	1	-2
506.404	1	12
507.596	1	2
508.788	1	-6
509.979	1	6
511.171	1	3
512.362	1	-1
513.553	1	0
514.745	1	3
515.936	1	3
517.127	1	1
518.319	1	5
519.510	1	8
520.701	1	2
521.892	1	-1
523.083	1	5
524.274	1	-5
525.465	1	-6
526.656	1	10
527.847	1	-5
529.038	1	1
530.229	1	7
531.419	1	1
532.610	1	12
533.801	1	2
534.991	1	-10
536.182	1	11
537.373	1	-5
538.563	1	-8
539.754	1	-5
540.944	1	-2
542.134	1	-1
543.325	1	2
544.515	1	9
545.705	1	8
546.896	1	6
548.086	1	-5
549.276	1	0
550.466	1	3
551.656	1	11
552.846	1	-1
554.036	1	-7
555.226	1	-5
556.416	1	2
557.606	1	14
558.796	1	2
559.986	1	3
561.175	1	-4
562.365	1	-3
563.555	1	2
564.744	1	2
565.934	1	-7
567.123	1	4
568.313	1	2
569.502	1	6
570.692	1	3
571.881	1	-3
573.070	1	2
574.260	1	3
575.449	1	-1
576.638	1	6
577.827	1	-3
579.016	1	-5
580.205	1	6
581.394	1	9
582.583	1	7
583.772	1	-5
584.961	1	-7
586.150	1	-3
587.339	1	-3
588.528	1	-5
589.717	1	13
590.905	1	0
592.094	1	-3
593.283	1	4
594.471	1	9
595.660	1	3
596.848	1	-1
598.037	1	-4
599.225	1	0
600.413	1	-5
601.602	1	-4
602.790	1	11
603.978	1	1
605.166	1	4
606.355	1	9
607.543	1	3
608.731	1	-3
609.919	1	-6
611.107	1	-6
612.295	1	3
613.483	1	-1
614.671	1	0
615.858	1	-5
617.046	1	-1
618.234	1	6
619.422	1	-4
620.609	1	-6
621.797	1	2
622.985	1	-2
624.172	1	-10
625.360	1	2
626.547	1	3
627.735	1	-11
628.922	1	-10
630.109	1	-2
631.297	1	1
632.484	1	6
633.671	1	4
634.858	1	9
636.045	1	8
637.232	1	2
638.419	1	-15
639.606	1	-1
640.793	1	-4
641.980	1	-14
643.167	1	2
644.354	1	-2
645.541	1	5
646.728	1	5
647.914	1	6
649.101	1	-1
650.288	1	-4
651.474	1	5
652.661	1	-1
653.847	1	3
655.034	1	2
656.220	1	-1
657.406	1	1
658.593	1	-4
659.779	1	2
660.965	1	11
662.152	1	3
663.338	1	4
664.524	1	4
665.710	1	-2
666.896	1	-6
668.082	1	18
669.268	1	-7
670.454	1	-4
671.640	1	2
672.826	1	-6
674.011	1	7
675.197	1	1
676.383	1	-4
677.569	1	-3
678.754	1	5
679.940	1	5
681.125	1	1
682.311	1	-8
683.496	1	11
684.682	1	9
685.867	1	-5
687.053	1	0
688.238	1	0
688.746	1	-8