File: Data/GaN_170K_550ms/GaN_sample D_spot 18_UVVIS_170 K_200um_550 ms 2x2mm1_152.txt
340.368	1	-3
341.565	1	1
342.763	1	12
343.960	1	-2
345.157	1	2
346.354	1	-9
347.552	1	18
348.749	1	7
349.946	1	9
351.143	1	-5
352.340	1	2
353.537	1	5
354.734	1	6
355.931	1	1
357.127	1	9
358.324	1	13
359.521	1	10
360.718	1	8
361.914	1	16
363.111	1	25
364.308	1	20
365.504	1	20
366.701	1	38
367.897	1	34
369.093	1	26
370.290	1	38
371.486	1	25
372.682	1	36
373.879	1	29
375.075	1	25
376.271	1	21
377.467	1	12
378.663	1	18
379.859	1	11
381.055	1	16
382.251	1	6
383.447	1	10
384.643	1	3
385.839	1	-10
387.035	1	-2
388.230	1	10
389.426	1	5
390.622	1	4
391.817	1	3
393.013	1	11
394.208	1	11
395.404	1	6
396.599	1	-3
397.795	1	5
398.990	1	-11
400.186	1	-3
401.381	1	15
402.576	1	-5
403.771	1	3
404.967	1	2
406.162	1	2
407.357	1	2
408.552	1	2
409.747	1	3
410.942	1	5
412.137	1	-9
413.332	1	-4
414.526	1	6
415.721	1	1
416.916	1	-3
418.111	1	12
419.305	1	-1
420.500	1	-3
421.695	1	-7
422.889	1	3
424.084	1	13
425.278	1	5
426.472	1	5
427.667	1	1
428.861	1	6
430.055	1	10
431.250	1	8
432.444	1	0
433.638	1	11
434.832	1	6
436.026	1	3
437.220	1	6
438.414	1	-5
439.608	1	1
440.802	1	10
441.996	1	-10
443.190	1	-6
444.384	1	8
445.578	1	5
446.771	1	-11
447.965	1	2
449.159	1	2
450.352	1	-6
451.546	1	-11
452.739	1	-1
453.933	1	-1
455.126	1	2
456.320	1	11
457.513	1	6
458.706	1	6
459.899	1	-2
461.093	1	6
462.286	1	-7
463.479	1	0
464.672	1	-2
465.865	1	4
467.058	1	5
468.251	1	4
469.444	1	5
470.637	1	-3
471.830	1	2
473.023	1	5
474.215	1	8
475.408	1	-9
476.601	1	-7
477.793	1	2
478.986	1	0
480.179	1	1
481.371	1	6
482.564	1	-3
483.756	1	9
484.948	1	5
486.141	1	11
487.333	1	-6
488.525	1	1
489.718	1	1
490.910	1	-2
492.102	1	4
493.294	1	0
494.486	1	7
495.678	1	2
496.870	1	-1
498.062	1	-2
499.254	1	11
500.446	1	6
501.638	1	-10
502.829	1	8
504.021	1	11
505.213	1	0
506.404	1	8
507.596	1	13
508.788	1	-3
509.979	1	6
511.171	1	5
512.362	1	-4
513.553	1	10
514.745	1	6
515.936	1	-3
517.127	1	4
518.319	1	1
519.510	1	4
520.701	1	4
521.892	1	-3
523.083	1	6
524.274	1	0
525.465	1	13
526.656	1	9
527.847	1	8
529.038	1	-1
530.229	1	14
531.419	1	15
532.610	1	11
533.801	1	-1
534.991	1	-2
536.182	1	3
537.373	1	2
538.563	1	0
539.754	1	6
540.944	1	2
542.134	1	4
543.325	1	3
544.515	1	5
545.705	1	7
546.896	1	7
548.086	1	10
549.276	1	9
550.466	1	-6
551.656	1	9
552.846	1	8
554.036	1	4
555.226	1	-9
556.416	1	3
557.606	1	-6
558.796	1	5
559.986	1	4
561.175	1	-7
562.365	1	3
563.555	1	-1
564.744	1	2
565.934	1	2
567.123	1	7
568.313	1	0
569.502	1	3
570.692	1	2
571.881	1	5
573.070	1	11
574.260	1	2
575.449	1	2
576.638	1	1
577.827	1	-1
579.016	1	4
580.205	1	-1
581.394	1	0
582.583	1	5
583.772	1	-6
584.961	1	-2
586.150	1	1
587.339	1	5
588.528	1	2
589.717	1	0
590.905	1	18
592.094	1	8
593.283	1	7
594.471	1	8
595.660	1	5
596.848	1	4
598.037	1	1
599.225	1	5
600.413	1	-9
601.602	1	10
602.790	1	13
603.978	1	8
605.166	1	6
606.355	1	0
607.543	1	11
608.731	1	-4
609.919	1	2
611.107	1	3
612.295	1	5
613.483	1	-9
614.671	1	6
615.858	1	2
617.046	1	-1
618.234	1	4
619.422	1	-14
620.609	1	-5
621.797	1	3
622.985	1	1
624.172	1	1
625.360	1	-2
626.547	1	-2
627.735	1	-3
628.922	1	-1
630.109	1	-1
631.297	1	-4
632.484	1	-1
633.671	1	9
634.858	1	3
636.045	1	7
637.232	1	4
638.419	1	-5
639.606	1	-7
640.793	1	1
641.980	1	-5
643.167	1	-9
644.354	1	-2
645.541	1	2
646.728	1	0
647.914	1	3
649.101	1	5
650.288	1	-6
651.474	1	14
652.661	1	8
653.847	1	-4
655.034	1	0
656.220	1	2
657.406	1	-3
658.593	1	6
659.779	1	4
660.965	1	9
662.152	1	-7
663.338	1	7
664.524	1	6
665.710	1	7
666.896	1	-1
668.082	1	19
669.268	1	2
670.454	1	-6
671.640	1	6
672.826	1	4
674.011	1	-3
675.197	1	5
676.383	1	6
677.569	1	-4
678.754	1	6
679.940	1	9
681.125	1	12
682.311	1	5
683.496	1	10
684.682	1	9
685.867	1	7
687.053	1	8
688.238	1	-4
688.746	1	1