File: Data/GaN_170K_550ms/GaN_sample D_spot 18_UVVIS_170 K_200um_550 ms 2x2mm1_244.txt
340.368	1	5
341.565	1	3
342.763	1	7
343.960	1	3
345.157	1	-1
346.354	1	-10
347.552	1	9
348.749	1	9
349.946	1	5
351.143	1	0
352.340	1	5
353.537	1	-4
354.734	1	4
355.931	1	5
357.127	1	-4
358.324	1	20
359.521	1	-1
360.718	1	7
361.914	1	2
363.111	1	19
364.308	1	2
365.504	1	8
366.701	1	15
367.897	1	10
369.093	1	9
370.290	1	5
371.486	1	4
372.682	1	12
373.879	1	2
375.075	1	5
376.271	1	9
377.467	1	7
378.663	1	3
379.859	1	5
381.055	1	8
382.251	1	9
383.447	1	6
384.643	1	-2
385.839	1	-5
387.035	1	8
388.230	1	0
389.426	1	7
390.622	1	0
391.817	1	-1
393.013	1	-5
394.208	1	-1
395.404	1	7
396.599	1	3
397.795	1	1
398.990	1	-8
400.186	1	-4
401.381	1	9
402.576	1	-3
403.771	1	2
404.967	1	6
406.162	1	-1
407.357	1	2
408.552	1	-2
409.747	1	4
410.942	1	2
412.137	1	-12
413.332	1	-2
414.526	1	2
415.721	1	-2
416.916	1	-13
418.111	1	9
419.305	1	7
420.500	1	-2
421.695	1	-7
422.889	1	-1
424.084	1	8
425.278	1	-4
426.472	1	-2
427.667	1	5
428.861	1	-4
430.055	1	-7
431.250	1	9
432.444	1	-4
433.638	1	3
434.832	1	5
436.026	1	4
437.220	1	1
438.414	1	-9
439.608	1	7
440.802	1	5
441.996	1	-5
443.190	1	-6
444.384	1	-7
445.578	1	7
446.771	1	-3
447.965	1	-1
449.159	1	-3
450.352	1	3
451.546	1	-10
452.739	1	1
453.933	1	-5
455.126	1	10
456.320	1	-1
457.513	1	12
458.706	1	14
459.899	1	9
461.093	1	4
462.286	1	-5
463.479	1	0
464.672	1	-1
465.865	1	5
467.058	1	-2
468.251	1	-8
469.444	1	-5
470.637	1	2
471.830	1	10
473.023	1	3
474.215	1	4
475.408	1	-7
476.601	1	-1
477.793	1	6
478.986	1	5
480.179	1	-1
481.371	1	-4
482.564	1	-1
483.756	1	3
484.948	1	4
486.141	1	14
487.333	1	-6
488.525	1	3
489.718	1	8
490.910	1	1
492.102	1	9
493.294	1	-2
494.486	1	7
495.678	1	7
496.870	1	5
498.062	1	8
499.254	1	11
500.446	1	8
501.638	1	-8
502.829	1	4
504.021	1	-1
505.213	1	4
506.404	1	9
507.596	1	7
508.788	1	-13
509.979	1	-1
511.171	1	3
512.362	1	5
513.553	1	0
514.745	1	-6
515.936	1	-3
517.127	1	2
518.319	1	1
519.510	1	8
520.701	1	1
521.892	1	5
523.083	1	4
524.274	1	-1
525.465	1	-3
526.656	1	11
527.847	1	3
529.038	1	-4
530.229	1	9
531.419	1	5
532.610	1	5
533.801	1	17
534.991	1	2
536.182	1	0
537.373	1	-3
538.563	1	5
539.754	1	3
540.944	1	-2
542.134	1	0
543.325	1	5
544.515	1	3
545.705	1	10
546.896	1	7
548.086	1	3
549.276	1	5
550.466	1	-5
551.656	1	2
552.846	1	-1
554.036	1	6
555.226	1	-6
556.416	1	2
557.606	1	6
558.796	1	1
559.986	1	0
561.175	1	-3
562.365	1	7
563.555	1	12
564.744	1	6
565.934	1	0
567.123	1	6
568.313	1	1
569.502	1	-7
570.692	1	4
571.881	1	-7
573.070	1	0
574.260	1	2
575.449	1	8
576.638	1	4
577.827	1	-3
579.016	1	-1
580.205	1	0
581.394	1	5
582.583	1	4
583.772	1	5
584.961	1	3
586.150	1	-4
587.339	1	5
588.528	1	-8
589.717	1	14
590.905	1	7
592.094	1	3
593.283	1	18
594.471	1	5
595.660	1	2
596.848	1	3
598.037	1	6
599.225	1	6
600.413	1	-10
601.602	1	-3
602.790	1	9
603.978	1	8
605.166	1	4
606.355	1	11
607.543	1	15
608.731	1	5
609.919	1	3
611.107	1	-3
612.295	1	1
613.483	1	-5
614.671	1	8
615.858	1	2
617.046	1	2
618.234	1	-1
619.422	1	-4
620.609	1	6
621.797	1	2
622.985	1	7
624.172	1	1
625.360	1	2
626.547	1	-7
627.735	1	-10
628.922	1	-15
630.109	1	-3
631.297	1	-1
632.484	1	-5
633.671	1	0
634.858	1	1
636.045	1	7
637.232	1	3
638.419	1	-3
639.606	1	-4
640.793	1	-4
641.980	1	-5
643.167	1	1
644.354	1	-5
645.541	1	7
646.728	1	2
647.914	1	-2
649.101	1	3
650.288	1	-1
651.474	1	3
652.661	1	10
653.847	1	-6
655.034	1	4
656.220	1	7
657.406	1	3
658.593	1	5
659.779	1	-2
660.965	1	13
662.152	1	5
663.338	1	15
664.524	1	-6
665.710	1	3
666.896	1	-9
668.082	1	7
669.268	1	-6
670.454	1	-3
671.640	1	7
672.826	1	0
674.011	1	2
675.197	1	7
676.383	1	7
677.569	1	-2
678.754	1	8
679.940	1	8
681.125	1	1
682.311	1	-3
683.496	1	3
684.682	1	6
685.867	1	11
687.053	1	-6
688.238	1	-9
688.746	1	-3