File: Data/GaN_170K_550ms/GaN_sample D_spot 18_UVVIS_170 K_200um_550 ms 2x2mm1_279.txt
340.368	1	0
341.565	1	1
342.763	1	-6
343.960	1	-3
345.157	1	-5
346.354	1	-8
347.552	1	14
348.749	1	4
349.946	1	14
351.143	1	6
352.340	1	3
353.537	1	4
354.734	1	7
355.931	1	1
357.127	1	-5
358.324	1	3
359.521	1	8
360.718	1	8
361.914	1	4
363.111	1	9
364.308	1	12
365.504	1	0
366.701	1	12
367.897	1	7
369.093	1	-6
370.290	1	4
371.486	1	8
372.682	1	23
373.879	1	11
375.075	1	1
376.271	1	11
377.467	1	8
378.663	1	8
379.859	1	-2
381.055	1	2
382.251	1	2
383.447	1	13
384.643	1	-8
385.839	1	-9
387.035	1	13
388.230	1	7
389.426	1	10
390.622	1	4
391.817	1	-5
393.013	1	1
394.208	1	8
395.404	1	8
396.599	1	-5
397.795	1	3
398.990	1	-11
400.186	1	-1
401.381	1	7
402.576	1	0
403.771	1	-1
404.967	1	-5
406.162	1	15
407.357	1	-8
408.552	1	7
409.747	1	-5
410.942	1	5
412.137	1	-7
413.332	1	2
414.526	1	1
415.721	1	-6
416.916	1	-4
418.111	1	3
419.305	1	-1
420.500	1	2
421.695	1	-4
422.889	1	3
424.084	1	10
425.278	1	1
426.472	1	9
427.667	1	6
428.861	1	-2
430.055	1	5
431.250	1	10
432.444	1	7
433.638	1	15
434.832	1	1
436.026	1	0
437.220	1	-3
438.414	1	-7
439.608	1	-3
440.802	1	5
441.996	1	-3
443.190	1	-4
444.384	1	7
445.578	1	8
446.771	1	-9
447.965	1	-3
449.159	1	-8
450.352	1	-6
451.546	1	-2
452.739	1	1
453.933	1	-8
455.126	1	6
456.320	1	-3
457.513	1	10
458.706	1	7
459.899	1	1
461.093	1	0
462.286	1	-1
463.479	1	-9
464.672	1	3
465.865	1	0
467.058	1	6
468.251	1	-11
469.444	1	-1
470.637	1	1
471.830	1	-6
473.023	1	-1
474.215	1	-1
475.408	1	-10
476.601	1	15
477.793	1	1
478.986	1	-8
480.179	1	-6
481.371	1	-4
482.564	1	-2
483.756	1	2
484.948	1	-4
486.141	1	13
487.333	1	0
488.525	1	4
489.718	1	8
490.910	1	4
492.102	1	0
493.294	1	-3
494.486	1	3
495.678	1	7
496.870	1	-4
498.062	1	-1
499.254	1	2
500.446	1	2
501.638	1	-8
502.829	1	4
504.021	1	2
505.213	1	-4
506.404	1	0
507.596	1	4
508.788	1	-14
509.979	1	3
511.171	1	4
512.362	1	0
513.553	1	7
514.745	1	-8
515.936	1	3
517.127	1	12
518.319	1	15
519.510	1	1
520.701	1	9
521.892	1	-2
523.083	1	2
524.274	1	4
525.465	1	0
526.656	1	9
527.847	1	4
529.038	1	3
530.229	1	6
531.419	1	5
532.610	1	0
533.801	1	12
534.991	1	-6
536.182	1	-6
537.373	1	-2
538.563	1	5
539.754	1	2
540.944	1	2
542.134	1	4
543.325	1	4
544.515	1	2
545.705	1	9
546.896	1	11
548.086	1	6
549.276	1	3
550.466	1	-1
551.656	1	9
552.846	1	-4
554.036	1	5
555.226	1	-1
556.416	1	4
557.606	1	10
558.796	1	4
559.986	1	-2
561.175	1	-4
562.365	1	2
563.555	1	6
564.744	1	3
565.934	1	7
567.123	1	1
568.313	1	-1
569.502	1	5
570.692	1	8
571.881	1	-5
573.070	1	-2
574.260	1	2
575.449	1	3
576.638	1	0
577.827	1	-7
579.016	1	6
580.205	1	-3
581.394	1	8
582.583	1	-6
583.772	1	0
584.961	1	-3
586.150	1	-1
587.339	1	-3
588.528	1	-1
589.717	1	2
590.905	1	5
592.094	1	4
593.283	1	-3
594.471	1	4
595.660	1	-2
596.848	1	-1
598.037	1	8
599.225	1	7
600.413	1	-4
601.602	1	5
602.790	1	4
603.978	1	8
605.166	1	2
606.355	1	10
607.543	1	14
608.731	1	0
609.919	1	-7
611.107	1	-3
612.295	1	-4
613.483	1	-9
614.671	1	3
615.858	1	-6
617.046	1	-3
618.234	1	3
619.422	1	-11
620.609	1	0
621.797	1	-4
622.985	1	7
624.172	1	10
625.360	1	1
626.547	1	-8
627.735	1	-4
628.922	1	-2
630.109	1	4
631.297	1	1
632.484	1	-13
633.671	1	3
634.858	1	6
636.045	1	7
637.232	1	3
638.419	1	-3
639.606	1	-5
640.793	1	-5
641.980	1	-8
643.167	1	-11
644.354	1	7
645.541	1	1
646.728	1	4
647.914	1	3
649.101	1	5
650.288	1	1
651.474	1	4
652.661	1	0
653.847	1	-12
655.034	1	-2
656.220	1	7
657.406	1	0
658.593	1	-6
659.779	1	-3
660.965	1	11
662.152	1	3
663.338	1	5
664.524	1	2
665.710	1	-1
666.896	1	3
668.082	1	5
669.268	1	0
670.454	1	-7
671.640	1	4
672.826	1	-2
674.011	1	10
675.197	1	4
676.383	1	-1
677.569	1	-9
678.754	1	4
679.940	1	8
681.125	1	4
682.311	1	6
683.496	1	7
684.682	1	1
685.867	1	4
687.053	1	-5
688.238	1	-1
688.746	1	-5