File: Data/GaN_170K_550ms/GaN_sample D_spot 18_UVVIS_170 K_200um_550 ms 2x2mm1_99.txt
340.368	1	-2
341.565	1	8
342.763	1	14
343.960	1	0
345.157	1	7
346.354	1	4
347.552	1	23
348.749	1	5
349.946	1	8
351.143	1	0
352.340	1	15
353.537	1	7
354.734	1	12
355.931	1	5
357.127	1	11
358.324	1	19
359.521	1	15
360.718	1	31
361.914	1	36
363.111	1	45
364.308	1	56
365.504	1	64
366.701	1	75
367.897	1	102
369.093	1	91
370.290	1	69
371.486	1	79
372.682	1	72
373.879	1	60
375.075	1	47
376.271	1	52
377.467	1	43
378.663	1	24
379.859	1	38
381.055	1	24
382.251	1	19
383.447	1	24
384.643	1	14
385.839	1	10
387.035	1	0
388.230	1	4
389.426	1	15
390.622	1	13
391.817	1	11
393.013	1	7
394.208	1	21
395.404	1	0
396.599	1	-2
397.795	1	1
398.990	1	-2
400.186	1	-1
401.381	1	12
402.576	1	4
403.771	1	15
404.967	1	13
406.162	1	4
407.357	1	-8
408.552	1	7
409.747	1	3
410.942	1	9
412.137	1	4
413.332	1	-8
414.526	1	1
415.721	1	3
416.916	1	0
418.111	1	9
419.305	1	2
420.500	1	9
421.695	1	-13
422.889	1	3
424.084	1	15
425.278	1	-3
426.472	1	15
427.667	1	6
428.861	1	7
430.055	1	0
431.250	1	14
432.444	1	8
433.638	1	1
434.832	1	2
436.026	1	1
437.220	1	4
438.414	1	-3
439.608	1	6
440.802	1	25
441.996	1	0
443.190	1	0
444.384	1	3
445.578	1	11
446.771	1	-14
447.965	1	1
449.159	1	5
450.352	1	-3
451.546	1	3
452.739	1	-3
453.933	1	1
455.126	1	16
456.320	1	7
457.513	1	5
458.706	1	4
459.899	1	12
461.093	1	5
462.286	1	-2
463.479	1	1
464.672	1	-5
465.865	1	6
467.058	1	10
468.251	1	6
469.444	1	5
470.637	1	7
471.830	1	3
473.023	1	6
474.215	1	6
475.408	1	5
476.601	1	7
477.793	1	9
478.986	1	3
480.179	1	-1
481.371	1	3
482.564	1	-4
483.756	1	4
484.948	1	7
486.141	1	13
487.333	1	1
488.525	1	15
489.718	1	13
490.910	1	10
492.102	1	0
493.294	1	2
494.486	1	13
495.678	1	13
496.870	1	0
498.062	1	-4
499.254	1	6
500.446	1	7
501.638	1	2
502.829	1	11
504.021	1	15
505.213	1	11
506.404	1	12
507.596	1	15
508.788	1	9
509.979	1	10
511.171	1	9
512.362	1	9
513.553	1	16
514.745	1	13
515.936	1	11
517.127	1	22
518.319	1	19
519.510	1	21
520.701	1	15
521.892	1	15
523.083	1	11
524.274	1	6
525.465	1	15
526.656	1	13
527.847	1	14
529.038	1	6
530.229	1	17
531.419	1	30
532.610	1	20
533.801	1	13
534.991	1	18
536.182	1	14
537.373	1	6
538.563	1	18
539.754	1	8
540.944	1	15
542.134	1	15
543.325	1	17
544.515	1	16
545.705	1	16
546.896	1	11
548.086	1	17
549.276	1	22
550.466	1	13
551.656	1	15
552.846	1	12
554.036	1	8
555.226	1	0
556.416	1	10
557.606	1	11
558.796	1	8
559.986	1	15
561.175	1	2
562.365	1	9
563.555	1	6
564.744	1	8
565.934	1	15
567.123	1	14
568.313	1	11
569.502	1	13
570.692	1	19
571.881	1	2
573.070	1	10
574.260	1	3
575.449	1	6
576.638	1	13
577.827	1	-4
579.016	1	10
580.205	1	5
581.394	1	11
582.583	1	7
583.772	1	10
584.961	1	12
586.150	1	7
587.339	1	-3
588.528	1	2
589.717	1	1
590.905	1	2
592.094	1	14
593.283	1	5
594.471	1	15
595.660	1	4
596.848	1	6
598.037	1	3
599.225	1	16
600.413	1	-2
601.602	1	-1
602.790	1	6
603.978	1	10
605.166	1	1
606.355	1	7
607.543	1	9
608.731	1	3
609.919	1	11
611.107	1	3
612.295	1	0
613.483	1	2
614.671	1	7
615.858	1	-2
617.046	1	0
618.234	1	5
619.422	1	2
620.609	1	14
621.797	1	5
622.985	1	3
624.172	1	1
625.360	1	5
626.547	1	3
627.735	1	1
628.922	1	-3
630.109	1	-3
631.297	1	-5
632.484	1	5
633.671	1	9
634.858	1	4
636.045	1	10
637.232	1	9
638.419	1	0
639.606	1	-3
640.793	1	-4
641.980	1	-5
643.167	1	1
644.354	1	1
645.541	1	6
646.728	1	2
647.914	1	-2
649.101	1	6
650.288	1	6
651.474	1	9
652.661	1	5
653.847	1	3
655.034	1	-1
656.220	1	-4
657.406	1	0
658.593	1	6
659.779	1	2
660.965	1	8
662.152	1	1
663.338	1	6
664.524	1	6
665.710	1	8
666.896	1	3
668.082	1	9
669.268	1	-1
670.454	1	-9
671.640	1	11
672.826	1	1
674.011	1	9
675.197	1	9
676.383	1	3
677.569	1	-5
678.754	1	13
679.940	1	3
681.125	1	6
682.311	1	3
683.496	1	11
684.682	1	4
685.867	1	12
687.053	1	-2
688.238	1	0
688.746	1	0