File: Data/GaN_170K_550ms/GaN_sample D_spot 18_UVVIS_170 K_200um_550 ms 2x2mm1_73.txt
340.368	1	-4
341.565	1	-1
342.763	1	5
343.960	1	3
345.157	1	8
346.354	1	-3
347.552	1	14
348.749	1	2
349.946	1	10
351.143	1	7
352.340	1	11
353.537	1	10
354.734	1	16
355.931	1	11
357.127	1	17
358.324	1	27
359.521	1	37
360.718	1	48
361.914	1	60
363.111	1	95
364.308	1	112
365.504	1	161
366.701	1	212
367.897	1	259
369.093	1	252
370.290	1	230
371.486	1	202
372.682	1	162
373.879	1	140
375.075	1	121
376.271	1	98
377.467	1	85
378.663	1	71
379.859	1	58
381.055	1	55
382.251	1	43
383.447	1	38
384.643	1	38
385.839	1	23
387.035	1	25
388.230	1	28
389.426	1	25
390.622	1	17
391.817	1	21
393.013	1	10
394.208	1	17
395.404	1	15
396.599	1	11
397.795	1	12
398.990	1	2
400.186	1	2
401.381	1	11
402.576	1	6
403.771	1	8
404.967	1	6
406.162	1	10
407.357	1	7
408.552	1	3
409.747	1	6
410.942	1	13
412.137	1	0
413.332	1	1
414.526	1	9
415.721	1	1
416.916	1	-6
418.111	1	18
419.305	1	11
420.500	1	2
421.695	1	-5
422.889	1	1
424.084	1	13
425.278	1	5
426.472	1	11
427.667	1	13
428.861	1	9
430.055	1	0
431.250	1	10
432.444	1	7
433.638	1	0
434.832	1	12
436.026	1	3
437.220	1	3
438.414	1	5
439.608	1	6
440.802	1	8
441.996	1	12
443.190	1	1
444.384	1	4
445.578	1	16
446.771	1	-7
447.965	1	3
449.159	1	0
450.352	1	-1
451.546	1	-2
452.739	1	2
453.933	1	1
455.126	1	8
456.320	1	5
457.513	1	8
458.706	1	0
459.899	1	1
461.093	1	8
462.286	1	3
463.479	1	13
464.672	1	-6
465.865	1	1
467.058	1	4
468.251	1	9
469.444	1	-1
470.637	1	9
471.830	1	3
473.023	1	5
474.215	1	8
475.408	1	-4
476.601	1	10
477.793	1	14
478.986	1	1
480.179	1	3
481.371	1	11
482.564	1	6
483.756	1	12
484.948	1	9
486.141	1	21
487.333	1	14
488.525	1	28
489.718	1	21
490.910	1	13
492.102	1	21
493.294	1	14
494.486	1	23
495.678	1	14
496.870	1	20
498.062	1	14
499.254	1	18
500.446	1	17
501.638	1	9
502.829	1	22
504.021	1	27
505.213	1	20
506.404	1	25
507.596	1	26
508.788	1	21
509.979	1	32
511.171	1	40
512.362	1	34
513.553	1	41
514.745	1	27
515.936	1	29
517.127	1	37
518.319	1	35
519.510	1	43
520.701	1	44
521.892	1	36
523.083	1	42
524.274	1	34
525.465	1	40
526.656	1	45
527.847	1	36
529.038	1	40
530.229	1	51
531.419	1	50
532.610	1	40
533.801	1	48
534.991	1	32
536.182	1	39
537.373	1	35
538.563	1	27
539.754	1	34
540.944	1	24
542.134	1	30
543.325	1	36
544.515	1	30
545.705	1	35
546.896	1	40
548.086	1	31
549.276	1	35
550.466	1	40
551.656	1	35
552.846	1	35
554.036	1	34
555.226	1	17
556.416	1	34
557.606	1	28
558.796	1	22
559.986	1	34
561.175	1	12
562.365	1	39
563.555	1	30
564.744	1	29
565.934	1	23
567.123	1	17
568.313	1	25
569.502	1	16
570.692	1	23
571.881	1	21
573.070	1	15
574.260	1	21
575.449	1	15
576.638	1	21
577.827	1	19
579.016	1	20
580.205	1	11
581.394	1	12
582.583	1	12
583.772	1	14
584.961	1	6
586.150	1	11
587.339	1	13
588.528	1	12
589.717	1	15
590.905	1	15
592.094	1	21
593.283	1	17
594.471	1	19
595.660	1	13
596.848	1	10
598.037	1	18
599.225	1	21
600.413	1	5
601.602	1	16
602.790	1	17
603.978	1	14
605.166	1	18
606.355	1	11
607.543	1	19
608.731	1	9
609.919	1	4
611.107	1	8
612.295	1	4
613.483	1	8
614.671	1	22
615.858	1	7
617.046	1	1
618.234	1	11
619.422	1	6
620.609	1	7
621.797	1	7
622.985	1	16
624.172	1	2
625.360	1	10
626.547	1	5
627.735	1	-10
628.922	1	-5
630.109	1	5
631.297	1	3
632.484	1	-3
633.671	1	13
634.858	1	3
636.045	1	6
637.232	1	13
638.419	1	2
639.606	1	9
640.793	1	7
641.980	1	0
643.167	1	7
644.354	1	5
645.541	1	11
646.728	1	8
647.914	1	3
649.101	1	9
650.288	1	13
651.474	1	13
652.661	1	6
653.847	1	13
655.034	1	11
656.220	1	8
657.406	1	6
658.593	1	1
659.779	1	6
660.965	1	20
662.152	1	9
663.338	1	14
664.524	1	8
665.710	1	5
666.896	1	4
668.082	1	12
669.268	1	2
670.454	1	1
671.640	1	4
672.826	1	5
674.011	1	14
675.197	1	8
676.383	1	9
677.569	1	-1
678.754	1	13
679.940	1	17
681.125	1	15
682.311	1	3
683.496	1	14
684.682	1	13
685.867	1	4
687.053	1	10
688.238	1	1
688.746	1	10