File: Data/GaN_170K_550ms/GaN_sample D_spot 18_UVVIS_170 K_200um_550 ms 2x2mm1_147.txt
340.368	1	2
341.565	1	2
342.763	1	11
343.960	1	-1
345.157	1	-7
346.354	1	0
347.552	1	4
348.749	1	12
349.946	1	9
351.143	1	4
352.340	1	3
353.537	1	0
354.734	1	8
355.931	1	-2
357.127	1	1
358.324	1	11
359.521	1	8
360.718	1	18
361.914	1	10
363.111	1	26
364.308	1	20
365.504	1	24
366.701	1	37
367.897	1	26
369.093	1	28
370.290	1	26
371.486	1	20
372.682	1	29
373.879	1	27
375.075	1	19
376.271	1	19
377.467	1	14
378.663	1	13
379.859	1	10
381.055	1	11
382.251	1	26
383.447	1	24
384.643	1	11
385.839	1	3
387.035	1	10
388.230	1	3
389.426	1	9
390.622	1	5
391.817	1	5
393.013	1	-1
394.208	1	8
395.404	1	12
396.599	1	-1
397.795	1	3
398.990	1	-8
400.186	1	-8
401.381	1	7
402.576	1	4
403.771	1	7
404.967	1	-1
406.162	1	8
407.357	1	-3
408.552	1	2
409.747	1	2
410.942	1	1
412.137	1	-2
413.332	1	-1
414.526	1	4
415.721	1	3
416.916	1	-3
418.111	1	9
419.305	1	11
420.500	1	0
421.695	1	-8
422.889	1	0
424.084	1	10
425.278	1	-2
426.472	1	3
427.667	1	5
428.861	1	5
430.055	1	5
431.250	1	8
432.444	1	8
433.638	1	0
434.832	1	12
436.026	1	6
437.220	1	-3
438.414	1	-3
439.608	1	-2
440.802	1	10
441.996	1	1
443.190	1	-6
444.384	1	-1
445.578	1	7
446.771	1	-9
447.965	1	5
449.159	1	3
450.352	1	-6
451.546	1	-9
452.739	1	1
453.933	1	13
455.126	1	13
456.320	1	-8
457.513	1	8
458.706	1	5
459.899	1	1
461.093	1	6
462.286	1	3
463.479	1	-5
464.672	1	2
465.865	1	-4
467.058	1	-6
468.251	1	1
469.444	1	4
470.637	1	8
471.830	1	-1
473.023	1	2
474.215	1	3
475.408	1	-6
476.601	1	1
477.793	1	3
478.986	1	9
480.179	1	5
481.371	1	1
482.564	1	6
483.756	1	-2
484.948	1	5
486.141	1	17
487.333	1	-9
488.525	1	13
489.718	1	4
490.910	1	8
492.102	1	3
493.294	1	5
494.486	1	22
495.678	1	11
496.870	1	-1
498.062	1	-6
499.254	1	8
500.446	1	1
501.638	1	-8
502.829	1	10
504.021	1	4
505.213	1	8
506.404	1	4
507.596	1	11
508.788	1	-8
509.979	1	7
511.171	1	7
512.362	1	1
513.553	1	2
514.745	1	10
515.936	1	0
517.127	1	9
518.319	1	9
519.510	1	14
520.701	1	9
521.892	1	9
523.083	1	1
524.274	1	6
525.465	1	5
526.656	1	14
527.847	1	4
529.038	1	0
530.229	1	20
531.419	1	5
532.610	1	3
533.801	1	13
534.991	1	3
536.182	1	11
537.373	1	1
538.563	1	12
539.754	1	13
540.944	1	-2
542.134	1	12
543.325	1	9
544.515	1	7
545.705	1	12
546.896	1	13
548.086	1	9
549.276	1	2
550.466	1	-1
551.656	1	6
552.846	1	-1
554.036	1	6
555.226	1	1
556.416	1	4
557.606	1	8
558.796	1	4
559.986	1	8
561.175	1	-6
562.365	1	15
563.555	1	-5
564.744	1	3
565.934	1	7
567.123	1	-4
568.313	1	-6
569.502	1	1
570.692	1	11
571.881	1	-1
573.070	1	7
574.260	1	21
575.449	1	9
576.638	1	7
577.827	1	4
579.016	1	2
580.205	1	-6
581.394	1	10
582.583	1	8
583.772	1	-1
584.961	1	2
586.150	1	-6
587.339	1	9
588.528	1	9
589.717	1	7
590.905	1	7
592.094	1	14
593.283	1	13
594.471	1	11
595.660	1	5
596.848	1	4
598.037	1	1
599.225	1	6
600.413	1	-5
601.602	1	13
602.790	1	10
603.978	1	4
605.166	1	13
606.355	1	9
607.543	1	6
608.731	1	3
609.919	1	6
611.107	1	-5
612.295	1	-1
613.483	1	0
614.671	1	9
615.858	1	-2
617.046	1	-5
618.234	1	7
619.422	1	-2
620.609	1	4
621.797	1	-1
622.985	1	0
624.172	1	7
625.360	1	7
626.547	1	-2
627.735	1	-10
628.922	1	-10
630.109	1	4
631.297	1	0
632.484	1	-3
633.671	1	10
634.858	1	5
636.045	1	5
637.232	1	6
638.419	1	-4
639.606	1	-1
640.793	1	4
641.980	1	0
643.167	1	-6
644.354	1	1
645.541	1	0
646.728	1	9
647.914	1	8
649.101	1	6
650.288	1	8
651.474	1	3
652.661	1	6
653.847	1	1
655.034	1	-4
656.220	1	2
657.406	1	1
658.593	1	-3
659.779	1	11
660.965	1	10
662.152	1	3
663.338	1	11
664.524	1	8
665.710	1	4
666.896	1	9
668.082	1	5
669.268	1	-4
670.454	1	0
671.640	1	10
672.826	1	4
674.011	1	4
675.197	1	-1
676.383	1	2
677.569	1	-2
678.754	1	8
679.940	1	10
681.125	1	1
682.311	1	1
683.496	1	9
684.682	1	2
685.867	1	12
687.053	1	-11
688.238	1	-5
688.746	1	-1