File: Data/GaN_170K_550ms/GaN_sample D_spot 18_UVVIS_170 K_200um_550 ms 2x2mm1_209.txt
340.368	1	-7
341.565	1	-5
342.763	1	2
343.960	1	-6
345.157	1	-6
346.354	1	-4
347.552	1	5
348.749	1	-1
349.946	1	7
351.143	1	3
352.340	1	-1
353.537	1	4
354.734	1	3
355.931	1	-2
357.127	1	1
358.324	1	15
359.521	1	4
360.718	1	6
361.914	1	9
363.111	1	15
364.308	1	16
365.504	1	16
366.701	1	21
367.897	1	21
369.093	1	2
370.290	1	24
371.486	1	8
372.682	1	21
373.879	1	19
375.075	1	17
376.271	1	11
377.467	1	14
378.663	1	4
379.859	1	6
381.055	1	12
382.251	1	5
383.447	1	0
384.643	1	6
385.839	1	-3
387.035	1	6
388.230	1	0
389.426	1	-2
390.622	1	-1
391.817	1	5
393.013	1	-4
394.208	1	11
395.404	1	5
396.599	1	3
397.795	1	-2
398.990	1	1
400.186	1	-6
401.381	1	9
402.576	1	-7
403.771	1	3
404.967	1	2
406.162	1	8
407.357	1	-7
408.552	1	9
409.747	1	-1
410.942	1	4
412.137	1	-5
413.332	1	-6
414.526	1	9
415.721	1	0
416.916	1	-11
418.111	1	14
419.305	1	4
420.500	1	-4
421.695	1	-13
422.889	1	-3
424.084	1	8
425.278	1	1
426.472	1	6
427.667	1	5
428.861	1	5
430.055	1	-1
431.250	1	10
432.444	1	7
433.638	1	5
434.832	1	9
436.026	1	-4
437.220	1	-4
438.414	1	-2
439.608	1	0
440.802	1	3
441.996	1	-4
443.190	1	1
444.384	1	-1
445.578	1	-3
446.771	1	-9
447.965	1	-5
449.159	1	-6
450.352	1	0
451.546	1	-14
452.739	1	6
453.933	1	1
455.126	1	1
456.320	1	1
457.513	1	9
458.706	1	5
459.899	1	-1
461.093	1	10
462.286	1	-8
463.479	1	-8
464.672	1	-4
465.865	1	3
467.058	1	8
468.251	1	-2
469.444	1	-2
470.637	1	-1
471.830	1	9
473.023	1	6
474.215	1	-2
475.408	1	-2
476.601	1	-5
477.793	1	0
478.986	1	4
480.179	1	-1
481.371	1	0
482.564	1	2
483.756	1	-5
484.948	1	-6
486.141	1	0
487.333	1	-6
488.525	1	7
489.718	1	12
490.910	1	6
492.102	1	3
493.294	1	-2
494.486	1	4
495.678	1	5
496.870	1	0
498.062	1	-7
499.254	1	3
500.446	1	-4
501.638	1	-4
502.829	1	7
504.021	1	6
505.213	1	-2
506.404	1	4
507.596	1	7
508.788	1	-6
509.979	1	5
511.171	1	8
512.362	1	1
513.553	1	9
514.745	1	3
515.936	1	1
517.127	1	0
518.319	1	3
519.510	1	2
520.701	1	5
521.892	1	10
523.083	1	-1
524.274	1	1
525.465	1	6
526.656	1	6
527.847	1	-1
529.038	1	1
530.229	1	7
531.419	1	11
532.610	1	2
533.801	1	8
534.991	1	-5
536.182	1	2
537.373	1	-3
538.563	1	10
539.754	1	6
540.944	1	1
542.134	1	0
543.325	1	-5
544.515	1	4
545.705	1	8
546.896	1	9
548.086	1	2
549.276	1	7
550.466	1	0
551.656	1	0
552.846	1	4
554.036	1	-1
555.226	1	-8
556.416	1	3
557.606	1	5
558.796	1	6
559.986	1	6
561.175	1	-3
562.365	1	3
563.555	1	4
564.744	1	4
565.934	1	6
567.123	1	-2
568.313	1	4
569.502	1	3
570.692	1	9
571.881	1	6
573.070	1	-4
574.260	1	3
575.449	1	4
576.638	1	-3
577.827	1	0
579.016	1	8
580.205	1	5
581.394	1	-7
582.583	1	-2
583.772	1	1
584.961	1	5
586.150	1	-4
587.339	1	0
588.528	1	-4
589.717	1	3
590.905	1	9
592.094	1	10
593.283	1	-3
594.471	1	6
595.660	1	3
596.848	1	4
598.037	1	1
599.225	1	6
600.413	1	-8
601.602	1	-2
602.790	1	11
603.978	1	5
605.166	1	4
606.355	1	9
607.543	1	9
608.731	1	0
609.919	1	-1
611.107	1	-7
612.295	1	6
613.483	1	-7
614.671	1	12
615.858	1	1
617.046	1	-8
618.234	1	4
619.422	1	-2
620.609	1	8
621.797	1	0
622.985	1	8
624.172	1	8
625.360	1	3
626.547	1	-5
627.735	1	-8
628.922	1	-5
630.109	1	0
631.297	1	6
632.484	1	-7
633.671	1	9
634.858	1	-1
636.045	1	6
637.232	1	2
638.419	1	-1
639.606	1	-5
640.793	1	3
641.980	1	1
643.167	1	2
644.354	1	0
645.541	1	10
646.728	1	0
647.914	1	-4
649.101	1	4
650.288	1	3
651.474	1	4
652.661	1	3
653.847	1	4
655.034	1	-4
656.220	1	6
657.406	1	0
658.593	1	-5
659.779	1	-4
660.965	1	11
662.152	1	3
663.338	1	-4
664.524	1	12
665.710	1	0
666.896	1	7
668.082	1	7
669.268	1	-3
670.454	1	-1
671.640	1	2
672.826	1	-2
674.011	1	6
675.197	1	7
676.383	1	5
677.569	1	-6
678.754	1	8
679.940	1	0
681.125	1	2
682.311	1	-1
683.496	1	3
684.682	1	4
685.867	1	5
687.053	1	-5
688.238	1	0
688.746	1	-4