File: Data/GaN_170K_550ms/GaN_sample D_spot 18_UVVIS_170 K_200um_550 ms 2x2mm1_89.txt
340.368	1	-3
341.565	1	10
342.763	1	3
343.960	1	-6
345.157	1	1
346.354	1	-1
347.552	1	12
348.749	1	11
349.946	1	12
351.143	1	10
352.340	1	5
353.537	1	9
354.734	1	12
355.931	1	13
357.127	1	10
358.324	1	24
359.521	1	24
360.718	1	22
361.914	1	35
363.111	1	57
364.308	1	73
365.504	1	90
366.701	1	117
367.897	1	119
369.093	1	119
370.290	1	129
371.486	1	106
372.682	1	86
373.879	1	83
375.075	1	65
376.271	1	56
377.467	1	49
378.663	1	49
379.859	1	46
381.055	1	40
382.251	1	18
383.447	1	31
384.643	1	22
385.839	1	8
387.035	1	19
388.230	1	13
389.426	1	20
390.622	1	4
391.817	1	13
393.013	1	7
394.208	1	14
395.404	1	13
396.599	1	6
397.795	1	7
398.990	1	-9
400.186	1	-2
401.381	1	14
402.576	1	6
403.771	1	-4
404.967	1	10
406.162	1	14
407.357	1	-1
408.552	1	-2
409.747	1	3
410.942	1	7
412.137	1	-4
413.332	1	8
414.526	1	11
415.721	1	13
416.916	1	4
418.111	1	14
419.305	1	3
420.500	1	-1
421.695	1	-2
422.889	1	3
424.084	1	11
425.278	1	1
426.472	1	2
427.667	1	-2
428.861	1	7
430.055	1	6
431.250	1	22
432.444	1	1
433.638	1	9
434.832	1	6
436.026	1	3
437.220	1	7
438.414	1	-5
439.608	1	-1
440.802	1	8
441.996	1	2
443.190	1	-2
444.384	1	-6
445.578	1	11
446.771	1	-8
447.965	1	1
449.159	1	5
450.352	1	-8
451.546	1	-14
452.739	1	13
453.933	1	0
455.126	1	14
456.320	1	3
457.513	1	12
458.706	1	11
459.899	1	5
461.093	1	13
462.286	1	-6
463.479	1	-4
464.672	1	-6
465.865	1	9
467.058	1	6
468.251	1	6
469.444	1	7
470.637	1	11
471.830	1	7
473.023	1	1
474.215	1	-1
475.408	1	-6
476.601	1	12
477.793	1	12
478.986	1	-4
480.179	1	-1
481.371	1	6
482.564	1	1
483.756	1	2
484.948	1	1
486.141	1	9
487.333	1	1
488.525	1	4
489.718	1	15
490.910	1	8
492.102	1	4
493.294	1	10
494.486	1	6
495.678	1	11
496.870	1	0
498.062	1	9
499.254	1	12
500.446	1	9
501.638	1	-2
502.829	1	7
504.021	1	6
505.213	1	7
506.404	1	13
507.596	1	21
508.788	1	1
509.979	1	23
511.171	1	21
512.362	1	10
513.553	1	18
514.745	1	10
515.936	1	11
517.127	1	19
518.319	1	19
519.510	1	18
520.701	1	18
521.892	1	16
523.083	1	16
524.274	1	20
525.465	1	29
526.656	1	25
527.847	1	19
529.038	1	18
530.229	1	25
531.419	1	26
532.610	1	24
533.801	1	33
534.991	1	11
536.182	1	19
537.373	1	22
538.563	1	14
539.754	1	21
540.944	1	8
542.134	1	15
543.325	1	23
544.515	1	9
545.705	1	23
546.896	1	15
548.086	1	21
549.276	1	18
550.466	1	14
551.656	1	18
552.846	1	13
554.036	1	25
555.226	1	8
556.416	1	17
557.606	1	19
558.796	1	16
559.986	1	23
561.175	1	8
562.365	1	21
563.555	1	12
564.744	1	14
565.934	1	5
567.123	1	18
568.313	1	12
569.502	1	11
570.692	1	16
571.881	1	12
573.070	1	14
574.260	1	7
575.449	1	11
576.638	1	20
577.827	1	13
579.016	1	21
580.205	1	-5
581.394	1	2
582.583	1	10
583.772	1	5
584.961	1	5
586.150	1	9
587.339	1	16
588.528	1	4
589.717	1	8
590.905	1	19
592.094	1	13
593.283	1	8
594.471	1	17
595.660	1	5
596.848	1	5
598.037	1	5
599.225	1	8
600.413	1	0
601.602	1	3
602.790	1	19
603.978	1	14
605.166	1	5
606.355	1	6
607.543	1	8
608.731	1	12
609.919	1	4
611.107	1	-2
612.295	1	7
613.483	1	-1
614.671	1	17
615.858	1	7
617.046	1	1
618.234	1	10
619.422	1	-6
620.609	1	16
621.797	1	7
622.985	1	4
624.172	1	8
625.360	1	6
626.547	1	3
627.735	1	-8
628.922	1	1
630.109	1	0
631.297	1	5
632.484	1	-1
633.671	1	16
634.858	1	11
636.045	1	5
637.232	1	9
638.419	1	-6
639.606	1	2
640.793	1	-3
641.980	1	4
643.167	1	-3
644.354	1	12
645.541	1	-1
646.728	1	-1
647.914	1	5
649.101	1	-5
650.288	1	5
651.474	1	5
652.661	1	10
653.847	1	5
655.034	1	-1
656.220	1	7
657.406	1	10
658.593	1	1
659.779	1	13
660.965	1	11
662.152	1	11
663.338	1	1
664.524	1	3
665.710	1	-4
666.896	1	13
668.082	1	9
669.268	1	0
670.454	1	-3
671.640	1	8
672.826	1	5
674.011	1	14
675.197	1	10
676.383	1	8
677.569	1	4
678.754	1	4
679.940	1	18
681.125	1	2
682.311	1	6
683.496	1	8
684.682	1	10
685.867	1	12
687.053	1	-5
688.238	1	0
688.746	1	-4