File: Data/GaN_170K_550ms/GaN_sample D_spot 18_UVVIS_170 K_200um_550 ms 2x2mm1_332.txt
340.368	1	2
341.565	1	2
342.763	1	-10
343.960	1	1
345.157	1	-3
346.354	1	-11
347.552	1	2
348.749	1	7
349.946	1	4
351.143	1	-1
352.340	1	5
353.537	1	3
354.734	1	5
355.931	1	-7
357.127	1	-6
358.324	1	9
359.521	1	3
360.718	1	-1
361.914	1	4
363.111	1	12
364.308	1	7
365.504	1	1
366.701	1	5
367.897	1	4
369.093	1	-5
370.290	1	7
371.486	1	-3
372.682	1	4
373.879	1	5
375.075	1	3
376.271	1	10
377.467	1	-4
378.663	1	1
379.859	1	9
381.055	1	-3
382.251	1	-1
383.447	1	20
384.643	1	-1
385.839	1	1
387.035	1	5
388.230	1	-6
389.426	1	6
390.622	1	2
391.817	1	5
393.013	1	-1
394.208	1	9
395.404	1	5
396.599	1	-4
397.795	1	-3
398.990	1	-11
400.186	1	-9
401.381	1	16
402.576	1	0
403.771	1	4
404.967	1	1
406.162	1	7
407.357	1	2
408.552	1	-5
409.747	1	0
410.942	1	-3
412.137	1	2
413.332	1	-8
414.526	1	8
415.721	1	3
416.916	1	-1
418.111	1	4
419.305	1	5
420.500	1	1
421.695	1	-5
422.889	1	-5
424.084	1	15
425.278	1	2
426.472	1	6
427.667	1	7
428.861	1	13
430.055	1	-2
431.250	1	5
432.444	1	-2
433.638	1	11
434.832	1	7
436.026	1	-3
437.220	1	5
438.414	1	-5
439.608	1	-4
440.802	1	9
441.996	1	4
443.190	1	0
444.384	1	-5
445.578	1	2
446.771	1	-8
447.965	1	-5
449.159	1	2
450.352	1	1
451.546	1	-4
452.739	1	6
453.933	1	4
455.126	1	3
456.320	1	1
457.513	1	1
458.706	1	3
459.899	1	-6
461.093	1	9
462.286	1	-4
463.479	1	-4
464.672	1	-9
465.865	1	7
467.058	1	6
468.251	1	4
469.444	1	3
470.637	1	-4
471.830	1	-9
473.023	1	5
474.215	1	-1
475.408	1	-5
476.601	1	2
477.793	1	6
478.986	1	-1
480.179	1	-2
481.371	1	4
482.564	1	-7
483.756	1	5
484.948	1	1
486.141	1	18
487.333	1	2
488.525	1	1
489.718	1	-3
490.910	1	-3
492.102	1	7
493.294	1	-7
494.486	1	0
495.678	1	2
496.870	1	3
498.062	1	0
499.254	1	4
500.446	1	-1
501.638	1	0
502.829	1	4
504.021	1	2
505.213	1	-6
506.404	1	-1
507.596	1	13
508.788	1	-9
509.979	1	-3
511.171	1	8
512.362	1	-14
513.553	1	-6
514.745	1	-6
515.936	1	3
517.127	1	4
518.319	1	2
519.510	1	8
520.701	1	6
521.892	1	-3
523.083	1	2
524.274	1	-2
525.465	1	-8
526.656	1	10
527.847	1	-8
529.038	1	-1
530.229	1	2
531.419	1	2
532.610	1	0
533.801	1	7
534.991	1	-4
536.182	1	5
537.373	1	-9
538.563	1	8
539.754	1	2
540.944	1	2
542.134	1	-4
543.325	1	-7
544.515	1	-2
545.705	1	6
546.896	1	1
548.086	1	8
549.276	1	1
550.466	1	2
551.656	1	-3
552.846	1	5
554.036	1	-1
555.226	1	-6
556.416	1	-1
557.606	1	13
558.796	1	0
559.986	1	7
561.175	1	-3
562.365	1	1
563.555	1	-1
564.744	1	6
565.934	1	7
567.123	1	-1
568.313	1	3
569.502	1	4
570.692	1	19
571.881	1	0
573.070	1	-2
574.260	1	-6
575.449	1	7
576.638	1	2
577.827	1	-3
579.016	1	6
580.205	1	6
581.394	1	4
582.583	1	-6
583.772	1	1
584.961	1	2
586.150	1	-1
587.339	1	-1
588.528	1	-2
589.717	1	2
590.905	1	11
592.094	1	6
593.283	1	-8
594.471	1	8
595.660	1	0
596.848	1	3
598.037	1	8
599.225	1	3
600.413	1	-4
601.602	1	-3
602.790	1	10
603.978	1	0
605.166	1	10
606.355	1	7
607.543	1	1
608.731	1	6
609.919	1	1
611.107	1	-2
612.295	1	3
613.483	1	-2
614.671	1	6
615.858	1	-4
617.046	1	-9
618.234	1	-5
619.422	1	0
620.609	1	-1
621.797	1	1
622.985	1	6
624.172	1	-4
625.360	1	1
626.547	1	-8
627.735	1	-10
628.922	1	-6
630.109	1	2
631.297	1	-4
632.484	1	-9
633.671	1	14
634.858	1	-4
636.045	1	3
637.232	1	8
638.419	1	-1
639.606	1	-8
640.793	1	0
641.980	1	4
643.167	1	-6
644.354	1	5
645.541	1	9
646.728	1	7
647.914	1	-2
649.101	1	0
650.288	1	3
651.474	1	1
652.661	1	4
653.847	1	3
655.034	1	-3
656.220	1	0
657.406	1	-1
658.593	1	0
659.779	1	-3
660.965	1	4
662.152	1	6
663.338	1	1
664.524	1	10
665.710	1	3
666.896	1	-1
668.082	1	3
669.268	1	1
670.454	1	-7
671.640	1	2
672.826	1	-2
674.011	1	17
675.197	1	6
676.383	1	-7
677.569	1	-5
678.754	1	3
679.940	1	6
681.125	1	4
682.311	1	0
683.496	1	5
684.682	1	-5
685.867	1	9
687.053	1	-4
688.238	1	-6
688.746	1	-4