File: Data/GaN_170K_550ms/GaN_sample D_spot 18_UVVIS_170 K_200um_550 ms 2x2mm1_256.txt
340.368	1	-7
341.565	1	7
342.763	1	12
343.960	1	1
345.157	1	-5
346.354	1	-1
347.552	1	1
348.749	1	8
349.946	1	6
351.143	1	-3
352.340	1	6
353.537	1	3
354.734	1	1
355.931	1	7
357.127	1	-6
358.324	1	8
359.521	1	14
360.718	1	2
361.914	1	4
363.111	1	11
364.308	1	16
365.504	1	2
366.701	1	8
367.897	1	16
369.093	1	6
370.290	1	9
371.486	1	-1
372.682	1	5
373.879	1	10
375.075	1	5
376.271	1	6
377.467	1	13
378.663	1	6
379.859	1	12
381.055	1	-2
382.251	1	10
383.447	1	8
384.643	1	3
385.839	1	2
387.035	1	-5
388.230	1	-4
389.426	1	10
390.622	1	5
391.817	1	5
393.013	1	-3
394.208	1	1
395.404	1	6
396.599	1	-7
397.795	1	6
398.990	1	-10
400.186	1	-1
401.381	1	6
402.576	1	0
403.771	1	3
404.967	1	4
406.162	1	10
407.357	1	-6
408.552	1	4
409.747	1	7
410.942	1	-1
412.137	1	-3
413.332	1	4
414.526	1	9
415.721	1	3
416.916	1	-3
418.111	1	2
419.305	1	-2
420.500	1	-2
421.695	1	-6
422.889	1	2
424.084	1	25
425.278	1	2
426.472	1	4
427.667	1	11
428.861	1	3
430.055	1	-8
431.250	1	3
432.444	1	-8
433.638	1	11
434.832	1	8
436.026	1	-2
437.220	1	3
438.414	1	-3
439.608	1	-5
440.802	1	16
441.996	1	5
443.190	1	-2
444.384	1	-1
445.578	1	7
446.771	1	0
447.965	1	5
449.159	1	0
450.352	1	-12
451.546	1	-17
452.739	1	2
453.933	1	-12
455.126	1	4
456.320	1	0
457.513	1	5
458.706	1	6
459.899	1	-2
461.093	1	3
462.286	1	-6
463.479	1	-4
464.672	1	1
465.865	1	6
467.058	1	8
468.251	1	6
469.444	1	7
470.637	1	0
471.830	1	-3
473.023	1	2
474.215	1	-2
475.408	1	-1
476.601	1	3
477.793	1	6
478.986	1	-3
480.179	1	2
481.371	1	-4
482.564	1	-6
483.756	1	5
484.948	1	3
486.141	1	8
487.333	1	-9
488.525	1	8
489.718	1	9
490.910	1	4
492.102	1	-5
493.294	1	-7
494.486	1	12
495.678	1	1
496.870	1	-7
498.062	1	-6
499.254	1	3
500.446	1	-2
501.638	1	-11
502.829	1	10
504.021	1	3
505.213	1	0
506.404	1	-1
507.596	1	10
508.788	1	-6
509.979	1	5
511.171	1	2
512.362	1	0
513.553	1	1
514.745	1	2
515.936	1	2
517.127	1	12
518.319	1	10
519.510	1	11
520.701	1	10
521.892	1	6
523.083	1	-2
524.274	1	7
525.465	1	0
526.656	1	10
527.847	1	-2
529.038	1	2
530.229	1	15
531.419	1	3
532.610	1	7
533.801	1	2
534.991	1	-6
536.182	1	0
537.373	1	-6
538.563	1	0
539.754	1	3
540.944	1	-8
542.134	1	-3
543.325	1	0
544.515	1	7
545.705	1	7
546.896	1	10
548.086	1	2
549.276	1	4
550.466	1	1
551.656	1	7
552.846	1	1
554.036	1	2
555.226	1	-9
556.416	1	-2
557.606	1	2
558.796	1	2
559.986	1	4
561.175	1	-1
562.365	1	4
563.555	1	1
564.744	1	6
565.934	1	0
567.123	1	4
568.313	1	-2
569.502	1	2
570.692	1	14
571.881	1	-3
573.070	1	1
574.260	1	0
575.449	1	2
576.638	1	3
577.827	1	0
579.016	1	4
580.205	1	-10
581.394	1	2
582.583	1	1
583.772	1	-3
584.961	1	-3
586.150	1	0
587.339	1	4
588.528	1	0
589.717	1	2
590.905	1	15
592.094	1	6
593.283	1	2
594.471	1	7
595.660	1	-6
596.848	1	-1
598.037	1	4
599.225	1	5
600.413	1	-12
601.602	1	3
602.790	1	2
603.978	1	1
605.166	1	0
606.355	1	6
607.543	1	0
608.731	1	1
609.919	1	1
611.107	1	-7
612.295	1	-6
613.483	1	3
614.671	1	6
615.858	1	-6
617.046	1	-1
618.234	1	4
619.422	1	2
620.609	1	0
621.797	1	5
622.985	1	2
624.172	1	0
625.360	1	1
626.547	1	-4
627.735	1	-9
628.922	1	-13
630.109	1	1
631.297	1	-2
632.484	1	-7
633.671	1	10
634.858	1	-2
636.045	1	8
637.232	1	5
638.419	1	-2
639.606	1	-10
640.793	1	-3
641.980	1	-5
643.167	1	0
644.354	1	4
645.541	1	-3
646.728	1	5
647.914	1	1
649.101	1	2
650.288	1	-8
651.474	1	8
652.661	1	2
653.847	1	2
655.034	1	0
656.220	1	6
657.406	1	5
658.593	1	3
659.779	1	8
660.965	1	7
662.152	1	-1
663.338	1	0
664.524	1	9
665.710	1	8
666.896	1	9
668.082	1	12
669.268	1	5
670.454	1	-7
671.640	1	0
672.826	1	-4
674.011	1	11
675.197	1	2
676.383	1	-4
677.569	1	-7
678.754	1	0
679.940	1	4
681.125	1	2
682.311	1	1
683.496	1	6
684.682	1	2
685.867	1	0
687.053	1	-11
688.238	1	-7
688.746	1	-4