File: Data/GaN_170K_550ms/GaN_sample D_spot 18_UVVIS_170 K_200um_550 ms 2x2mm1_150.txt
340.368	1	-5
341.565	1	-1
342.763	1	9
343.960	1	7
345.157	1	1
346.354	1	-1
347.552	1	6
348.749	1	5
349.946	1	12
351.143	1	0
352.340	1	11
353.537	1	12
354.734	1	5
355.931	1	5
357.127	1	8
358.324	1	11
359.521	1	11
360.718	1	9
361.914	1	15
363.111	1	33
364.308	1	12
365.504	1	19
366.701	1	25
367.897	1	21
369.093	1	35
370.290	1	34
371.486	1	32
372.682	1	39
373.879	1	27
375.075	1	28
376.271	1	22
377.467	1	21
378.663	1	11
379.859	1	12
381.055	1	10
382.251	1	12
383.447	1	17
384.643	1	7
385.839	1	-4
387.035	1	4
388.230	1	1
389.426	1	10
390.622	1	5
391.817	1	11
393.013	1	3
394.208	1	9
395.404	1	9
396.599	1	1
397.795	1	-5
398.990	1	-6
400.186	1	-8
401.381	1	6
402.576	1	9
403.771	1	4
404.967	1	5
406.162	1	3
407.357	1	-3
408.552	1	0
409.747	1	4
410.942	1	7
412.137	1	-3
413.332	1	-4
414.526	1	6
415.721	1	2
416.916	1	3
418.111	1	4
419.305	1	0
420.500	1	-2
421.695	1	-4
422.889	1	-6
424.084	1	15
425.278	1	0
426.472	1	5
427.667	1	9
428.861	1	-2
430.055	1	-1
431.250	1	9
432.444	1	8
433.638	1	15
434.832	1	6
436.026	1	-8
437.220	1	5
438.414	1	0
439.608	1	-2
440.802	1	12
441.996	1	0
443.190	1	-3
444.384	1	0
445.578	1	0
446.771	1	-10
447.965	1	1
449.159	1	-3
450.352	1	-2
451.546	1	-12
452.739	1	-4
453.933	1	-6
455.126	1	18
456.320	1	1
457.513	1	11
458.706	1	10
459.899	1	2
461.093	1	9
462.286	1	-9
463.479	1	-9
464.672	1	-1
465.865	1	5
467.058	1	5
468.251	1	-1
469.444	1	6
470.637	1	2
471.830	1	5
473.023	1	7
474.215	1	9
475.408	1	-7
476.601	1	6
477.793	1	2
478.986	1	-8
480.179	1	0
481.371	1	-4
482.564	1	0
483.756	1	4
484.948	1	1
486.141	1	13
487.333	1	1
488.525	1	7
489.718	1	5
490.910	1	9
492.102	1	-3
493.294	1	-2
494.486	1	16
495.678	1	9
496.870	1	1
498.062	1	2
499.254	1	5
500.446	1	0
501.638	1	-2
502.829	1	6
504.021	1	7
505.213	1	5
506.404	1	4
507.596	1	8
508.788	1	-4
509.979	1	10
511.171	1	7
512.362	1	-1
513.553	1	3
514.745	1	6
515.936	1	3
517.127	1	5
518.319	1	-2
519.510	1	0
520.701	1	7
521.892	1	1
523.083	1	18
524.274	1	8
525.465	1	4
526.656	1	15
527.847	1	4
529.038	1	3
530.229	1	14
531.419	1	9
532.610	1	5
533.801	1	12
534.991	1	8
536.182	1	4
537.373	1	-3
538.563	1	5
539.754	1	2
540.944	1	-4
542.134	1	4
543.325	1	4
544.515	1	0
545.705	1	7
546.896	1	12
548.086	1	7
549.276	1	0
550.466	1	5
551.656	1	6
552.846	1	-5
554.036	1	8
555.226	1	-7
556.416	1	-3
557.606	1	6
558.796	1	-1
559.986	1	5
561.175	1	6
562.365	1	3
563.555	1	1
564.744	1	2
565.934	1	11
567.123	1	3
568.313	1	3
569.502	1	5
570.692	1	8
571.881	1	2
573.070	1	0
574.260	1	14
575.449	1	7
576.638	1	10
577.827	1	2
579.016	1	1
580.205	1	-6
581.394	1	11
582.583	1	7
583.772	1	-1
584.961	1	6
586.150	1	3
587.339	1	-4
588.528	1	-3
589.717	1	7
590.905	1	9
592.094	1	11
593.283	1	18
594.471	1	11
595.660	1	2
596.848	1	5
598.037	1	0
599.225	1	3
600.413	1	-2
601.602	1	3
602.790	1	10
603.978	1	8
605.166	1	6
606.355	1	8
607.543	1	14
608.731	1	4
609.919	1	6
611.107	1	-8
612.295	1	3
613.483	1	1
614.671	1	1
615.858	1	2
617.046	1	6
618.234	1	3
619.422	1	-2
620.609	1	2
621.797	1	0
622.985	1	3
624.172	1	8
625.360	1	8
626.547	1	-4
627.735	1	-8
628.922	1	-5
630.109	1	1
631.297	1	0
632.484	1	-2
633.671	1	9
634.858	1	-2
636.045	1	7
637.232	1	6
638.419	1	-6
639.606	1	3
640.793	1	-1
641.980	1	-5
643.167	1	5
644.354	1	7
645.541	1	9
646.728	1	8
647.914	1	12
649.101	1	2
650.288	1	5
651.474	1	3
652.661	1	3
653.847	1	3
655.034	1	5
656.220	1	-1
657.406	1	-3
658.593	1	1
659.779	1	8
660.965	1	9
662.152	1	4
663.338	1	10
664.524	1	2
665.710	1	6
666.896	1	-1
668.082	1	7
669.268	1	-10
670.454	1	-9
671.640	1	7
672.826	1	3
674.011	1	13
675.197	1	2
676.383	1	4
677.569	1	-9
678.754	1	10
679.940	1	8
681.125	1	8
682.311	1	2
683.496	1	3
684.682	1	9
685.867	1	4
687.053	1	-2
688.238	1	0
688.746	1	-6