File: Data/GaN_170K_550ms/GaN_sample D_spot 18_UVVIS_170 K_200um_550 ms 2x2mm1_213.txt
340.368	1	1
341.565	1	6
342.763	1	4
343.960	1	4
345.157	1	2
346.354	1	-8
347.552	1	6
348.749	1	9
349.946	1	1
351.143	1	-2
352.340	1	1
353.537	1	4
354.734	1	2
355.931	1	11
357.127	1	-1
358.324	1	3
359.521	1	7
360.718	1	3
361.914	1	-9
363.111	1	15
364.308	1	12
365.504	1	6
366.701	1	15
367.897	1	13
369.093	1	12
370.290	1	23
371.486	1	9
372.682	1	8
373.879	1	17
375.075	1	10
376.271	1	8
377.467	1	16
378.663	1	5
379.859	1	0
381.055	1	7
382.251	1	2
383.447	1	9
384.643	1	4
385.839	1	-7
387.035	1	2
388.230	1	2
389.426	1	6
390.622	1	-1
391.817	1	-6
393.013	1	-9
394.208	1	12
395.404	1	16
396.599	1	-1
397.795	1	7
398.990	1	-5
400.186	1	6
401.381	1	13
402.576	1	-1
403.771	1	7
404.967	1	1
406.162	1	10
407.357	1	2
408.552	1	-8
409.747	1	2
410.942	1	0
412.137	1	-9
413.332	1	3
414.526	1	3
415.721	1	1
416.916	1	1
418.111	1	4
419.305	1	7
420.500	1	0
421.695	1	-7
422.889	1	7
424.084	1	12
425.278	1	4
426.472	1	-1
427.667	1	12
428.861	1	3
430.055	1	-12
431.250	1	9
432.444	1	-4
433.638	1	13
434.832	1	7
436.026	1	2
437.220	1	-9
438.414	1	-8
439.608	1	-8
440.802	1	9
441.996	1	3
443.190	1	1
444.384	1	5
445.578	1	11
446.771	1	-2
447.965	1	0
449.159	1	-1
450.352	1	-7
451.546	1	-3
452.739	1	7
453.933	1	-1
455.126	1	11
456.320	1	-5
457.513	1	6
458.706	1	15
459.899	1	0
461.093	1	5
462.286	1	-8
463.479	1	-6
464.672	1	-10
465.865	1	6
467.058	1	2
468.251	1	-5
469.444	1	2
470.637	1	2
471.830	1	2
473.023	1	-3
474.215	1	2
475.408	1	-2
476.601	1	7
477.793	1	6
478.986	1	-3
480.179	1	-4
481.371	1	-2
482.564	1	-2
483.756	1	8
484.948	1	-4
486.141	1	17
487.333	1	-12
488.525	1	9
489.718	1	7
490.910	1	3
492.102	1	-3
493.294	1	2
494.486	1	11
495.678	1	3
496.870	1	2
498.062	1	1
499.254	1	7
500.446	1	3
501.638	1	0
502.829	1	6
504.021	1	5
505.213	1	-2
506.404	1	5
507.596	1	4
508.788	1	-1
509.979	1	2
511.171	1	7
512.362	1	3
513.553	1	1
514.745	1	0
515.936	1	4
517.127	1	10
518.319	1	7
519.510	1	7
520.701	1	2
521.892	1	-3
523.083	1	0
524.274	1	-2
525.465	1	12
526.656	1	6
527.847	1	8
529.038	1	7
530.229	1	6
531.419	1	3
532.610	1	6
533.801	1	5
534.991	1	-3
536.182	1	1
537.373	1	-3
538.563	1	1
539.754	1	4
540.944	1	5
542.134	1	3
543.325	1	4
544.515	1	2
545.705	1	-2
546.896	1	7
548.086	1	9
549.276	1	12
550.466	1	9
551.656	1	11
552.846	1	1
554.036	1	4
555.226	1	-1
556.416	1	8
557.606	1	8
558.796	1	-5
559.986	1	3
561.175	1	-2
562.365	1	-1
563.555	1	8
564.744	1	9
565.934	1	6
567.123	1	-1
568.313	1	-14
569.502	1	2
570.692	1	16
571.881	1	-3
573.070	1	0
574.260	1	6
575.449	1	2
576.638	1	7
577.827	1	4
579.016	1	7
580.205	1	0
581.394	1	5
582.583	1	1
583.772	1	0
584.961	1	-1
586.150	1	1
587.339	1	-6
588.528	1	-4
589.717	1	5
590.905	1	9
592.094	1	2
593.283	1	4
594.471	1	0
595.660	1	7
596.848	1	5
598.037	1	8
599.225	1	3
600.413	1	-8
601.602	1	6
602.790	1	19
603.978	1	13
605.166	1	-2
606.355	1	11
607.543	1	8
608.731	1	2
609.919	1	3
611.107	1	-5
612.295	1	3
613.483	1	-2
614.671	1	5
615.858	1	-3
617.046	1	-6
618.234	1	3
619.422	1	2
620.609	1	1
621.797	1	-2
622.985	1	2
624.172	1	4
625.360	1	1
626.547	1	-7
627.735	1	-5
628.922	1	-4
630.109	1	-4
631.297	1	-9
632.484	1	10
633.671	1	12
634.858	1	6
636.045	1	7
637.232	1	3
638.419	1	-8
639.606	1	-7
640.793	1	-1
641.980	1	1
643.167	1	0
644.354	1	3
645.541	1	3
646.728	1	6
647.914	1	-6
649.101	1	-1
650.288	1	0
651.474	1	6
652.661	1	1
653.847	1	2
655.034	1	5
656.220	1	2
657.406	1	12
658.593	1	5
659.779	1	-2
660.965	1	11
662.152	1	2
663.338	1	9
664.524	1	2
665.710	1	8
666.896	1	2
668.082	1	12
669.268	1	-3
670.454	1	-5
671.640	1	-3
672.826	1	-3
674.011	1	8
675.197	1	8
676.383	1	6
677.569	1	1
678.754	1	-6
679.940	1	7
681.125	1	5
682.311	1	6
683.496	1	9
684.682	1	4
685.867	1	2
687.053	1	-11
688.238	1	-11
688.746	1	-12