File: Data/GaN_170K_550ms/GaN_sample D_spot 18_UVVIS_170 K_200um_550 ms 2x2mm1_20.txt
340.368	1	-2
341.565	1	3
342.763	1	-6
343.960	1	1
345.157	1	2
346.354	1	-8
347.552	1	5
348.749	1	2
349.946	1	12
351.143	1	4
352.340	1	6
353.537	1	4
354.734	1	11
355.931	1	-2
357.127	1	-7
358.324	1	1
359.521	1	6
360.718	1	1
361.914	1	-4
363.111	1	11
364.308	1	2
365.504	1	-5
366.701	1	0
367.897	1	-5
369.093	1	-4
370.290	1	-1
371.486	1	-5
372.682	1	3
373.879	1	9
375.075	1	-6
376.271	1	5
377.467	1	5
378.663	1	-3
379.859	1	1
381.055	1	-2
382.251	1	0
383.447	1	1
384.643	1	-2
385.839	1	-3
387.035	1	5
388.230	1	8
389.426	1	5
390.622	1	-1
391.817	1	6
393.013	1	-8
394.208	1	7
395.404	1	4
396.599	1	-6
397.795	1	-7
398.990	1	-4
400.186	1	2
401.381	1	4
402.576	1	12
403.771	1	-5
404.967	1	3
406.162	1	8
407.357	1	-1
408.552	1	3
409.747	1	0
410.942	1	-5
412.137	1	-5
413.332	1	-1
414.526	1	0
415.721	1	1
416.916	1	-3
418.111	1	9
419.305	1	-6
420.500	1	-2
421.695	1	-3
422.889	1	-5
424.084	1	11
425.278	1	-3
426.472	1	-1
427.667	1	3
428.861	1	1
430.055	1	-2
431.250	1	8
432.444	1	-2
433.638	1	9
434.832	1	3
436.026	1	1
437.220	1	4
438.414	1	3
439.608	1	0
440.802	1	5
441.996	1	-7
443.190	1	1
444.384	1	3
445.578	1	4
446.771	1	-6
447.965	1	-2
449.159	1	1
450.352	1	-3
451.546	1	-7
452.739	1	4
453.933	1	0
455.126	1	15
456.320	1	10
457.513	1	7
458.706	1	16
459.899	1	-2
461.093	1	6
462.286	1	4
463.479	1	4
464.672	1	1
465.865	1	4
467.058	1	9
468.251	1	-2
469.444	1	-1
470.637	1	6
471.830	1	-2
473.023	1	-1
474.215	1	2
475.408	1	-6
476.601	1	-1
477.793	1	7
478.986	1	-1
480.179	1	-3
481.371	1	0
482.564	1	-2
483.756	1	6
484.948	1	-2
486.141	1	14
487.333	1	1
488.525	1	15
489.718	1	5
490.910	1	-3
492.102	1	3
493.294	1	1
494.486	1	9
495.678	1	3
496.870	1	6
498.062	1	4
499.254	1	5
500.446	1	2
501.638	1	-6
502.829	1	0
504.021	1	10
505.213	1	-1
506.404	1	6
507.596	1	13
508.788	1	-12
509.979	1	2
511.171	1	9
512.362	1	-1
513.553	1	-1
514.745	1	-3
515.936	1	-1
517.127	1	-2
518.319	1	10
519.510	1	0
520.701	1	1
521.892	1	3
523.083	1	-1
524.274	1	3
525.465	1	3
526.656	1	3
527.847	1	4
529.038	1	-4
530.229	1	17
531.419	1	7
532.610	1	6
533.801	1	-1
534.991	1	5
536.182	1	5
537.373	1	-2
538.563	1	1
539.754	1	1
540.944	1	-6
542.134	1	5
543.325	1	-7
544.515	1	-2
545.705	1	7
546.896	1	2
548.086	1	6
549.276	1	9
550.466	1	3
551.656	1	1
552.846	1	-3
554.036	1	8
555.226	1	-7
556.416	1	2
557.606	1	-1
558.796	1	0
559.986	1	1
561.175	1	-15
562.365	1	5
563.555	1	0
564.744	1	3
565.934	1	7
567.123	1	-6
568.313	1	1
569.502	1	-2
570.692	1	11
571.881	1	-2
573.070	1	-8
574.260	1	10
575.449	1	1
576.638	1	5
577.827	1	-4
579.016	1	1
580.205	1	-9
581.394	1	-5
582.583	1	4
583.772	1	-3
584.961	1	9
586.150	1	-5
587.339	1	1
588.528	1	1
589.717	1	4
590.905	1	7
592.094	1	3
593.283	1	7
594.471	1	7
595.660	1	4
596.848	1	0
598.037	1	0
599.225	1	4
600.413	1	-7
601.602	1	-4
602.790	1	6
603.978	1	-1
605.166	1	14
606.355	1	8
607.543	1	8
608.731	1	-3
609.919	1	-2
611.107	1	-5
612.295	1	-4
613.483	1	-1
614.671	1	7
615.858	1	-4
617.046	1	-5
618.234	1	-1
619.422	1	0
620.609	1	2
621.797	1	4
622.985	1	0
624.172	1	2
625.360	1	2
626.547	1	1
627.735	1	-13
628.922	1	-7
630.109	1	-2
631.297	1	-13
632.484	1	-9
633.671	1	10
634.858	1	-2
636.045	1	14
637.232	1	5
638.419	1	-5
639.606	1	2
640.793	1	2
641.980	1	-1
643.167	1	-1
644.354	1	4
645.541	1	4
646.728	1	-2
647.914	1	8
649.101	1	0
650.288	1	6
651.474	1	13
652.661	1	2
653.847	1	-8
655.034	1	3
656.220	1	2
657.406	1	9
658.593	1	3
659.779	1	4
660.965	1	15
662.152	1	-1
663.338	1	6
664.524	1	3
665.710	1	-5
666.896	1	-6
668.082	1	6
669.268	1	-5
670.454	1	-4
671.640	1	7
672.826	1	-1
674.011	1	5
675.197	1	8
676.383	1	-2
677.569	1	-9
678.754	1	7
679.940	1	5
681.125	1	6
682.311	1	0
683.496	1	-3
684.682	1	-4
685.867	1	-2
687.053	1	-10
688.238	1	-8
688.746	1	-3