File: Data/GaN_170K_550ms/GaN_sample D_spot 18_UVVIS_170 K_200um_550 ms 2x2mm1_246.txt
340.368	1	0
341.565	1	-1
342.763	1	9
343.960	1	0
345.157	1	6
346.354	1	-2
347.552	1	11
348.749	1	5
349.946	1	8
351.143	1	-5
352.340	1	0
353.537	1	8
354.734	1	8
355.931	1	3
357.127	1	-8
358.324	1	4
359.521	1	7
360.718	1	2
361.914	1	2
363.111	1	10
364.308	1	8
365.504	1	7
366.701	1	14
367.897	1	9
369.093	1	2
370.290	1	10
371.486	1	4
372.682	1	17
373.879	1	11
375.075	1	7
376.271	1	9
377.467	1	11
378.663	1	4
379.859	1	6
381.055	1	15
382.251	1	2
383.447	1	13
384.643	1	-3
385.839	1	-8
387.035	1	2
388.230	1	1
389.426	1	-2
390.622	1	3
391.817	1	1
393.013	1	1
394.208	1	6
395.404	1	-1
396.599	1	-2
397.795	1	2
398.990	1	-2
400.186	1	2
401.381	1	8
402.576	1	2
403.771	1	7
404.967	1	2
406.162	1	3
407.357	1	-2
408.552	1	-7
409.747	1	0
410.942	1	7
412.137	1	-7
413.332	1	-8
414.526	1	9
415.721	1	-7
416.916	1	-1
418.111	1	4
419.305	1	4
420.500	1	-7
421.695	1	-5
422.889	1	-2
424.084	1	14
425.278	1	9
426.472	1	0
427.667	1	6
428.861	1	0
430.055	1	-8
431.250	1	12
432.444	1	-4
433.638	1	3
434.832	1	7
436.026	1	-2
437.220	1	0
438.414	1	-1
439.608	1	6
440.802	1	19
441.996	1	-5
443.190	1	-1
444.384	1	7
445.578	1	10
446.771	1	-8
447.965	1	0
449.159	1	-8
450.352	1	-3
451.546	1	-8
452.739	1	6
453.933	1	5
455.126	1	13
456.320	1	-6
457.513	1	12
458.706	1	6
459.899	1	-3
461.093	1	9
462.286	1	-11
463.479	1	-9
464.672	1	3
465.865	1	7
467.058	1	-1
468.251	1	8
469.444	1	0
470.637	1	-2
471.830	1	-2
473.023	1	0
474.215	1	4
475.408	1	-4
476.601	1	0
477.793	1	2
478.986	1	4
480.179	1	-2
481.371	1	4
482.564	1	-4
483.756	1	1
484.948	1	-7
486.141	1	10
487.333	1	-2
488.525	1	13
489.718	1	13
490.910	1	-4
492.102	1	-7
493.294	1	3
494.486	1	9
495.678	1	-5
496.870	1	2
498.062	1	-5
499.254	1	6
500.446	1	3
501.638	1	-10
502.829	1	3
504.021	1	0
505.213	1	-3
506.404	1	5
507.596	1	8
508.788	1	2
509.979	1	2
511.171	1	9
512.362	1	-4
513.553	1	6
514.745	1	5
515.936	1	2
517.127	1	4
518.319	1	11
519.510	1	11
520.701	1	10
521.892	1	-4
523.083	1	0
524.274	1	-2
525.465	1	4
526.656	1	4
527.847	1	9
529.038	1	-1
530.229	1	7
531.419	1	12
532.610	1	3
533.801	1	2
534.991	1	-5
536.182	1	2
537.373	1	-3
538.563	1	5
539.754	1	4
540.944	1	-4
542.134	1	0
543.325	1	6
544.515	1	5
545.705	1	9
546.896	1	2
548.086	1	4
549.276	1	3
550.466	1	1
551.656	1	-1
552.846	1	-5
554.036	1	-8
555.226	1	0
556.416	1	1
557.606	1	2
558.796	1	1
559.986	1	-7
561.175	1	-6
562.365	1	3
563.555	1	-2
564.744	1	3
565.934	1	6
567.123	1	4
568.313	1	-1
569.502	1	-2
570.692	1	-3
571.881	1	-3
573.070	1	0
574.260	1	5
575.449	1	2
576.638	1	12
577.827	1	-6
579.016	1	11
580.205	1	-1
581.394	1	-1
582.583	1	-2
583.772	1	-5
584.961	1	-3
586.150	1	-8
587.339	1	1
588.528	1	-4
589.717	1	3
590.905	1	5
592.094	1	12
593.283	1	8
594.471	1	6
595.660	1	3
596.848	1	3
598.037	1	3
599.225	1	3
600.413	1	1
601.602	1	-3
602.790	1	7
603.978	1	8
605.166	1	7
606.355	1	5
607.543	1	0
608.731	1	1
609.919	1	-5
611.107	1	4
612.295	1	-9
613.483	1	-7
614.671	1	12
615.858	1	-2
617.046	1	-4
618.234	1	5
619.422	1	-2
620.609	1	3
621.797	1	-6
622.985	1	5
624.172	1	0
625.360	1	2
626.547	1	-1
627.735	1	-14
628.922	1	5
630.109	1	-1
631.297	1	-7
632.484	1	-1
633.671	1	1
634.858	1	1
636.045	1	0
637.232	1	-5
638.419	1	-13
639.606	1	-2
640.793	1	-1
641.980	1	6
643.167	1	-7
644.354	1	3
645.541	1	4
646.728	1	8
647.914	1	0
649.101	1	3
650.288	1	6
651.474	1	4
652.661	1	7
653.847	1	4
655.034	1	-4
656.220	1	-2
657.406	1	1
658.593	1	-1
659.779	1	1
660.965	1	13
662.152	1	1
663.338	1	11
664.524	1	-2
665.710	1	4
666.896	1	3
668.082	1	7
669.268	1	2
670.454	1	-1
671.640	1	-3
672.826	1	2
674.011	1	2
675.197	1	11
676.383	1	6
677.569	1	-2
678.754	1	2
679.940	1	12
681.125	1	4
682.311	1	6
683.496	1	3
684.682	1	7
685.867	1	8
687.053	1	1
688.238	1	-1
688.746	1	1