File: Data/GaN_170K_550ms/GaN_sample D_spot 18_UVVIS_170 K_200um_550 ms 2x2mm1_187.txt
340.368	1	-1
341.565	1	1
342.763	1	4
343.960	1	5
345.157	1	0
346.354	1	4
347.552	1	10
348.749	1	5
349.946	1	4
351.143	1	-2
352.340	1	3
353.537	1	10
354.734	1	10
355.931	1	1
357.127	1	-3
358.324	1	8
359.521	1	10
360.718	1	5
361.914	1	8
363.111	1	15
364.308	1	17
365.504	1	11
366.701	1	18
367.897	1	22
369.093	1	9
370.290	1	21
371.486	1	19
372.682	1	23
373.879	1	15
375.075	1	23
376.271	1	14
377.467	1	8
378.663	1	9
379.859	1	11
381.055	1	14
382.251	1	8
383.447	1	12
384.643	1	0
385.839	1	0
387.035	1	3
388.230	1	8
389.426	1	7
390.622	1	5
391.817	1	-6
393.013	1	-3
394.208	1	11
395.404	1	5
396.599	1	-12
397.795	1	3
398.990	1	-2
400.186	1	-8
401.381	1	9
402.576	1	-1
403.771	1	2
404.967	1	-1
406.162	1	4
407.357	1	-1
408.552	1	-2
409.747	1	3
410.942	1	0
412.137	1	-7
413.332	1	-5
414.526	1	9
415.721	1	3
416.916	1	-5
418.111	1	14
419.305	1	3
420.500	1	7
421.695	1	-6
422.889	1	1
424.084	1	12
425.278	1	2
426.472	1	10
427.667	1	3
428.861	1	3
430.055	1	1
431.250	1	21
432.444	1	6
433.638	1	-1
434.832	1	2
436.026	1	5
437.220	1	2
438.414	1	-4
439.608	1	-5
440.802	1	0
441.996	1	-4
443.190	1	6
444.384	1	4
445.578	1	9
446.771	1	-12
447.965	1	3
449.159	1	-1
450.352	1	-7
451.546	1	-6
452.739	1	5
453.933	1	1
455.126	1	12
456.320	1	-6
457.513	1	9
458.706	1	9
459.899	1	3
461.093	1	0
462.286	1	-6
463.479	1	-7
464.672	1	4
465.865	1	-2
467.058	1	12
468.251	1	3
469.444	1	-4
470.637	1	-5
471.830	1	-2
473.023	1	0
474.215	1	7
475.408	1	-5
476.601	1	12
477.793	1	10
478.986	1	-4
480.179	1	-6
481.371	1	-2
482.564	1	-1
483.756	1	2
484.948	1	3
486.141	1	5
487.333	1	-2
488.525	1	8
489.718	1	16
490.910	1	3
492.102	1	1
493.294	1	4
494.486	1	6
495.678	1	7
496.870	1	4
498.062	1	-8
499.254	1	11
500.446	1	-4
501.638	1	-9
502.829	1	6
504.021	1	4
505.213	1	4
506.404	1	0
507.596	1	14
508.788	1	-1
509.979	1	0
511.171	1	4
512.362	1	5
513.553	1	7
514.745	1	-5
515.936	1	2
517.127	1	9
518.319	1	13
519.510	1	4
520.701	1	3
521.892	1	6
523.083	1	0
524.274	1	13
525.465	1	11
526.656	1	4
527.847	1	1
529.038	1	2
530.229	1	7
531.419	1	11
532.610	1	5
533.801	1	9
534.991	1	1
536.182	1	3
537.373	1	-6
538.563	1	1
539.754	1	6
540.944	1	2
542.134	1	2
543.325	1	7
544.515	1	5
545.705	1	14
546.896	1	11
548.086	1	6
549.276	1	0
550.466	1	6
551.656	1	3
552.846	1	-2
554.036	1	3
555.226	1	-3
556.416	1	6
557.606	1	6
558.796	1	5
559.986	1	9
561.175	1	-6
562.365	1	4
563.555	1	0
564.744	1	7
565.934	1	5
567.123	1	-4
568.313	1	2
569.502	1	9
570.692	1	10
571.881	1	-7
573.070	1	1
574.260	1	-1
575.449	1	2
576.638	1	3
577.827	1	-8
579.016	1	4
580.205	1	-1
581.394	1	6
582.583	1	-2
583.772	1	-1
584.961	1	-1
586.150	1	-2
587.339	1	0
588.528	1	3
589.717	1	6
590.905	1	19
592.094	1	15
593.283	1	5
594.471	1	7
595.660	1	0
596.848	1	2
598.037	1	-1
599.225	1	3
600.413	1	-7
601.602	1	0
602.790	1	14
603.978	1	11
605.166	1	13
606.355	1	8
607.543	1	8
608.731	1	-1
609.919	1	2
611.107	1	2
612.295	1	7
613.483	1	-6
614.671	1	6
615.858	1	2
617.046	1	1
618.234	1	7
619.422	1	-1
620.609	1	1
621.797	1	13
622.985	1	2
624.172	1	5
625.360	1	2
626.547	1	-6
627.735	1	-3
628.922	1	-3
630.109	1	5
631.297	1	-2
632.484	1	-2
633.671	1	9
634.858	1	-4
636.045	1	5
637.232	1	0
638.419	1	1
639.606	1	-6
640.793	1	-3
641.980	1	1
643.167	1	-5
644.354	1	2
645.541	1	6
646.728	1	5
647.914	1	3
649.101	1	-6
650.288	1	-3
651.474	1	7
652.661	1	6
653.847	1	-2
655.034	1	-3
656.220	1	7
657.406	1	0
658.593	1	-6
659.779	1	4
660.965	1	12
662.152	1	5
663.338	1	6
664.524	1	-3
665.710	1	-2
666.896	1	-3
668.082	1	6
669.268	1	-9
670.454	1	-13
671.640	1	7
672.826	1	4
674.011	1	11
675.197	1	4
676.383	1	-3
677.569	1	-1
678.754	1	-2
679.940	1	9
681.125	1	10
682.311	1	7
683.496	1	3
684.682	1	6
685.867	1	6
687.053	1	-8
688.238	1	-2
688.746	1	-7