File: Data/GaN_170K_550ms/GaN_sample D_spot 18_UVVIS_170 K_200um_550 ms 2x2mm1_67.txt
340.368	1	-5
341.565	1	9
342.763	1	8
343.960	1	1
345.157	1	-1
346.354	1	1
347.552	1	5
348.749	1	7
349.946	1	10
351.143	1	12
352.340	1	14
353.537	1	14
354.734	1	21
355.931	1	12
357.127	1	23
358.324	1	38
359.521	1	52
360.718	1	58
361.914	1	82
363.111	1	118
364.308	1	165
365.504	1	234
366.701	1	321
367.897	1	377
369.093	1	364
370.290	1	331
371.486	1	273
372.682	1	227
373.879	1	202
375.075	1	154
376.271	1	124
377.467	1	118
378.663	1	98
379.859	1	77
381.055	1	65
382.251	1	56
383.447	1	60
384.643	1	46
385.839	1	38
387.035	1	36
388.230	1	29
389.426	1	33
390.622	1	28
391.817	1	24
393.013	1	33
394.208	1	26
395.404	1	24
396.599	1	17
397.795	1	11
398.990	1	9
400.186	1	11
401.381	1	24
402.576	1	16
403.771	1	11
404.967	1	8
406.162	1	16
407.357	1	6
408.552	1	16
409.747	1	6
410.942	1	6
412.137	1	2
413.332	1	6
414.526	1	13
415.721	1	5
416.916	1	6
418.111	1	19
419.305	1	12
420.500	1	9
421.695	1	4
422.889	1	7
424.084	1	16
425.278	1	6
426.472	1	5
427.667	1	12
428.861	1	9
430.055	1	5
431.250	1	19
432.444	1	9
433.638	1	13
434.832	1	10
436.026	1	-2
437.220	1	4
438.414	1	-3
439.608	1	7
440.802	1	12
441.996	1	-3
443.190	1	1
444.384	1	15
445.578	1	15
446.771	1	-12
447.965	1	12
449.159	1	2
450.352	1	2
451.546	1	-7
452.739	1	6
453.933	1	5
455.126	1	17
456.320	1	2
457.513	1	12
458.706	1	8
459.899	1	6
461.093	1	14
462.286	1	0
463.479	1	4
464.672	1	0
465.865	1	13
467.058	1	19
468.251	1	8
469.444	1	5
470.637	1	14
471.830	1	1
473.023	1	3
474.215	1	0
475.408	1	9
476.601	1	7
477.793	1	13
478.986	1	8
480.179	1	4
481.371	1	11
482.564	1	5
483.756	1	17
484.948	1	14
486.141	1	23
487.333	1	10
488.525	1	16
489.718	1	15
490.910	1	13
492.102	1	17
493.294	1	15
494.486	1	29
495.678	1	25
496.870	1	14
498.062	1	19
499.254	1	29
500.446	1	30
501.638	1	24
502.829	1	29
504.021	1	34
505.213	1	31
506.404	1	39
507.596	1	44
508.788	1	39
509.979	1	49
511.171	1	35
512.362	1	37
513.553	1	44
514.745	1	40
515.936	1	45
517.127	1	52
518.319	1	52
519.510	1	47
520.701	1	50
521.892	1	50
523.083	1	55
524.274	1	48
525.465	1	49
526.656	1	60
527.847	1	49
529.038	1	58
530.229	1	63
531.419	1	68
532.610	1	59
533.801	1	71
534.991	1	55
536.182	1	49
537.373	1	38
538.563	1	53
539.754	1	42
540.944	1	39
542.134	1	48
543.325	1	40
544.515	1	47
545.705	1	49
546.896	1	44
548.086	1	45
549.276	1	41
550.466	1	49
551.656	1	45
552.846	1	48
554.036	1	37
555.226	1	34
556.416	1	34
557.606	1	41
558.796	1	32
559.986	1	40
561.175	1	28
562.365	1	39
563.555	1	35
564.744	1	33
565.934	1	36
567.123	1	32
568.313	1	22
569.502	1	33
570.692	1	26
571.881	1	17
573.070	1	18
574.260	1	28
575.449	1	28
576.638	1	14
577.827	1	30
579.016	1	24
580.205	1	19
581.394	1	19
582.583	1	21
583.772	1	20
584.961	1	28
586.150	1	12
587.339	1	18
588.528	1	20
589.717	1	21
590.905	1	24
592.094	1	13
593.283	1	21
594.471	1	24
595.660	1	14
596.848	1	17
598.037	1	6
599.225	1	13
600.413	1	9
601.602	1	23
602.790	1	23
603.978	1	25
605.166	1	21
606.355	1	17
607.543	1	21
608.731	1	8
609.919	1	6
611.107	1	6
612.295	1	6
613.483	1	10
614.671	1	22
615.858	1	11
617.046	1	16
618.234	1	15
619.422	1	6
620.609	1	11
621.797	1	12
622.985	1	9
624.172	1	7
625.360	1	14
626.547	1	11
627.735	1	-6
628.922	1	3
630.109	1	10
631.297	1	2
632.484	1	10
633.671	1	21
634.858	1	7
636.045	1	11
637.232	1	15
638.419	1	-4
639.606	1	-6
640.793	1	3
641.980	1	3
643.167	1	15
644.354	1	7
645.541	1	10
646.728	1	12
647.914	1	-1
649.101	1	13
650.288	1	6
651.474	1	17
652.661	1	2
653.847	1	9
655.034	1	6
656.220	1	7
657.406	1	10
658.593	1	1
659.779	1	8
660.965	1	20
662.152	1	8
663.338	1	14
664.524	1	6
665.710	1	13
666.896	1	4
668.082	1	10
669.268	1	1
670.454	1	-1
671.640	1	15
672.826	1	4
674.011	1	6
675.197	1	14
676.383	1	9
677.569	1	4
678.754	1	10
679.940	1	19
681.125	1	15
682.311	1	9
683.496	1	17
684.682	1	10
685.867	1	10
687.053	1	5
688.238	1	17
688.746	1	-1