File: Data/GaN_170K_550ms/GaN_sample D_spot 18_UVVIS_170 K_200um_550 ms 2x2mm1_204.txt
340.368	1	7
341.565	1	5
342.763	1	2
343.960	1	-2
345.157	1	-9
346.354	1	-2
347.552	1	9
348.749	1	8
349.946	1	7
351.143	1	-1
352.340	1	9
353.537	1	8
354.734	1	5
355.931	1	-7
357.127	1	1
358.324	1	10
359.521	1	9
360.718	1	7
361.914	1	2
363.111	1	23
364.308	1	6
365.504	1	18
366.701	1	13
367.897	1	16
369.093	1	11
370.290	1	18
371.486	1	8
372.682	1	17
373.879	1	14
375.075	1	8
376.271	1	8
377.467	1	17
378.663	1	2
379.859	1	4
381.055	1	10
382.251	1	7
383.447	1	18
384.643	1	3
385.839	1	-3
387.035	1	9
388.230	1	4
389.426	1	8
390.622	1	-1
391.817	1	6
393.013	1	-3
394.208	1	13
395.404	1	14
396.599	1	0
397.795	1	-3
398.990	1	-2
400.186	1	-3
401.381	1	9
402.576	1	2
403.771	1	3
404.967	1	2
406.162	1	7
407.357	1	2
408.552	1	-2
409.747	1	-2
410.942	1	15
412.137	1	-3
413.332	1	-5
414.526	1	7
415.721	1	3
416.916	1	-9
418.111	1	8
419.305	1	-7
420.500	1	1
421.695	1	-2
422.889	1	-6
424.084	1	17
425.278	1	-3
426.472	1	-3
427.667	1	5
428.861	1	-2
430.055	1	1
431.250	1	16
432.444	1	7
433.638	1	6
434.832	1	5
436.026	1	0
437.220	1	-2
438.414	1	-10
439.608	1	1
440.802	1	4
441.996	1	-5
443.190	1	-3
444.384	1	-2
445.578	1	4
446.771	1	-3
447.965	1	-4
449.159	1	4
450.352	1	-3
451.546	1	-6
452.739	1	2
453.933	1	-3
455.126	1	8
456.320	1	4
457.513	1	11
458.706	1	-7
459.899	1	-3
461.093	1	3
462.286	1	-4
463.479	1	3
464.672	1	-1
465.865	1	1
467.058	1	6
468.251	1	7
469.444	1	3
470.637	1	0
471.830	1	-5
473.023	1	9
474.215	1	-3
475.408	1	-9
476.601	1	2
477.793	1	-2
478.986	1	-6
480.179	1	-6
481.371	1	-6
482.564	1	4
483.756	1	4
484.948	1	-7
486.141	1	6
487.333	1	-6
488.525	1	7
489.718	1	3
490.910	1	-3
492.102	1	2
493.294	1	-4
494.486	1	12
495.678	1	2
496.870	1	-2
498.062	1	1
499.254	1	7
500.446	1	9
501.638	1	-4
502.829	1	9
504.021	1	0
505.213	1	3
506.404	1	9
507.596	1	4
508.788	1	-1
509.979	1	8
511.171	1	5
512.362	1	-3
513.553	1	3
514.745	1	0
515.936	1	3
517.127	1	7
518.319	1	8
519.510	1	13
520.701	1	4
521.892	1	6
523.083	1	4
524.274	1	2
525.465	1	1
526.656	1	9
527.847	1	-11
529.038	1	7
530.229	1	21
531.419	1	16
532.610	1	5
533.801	1	4
534.991	1	-1
536.182	1	2
537.373	1	-5
538.563	1	1
539.754	1	0
540.944	1	-6
542.134	1	4
543.325	1	6
544.515	1	6
545.705	1	14
546.896	1	7
548.086	1	0
549.276	1	3
550.466	1	2
551.656	1	5
552.846	1	5
554.036	1	1
555.226	1	-4
556.416	1	-4
557.606	1	-1
558.796	1	1
559.986	1	4
561.175	1	-4
562.365	1	3
563.555	1	5
564.744	1	5
565.934	1	4
567.123	1	-2
568.313	1	7
569.502	1	1
570.692	1	8
571.881	1	-9
573.070	1	1
574.260	1	5
575.449	1	-1
576.638	1	10
577.827	1	0
579.016	1	13
580.205	1	-3
581.394	1	5
582.583	1	2
583.772	1	-5
584.961	1	-1
586.150	1	-2
587.339	1	9
588.528	1	-7
589.717	1	-1
590.905	1	18
592.094	1	1
593.283	1	8
594.471	1	12
595.660	1	5
596.848	1	5
598.037	1	3
599.225	1	5
600.413	1	-5
601.602	1	3
602.790	1	9
603.978	1	6
605.166	1	8
606.355	1	14
607.543	1	10
608.731	1	9
609.919	1	-3
611.107	1	-3
612.295	1	3
613.483	1	-5
614.671	1	6
615.858	1	7
617.046	1	-3
618.234	1	3
619.422	1	-5
620.609	1	5
621.797	1	2
622.985	1	1
624.172	1	6
625.360	1	1
626.547	1	-13
627.735	1	-8
628.922	1	-6
630.109	1	2
631.297	1	0
632.484	1	-3
633.671	1	10
634.858	1	5
636.045	1	2
637.232	1	2
638.419	1	-9
639.606	1	0
640.793	1	-1
641.980	1	1
643.167	1	-3
644.354	1	5
645.541	1	6
646.728	1	-3
647.914	1	-3
649.101	1	3
650.288	1	1
651.474	1	4
652.661	1	3
653.847	1	4
655.034	1	-5
656.220	1	4
657.406	1	7
658.593	1	5
659.779	1	-2
660.965	1	13
662.152	1	1
663.338	1	5
664.524	1	5
665.710	1	-1
666.896	1	9
668.082	1	11
669.268	1	-5
670.454	1	-10
671.640	1	2
672.826	1	-1
674.011	1	14
675.197	1	5
676.383	1	0
677.569	1	-6
678.754	1	1
679.940	1	12
681.125	1	5
682.311	1	-7
683.496	1	4
684.682	1	8
685.867	1	10
687.053	1	-8
688.238	1	-3
688.746	1	-4