File: Data/GaN_170K_550ms/GaN_sample D_spot 18_UVVIS_170 K_200um_550 ms 2x2mm1_349.txt
340.368	1	-7
341.565	1	3
342.763	1	10
343.960	1	-7
345.157	1	-9
346.354	1	-5
347.552	1	15
348.749	1	5
349.946	1	6
351.143	1	-2
352.340	1	5
353.537	1	0
354.734	1	6
355.931	1	-7
357.127	1	-1
358.324	1	-1
359.521	1	4
360.718	1	-1
361.914	1	-5
363.111	1	11
364.308	1	13
365.504	1	3
366.701	1	-3
367.897	1	0
369.093	1	0
370.290	1	4
371.486	1	2
372.682	1	-2
373.879	1	20
375.075	1	3
376.271	1	7
377.467	1	1
378.663	1	4
379.859	1	10
381.055	1	0
382.251	1	5
383.447	1	7
384.643	1	2
385.839	1	-5
387.035	1	6
388.230	1	-2
389.426	1	1
390.622	1	5
391.817	1	-7
393.013	1	-2
394.208	1	9
395.404	1	5
396.599	1	-11
397.795	1	-1
398.990	1	-7
400.186	1	1
401.381	1	10
402.576	1	1
403.771	1	-1
404.967	1	1
406.162	1	5
407.357	1	-1
408.552	1	-1
409.747	1	0
410.942	1	5
412.137	1	-12
413.332	1	-10
414.526	1	13
415.721	1	-1
416.916	1	-3
418.111	1	5
419.305	1	-2
420.500	1	5
421.695	1	-13
422.889	1	-9
424.084	1	16
425.278	1	-2
426.472	1	-6
427.667	1	3
428.861	1	5
430.055	1	0
431.250	1	15
432.444	1	7
433.638	1	9
434.832	1	2
436.026	1	1
437.220	1	1
438.414	1	-8
439.608	1	-4
440.802	1	6
441.996	1	4
443.190	1	3
444.384	1	-3
445.578	1	9
446.771	1	-10
447.965	1	6
449.159	1	-1
450.352	1	-9
451.546	1	0
452.739	1	-4
453.933	1	-2
455.126	1	13
456.320	1	1
457.513	1	11
458.706	1	4
459.899	1	-7
461.093	1	1
462.286	1	-14
463.479	1	0
464.672	1	-9
465.865	1	5
467.058	1	-1
468.251	1	-3
469.444	1	-7
470.637	1	-3
471.830	1	-8
473.023	1	0
474.215	1	-2
475.408	1	-8
476.601	1	5
477.793	1	5
478.986	1	-6
480.179	1	-7
481.371	1	-6
482.564	1	-4
483.756	1	8
484.948	1	-1
486.141	1	0
487.333	1	-11
488.525	1	5
489.718	1	6
490.910	1	3
492.102	1	-2
493.294	1	-5
494.486	1	8
495.678	1	-7
496.870	1	-3
498.062	1	1
499.254	1	6
500.446	1	2
501.638	1	-8
502.829	1	-3
504.021	1	0
505.213	1	0
506.404	1	-4
507.596	1	-5
508.788	1	-1
509.979	1	12
511.171	1	-4
512.362	1	-5
513.553	1	2
514.745	1	0
515.936	1	-6
517.127	1	-2
518.319	1	3
519.510	1	2
520.701	1	4
521.892	1	0
523.083	1	9
524.274	1	6
525.465	1	4
526.656	1	5
527.847	1	0
529.038	1	2
530.229	1	11
531.419	1	4
532.610	1	7
533.801	1	-1
534.991	1	3
536.182	1	3
537.373	1	-4
538.563	1	-4
539.754	1	-5
540.944	1	-7
542.134	1	2
543.325	1	1
544.515	1	-2
545.705	1	7
546.896	1	8
548.086	1	4
549.276	1	-3
550.466	1	2
551.656	1	1
552.846	1	3
554.036	1	-1
555.226	1	-4
556.416	1	-3
557.606	1	7
558.796	1	1
559.986	1	-1
561.175	1	-4
562.365	1	-2
563.555	1	3
564.744	1	2
565.934	1	-1
567.123	1	-6
568.313	1	3
569.502	1	3
570.692	1	6
571.881	1	-2
573.070	1	-2
574.260	1	6
575.449	1	-4
576.638	1	17
577.827	1	2
579.016	1	11
580.205	1	-1
581.394	1	-3
582.583	1	0
583.772	1	-3
584.961	1	6
586.150	1	-1
587.339	1	1
588.528	1	-7
589.717	1	0
590.905	1	8
592.094	1	2
593.283	1	5
594.471	1	9
595.660	1	-1
596.848	1	-4
598.037	1	-3
599.225	1	1
600.413	1	-3
601.602	1	4
602.790	1	11
603.978	1	-6
605.166	1	6
606.355	1	11
607.543	1	8
608.731	1	2
609.919	1	2
611.107	1	-9
612.295	1	-3
613.483	1	-6
614.671	1	8
615.858	1	-1
617.046	1	-1
618.234	1	7
619.422	1	-4
620.609	1	6
621.797	1	4
622.985	1	0
624.172	1	-8
625.360	1	-1
626.547	1	-11
627.735	1	-7
628.922	1	-10
630.109	1	-6
631.297	1	2
632.484	1	-5
633.671	1	1
634.858	1	0
636.045	1	6
637.232	1	2
638.419	1	-7
639.606	1	-3
640.793	1	1
641.980	1	1
643.167	1	-2
644.354	1	3
645.541	1	0
646.728	1	-1
647.914	1	2
649.101	1	6
650.288	1	3
651.474	1	6
652.661	1	1
653.847	1	5
655.034	1	1
656.220	1	4
657.406	1	5
658.593	1	1
659.779	1	-9
660.965	1	11
662.152	1	0
663.338	1	1
664.524	1	10
665.710	1	-5
666.896	1	1
668.082	1	11
669.268	1	-4
670.454	1	-11
671.640	1	2
672.826	1	-3
674.011	1	11
675.197	1	10
676.383	1	0
677.569	1	-6
678.754	1	-1
679.940	1	4
681.125	1	-2
682.311	1	-3
683.496	1	2
684.682	1	0
685.867	1	8
687.053	1	-5
688.238	1	-3
688.746	1	-5