File: Data/GaN_170K_550ms/GaN_sample D_spot 18_UVVIS_170 K_200um_550 ms 2x2mm1_9.txt
340.368	1	-10
341.565	1	3
342.763	1	3
343.960	1	2
345.157	1	5
346.354	1	-10
347.552	1	6
348.749	1	5
349.946	1	6
351.143	1	-5
352.340	1	-1
353.537	1	5
354.734	1	6
355.931	1	0
357.127	1	1
358.324	1	1
359.521	1	2
360.718	1	-1
361.914	1	2
363.111	1	6
364.308	1	6
365.504	1	5
366.701	1	-2
367.897	1	-1
369.093	1	-7
370.290	1	8
371.486	1	-11
372.682	1	6
373.879	1	4
375.075	1	-4
376.271	1	10
377.467	1	5
378.663	1	-3
379.859	1	7
381.055	1	0
382.251	1	4
383.447	1	7
384.643	1	1
385.839	1	-9
387.035	1	11
388.230	1	-9
389.426	1	8
390.622	1	-5
391.817	1	-6
393.013	1	6
394.208	1	12
395.404	1	6
396.599	1	-8
397.795	1	-4
398.990	1	-12
400.186	1	-1
401.381	1	6
402.576	1	-3
403.771	1	7
404.967	1	4
406.162	1	4
407.357	1	-4
408.552	1	-2
409.747	1	-3
410.942	1	-2
412.137	1	-2
413.332	1	2
414.526	1	1
415.721	1	-1
416.916	1	-9
418.111	1	9
419.305	1	0
420.500	1	3
421.695	1	-14
422.889	1	2
424.084	1	6
425.278	1	1
426.472	1	-1
427.667	1	10
428.861	1	-5
430.055	1	-6
431.250	1	9
432.444	1	-2
433.638	1	8
434.832	1	1
436.026	1	-7
437.220	1	-5
438.414	1	0
439.608	1	5
440.802	1	2
441.996	1	-3
443.190	1	0
444.384	1	-3
445.578	1	4
446.771	1	-4
447.965	1	2
449.159	1	-5
450.352	1	-6
451.546	1	-10
452.739	1	0
453.933	1	-1
455.126	1	4
456.320	1	5
457.513	1	13
458.706	1	-3
459.899	1	-2
461.093	1	8
462.286	1	-5
463.479	1	-4
464.672	1	-4
465.865	1	-2
467.058	1	7
468.251	1	-6
469.444	1	-1
470.637	1	5
471.830	1	-2
473.023	1	2
474.215	1	-7
475.408	1	-6
476.601	1	0
477.793	1	1
478.986	1	-3
480.179	1	-6
481.371	1	2
482.564	1	1
483.756	1	-3
484.948	1	2
486.141	1	4
487.333	1	-3
488.525	1	7
489.718	1	2
490.910	1	1
492.102	1	-6
493.294	1	-5
494.486	1	9
495.678	1	-2
496.870	1	6
498.062	1	-4
499.254	1	0
500.446	1	-5
501.638	1	-15
502.829	1	1
504.021	1	3
505.213	1	-1
506.404	1	2
507.596	1	7
508.788	1	-4
509.979	1	11
511.171	1	8
512.362	1	-6
513.553	1	1
514.745	1	0
515.936	1	-6
517.127	1	7
518.319	1	-1
519.510	1	5
520.701	1	4
521.892	1	1
523.083	1	1
524.274	1	-7
525.465	1	3
526.656	1	13
527.847	1	8
529.038	1	-1
530.229	1	6
531.419	1	12
532.610	1	1
533.801	1	5
534.991	1	-3
536.182	1	-6
537.373	1	-7
538.563	1	-2
539.754	1	-1
540.944	1	-6
542.134	1	-5
543.325	1	-1
544.515	1	10
545.705	1	2
546.896	1	-1
548.086	1	7
549.276	1	2
550.466	1	-1
551.656	1	6
552.846	1	-1
554.036	1	0
555.226	1	-15
556.416	1	-8
557.606	1	9
558.796	1	-5
559.986	1	1
561.175	1	-7
562.365	1	1
563.555	1	-7
564.744	1	-1
565.934	1	-3
567.123	1	6
568.313	1	-5
569.502	1	-5
570.692	1	5
571.881	1	1
573.070	1	4
574.260	1	7
575.449	1	4
576.638	1	3
577.827	1	-4
579.016	1	0
580.205	1	-6
581.394	1	10
582.583	1	4
583.772	1	-5
584.961	1	0
586.150	1	-7
587.339	1	-4
588.528	1	-9
589.717	1	-4
590.905	1	10
592.094	1	6
593.283	1	6
594.471	1	1
595.660	1	-4
596.848	1	6
598.037	1	-3
599.225	1	3
600.413	1	-10
601.602	1	11
602.790	1	15
603.978	1	4
605.166	1	12
606.355	1	2
607.543	1	5
608.731	1	-6
609.919	1	-2
611.107	1	-2
612.295	1	0
613.483	1	-6
614.671	1	12
615.858	1	5
617.046	1	-2
618.234	1	0
619.422	1	-7
620.609	1	2
621.797	1	10
622.985	1	1
624.172	1	-6
625.360	1	4
626.547	1	-2
627.735	1	-4
628.922	1	-4
630.109	1	1
631.297	1	-2
632.484	1	0
633.671	1	5
634.858	1	-1
636.045	1	2
637.232	1	-2
638.419	1	-2
639.606	1	5
640.793	1	0
641.980	1	-4
643.167	1	-7
644.354	1	8
645.541	1	7
646.728	1	2
647.914	1	0
649.101	1	0
650.288	1	-2
651.474	1	1
652.661	1	10
653.847	1	3
655.034	1	-4
656.220	1	-6
657.406	1	6
658.593	1	-6
659.779	1	0
660.965	1	7
662.152	1	-3
663.338	1	3
664.524	1	1
665.710	1	1
666.896	1	-4
668.082	1	5
669.268	1	2
670.454	1	-10
671.640	1	4
672.826	1	-1
674.011	1	4
675.197	1	2
676.383	1	0
677.569	1	-7
678.754	1	2
679.940	1	5
681.125	1	6
682.311	1	-3
683.496	1	5
684.682	1	-6
685.867	1	9
687.053	1	-16
688.238	1	1
688.746	1	-5