File: Data/GaN_170K_550ms/GaN_sample D_spot 18_UVVIS_170 K_200um_550 ms 2x2mm1_298.txt
340.368	1	-3
341.565	1	4
342.763	1	-5
343.960	1	-4
345.157	1	-7
346.354	1	-3
347.552	1	5
348.749	1	13
349.946	1	10
351.143	1	4
352.340	1	4
353.537	1	-5
354.734	1	1
355.931	1	0
357.127	1	2
358.324	1	0
359.521	1	11
360.718	1	10
361.914	1	3
363.111	1	13
364.308	1	6
365.504	1	1
366.701	1	12
367.897	1	3
369.093	1	4
370.290	1	2
371.486	1	-5
372.682	1	8
373.879	1	15
375.075	1	4
376.271	1	12
377.467	1	6
378.663	1	9
379.859	1	-5
381.055	1	3
382.251	1	7
383.447	1	5
384.643	1	8
385.839	1	3
387.035	1	-1
388.230	1	-6
389.426	1	5
390.622	1	-7
391.817	1	3
393.013	1	-1
394.208	1	8
395.404	1	6
396.599	1	-5
397.795	1	1
398.990	1	-3
400.186	1	-7
401.381	1	11
402.576	1	-15
403.771	1	-1
404.967	1	8
406.162	1	8
407.357	1	0
408.552	1	2
409.747	1	-3
410.942	1	2
412.137	1	-7
413.332	1	4
414.526	1	0
415.721	1	4
416.916	1	-3
418.111	1	14
419.305	1	-1
420.500	1	3
421.695	1	-8
422.889	1	-3
424.084	1	16
425.278	1	-2
426.472	1	-2
427.667	1	-2
428.861	1	7
430.055	1	0
431.250	1	11
432.444	1	7
433.638	1	2
434.832	1	5
436.026	1	-1
437.220	1	5
438.414	1	-2
439.608	1	-3
440.802	1	9
441.996	1	3
443.190	1	5
444.384	1	1
445.578	1	6
446.771	1	-10
447.965	1	-2
449.159	1	-2
450.352	1	-2
451.546	1	-3
452.739	1	0
453.933	1	-4
455.126	1	9
456.320	1	3
457.513	1	10
458.706	1	7
459.899	1	2
461.093	1	4
462.286	1	-18
463.479	1	-13
464.672	1	-3
465.865	1	5
467.058	1	-3
468.251	1	-1
469.444	1	8
470.637	1	7
471.830	1	0
473.023	1	3
474.215	1	0
475.408	1	-3
476.601	1	-5
477.793	1	6
478.986	1	-4
480.179	1	1
481.371	1	-5
482.564	1	-1
483.756	1	-3
484.948	1	-5
486.141	1	12
487.333	1	-6
488.525	1	4
489.718	1	-5
490.910	1	-2
492.102	1	-1
493.294	1	1
494.486	1	2
495.678	1	3
496.870	1	-6
498.062	1	1
499.254	1	1
500.446	1	-7
501.638	1	-14
502.829	1	-5
504.021	1	6
505.213	1	-8
506.404	1	0
507.596	1	1
508.788	1	-9
509.979	1	4
511.171	1	-1
512.362	1	-6
513.553	1	3
514.745	1	-2
515.936	1	-4
517.127	1	8
518.319	1	5
519.510	1	4
520.701	1	11
521.892	1	-1
523.083	1	-1
524.274	1	4
525.465	1	1
526.656	1	13
527.847	1	-5
529.038	1	-7
530.229	1	9
531.419	1	7
532.610	1	8
533.801	1	5
534.991	1	-5
536.182	1	-4
537.373	1	9
538.563	1	-1
539.754	1	3
540.944	1	0
542.134	1	6
543.325	1	-3
544.515	1	-2
545.705	1	4
546.896	1	2
548.086	1	0
549.276	1	10
550.466	1	2
551.656	1	1
552.846	1	9
554.036	1	-1
555.226	1	-13
556.416	1	-2
557.606	1	-3
558.796	1	2
559.986	1	6
561.175	1	-9
562.365	1	-1
563.555	1	-6
564.744	1	2
565.934	1	1
567.123	1	6
568.313	1	1
569.502	1	-4
570.692	1	7
571.881	1	4
573.070	1	-2
574.260	1	6
575.449	1	6
576.638	1	4
577.827	1	-13
579.016	1	4
580.205	1	-10
581.394	1	3
582.583	1	2
583.772	1	-1
584.961	1	-6
586.150	1	-6
587.339	1	-2
588.528	1	-8
589.717	1	7
590.905	1	10
592.094	1	15
593.283	1	8
594.471	1	6
595.660	1	-6
596.848	1	1
598.037	1	0
599.225	1	6
600.413	1	-2
601.602	1	1
602.790	1	5
603.978	1	-2
605.166	1	8
606.355	1	1
607.543	1	3
608.731	1	4
609.919	1	-4
611.107	1	1
612.295	1	-5
613.483	1	-5
614.671	1	12
615.858	1	1
617.046	1	-7
618.234	1	2
619.422	1	-4
620.609	1	7
621.797	1	7
622.985	1	0
624.172	1	-3
625.360	1	4
626.547	1	-1
627.735	1	-5
628.922	1	-9
630.109	1	-4
631.297	1	-7
632.484	1	-5
633.671	1	3
634.858	1	-1
636.045	1	7
637.232	1	-2
638.419	1	-1
639.606	1	-8
640.793	1	-5
641.980	1	-4
643.167	1	-8
644.354	1	0
645.541	1	-1
646.728	1	3
647.914	1	-5
649.101	1	3
650.288	1	0
651.474	1	11
652.661	1	-5
653.847	1	-1
655.034	1	1
656.220	1	-1
657.406	1	-7
658.593	1	9
659.779	1	1
660.965	1	11
662.152	1	-8
663.338	1	15
664.524	1	3
665.710	1	1
666.896	1	-6
668.082	1	10
669.268	1	-1
670.454	1	-12
671.640	1	4
672.826	1	-1
674.011	1	1
675.197	1	-1
676.383	1	4
677.569	1	-9
678.754	1	-3
679.940	1	8
681.125	1	9
682.311	1	0
683.496	1	3
684.682	1	2
685.867	1	6
687.053	1	-5
688.238	1	1
688.746	1	3