File: Data/GaN_170K_550ms/GaN_sample D_spot 18_UVVIS_170 K_200um_550 ms 2x2mm1_317.txt
340.368	1	-5
341.565	1	6
342.763	1	3
343.960	1	-7
345.157	1	-3
346.354	1	-1
347.552	1	9
348.749	1	7
349.946	1	9
351.143	1	5
352.340	1	2
353.537	1	2
354.734	1	11
355.931	1	-5
357.127	1	-1
358.324	1	7
359.521	1	3
360.718	1	4
361.914	1	-5
363.111	1	3
364.308	1	3
365.504	1	5
366.701	1	8
367.897	1	7
369.093	1	-1
370.290	1	8
371.486	1	-2
372.682	1	8
373.879	1	8
375.075	1	6
376.271	1	13
377.467	1	-3
378.663	1	2
379.859	1	3
381.055	1	-1
382.251	1	7
383.447	1	13
384.643	1	-2
385.839	1	-12
387.035	1	0
388.230	1	-7
389.426	1	5
390.622	1	-11
391.817	1	1
393.013	1	-8
394.208	1	4
395.404	1	10
396.599	1	-1
397.795	1	2
398.990	1	-5
400.186	1	1
401.381	1	7
402.576	1	2
403.771	1	-2
404.967	1	0
406.162	1	2
407.357	1	1
408.552	1	-3
409.747	1	-2
410.942	1	1
412.137	1	-1
413.332	1	-6
414.526	1	-4
415.721	1	-6
416.916	1	-14
418.111	1	6
419.305	1	5
420.500	1	3
421.695	1	-3
422.889	1	-1
424.084	1	6
425.278	1	5
426.472	1	4
427.667	1	-3
428.861	1	-1
430.055	1	-1
431.250	1	3
432.444	1	4
433.638	1	13
434.832	1	5
436.026	1	-6
437.220	1	-1
438.414	1	-7
439.608	1	0
440.802	1	7
441.996	1	1
443.190	1	4
444.384	1	-4
445.578	1	10
446.771	1	-9
447.965	1	4
449.159	1	-2
450.352	1	-11
451.546	1	-6
452.739	1	3
453.933	1	-3
455.126	1	7
456.320	1	1
457.513	1	1
458.706	1	6
459.899	1	1
461.093	1	6
462.286	1	-6
463.479	1	-9
464.672	1	-1
465.865	1	-1
467.058	1	4
468.251	1	-1
469.444	1	5
470.637	1	-1
471.830	1	2
473.023	1	7
474.215	1	2
475.408	1	1
476.601	1	0
477.793	1	7
478.986	1	1
480.179	1	-4
481.371	1	5
482.564	1	-1
483.756	1	2
484.948	1	-1
486.141	1	11
487.333	1	-2
488.525	1	-3
489.718	1	7
490.910	1	3
492.102	1	7
493.294	1	-9
494.486	1	19
495.678	1	-4
496.870	1	6
498.062	1	-5
499.254	1	4
500.446	1	-1
501.638	1	-6
502.829	1	4
504.021	1	4
505.213	1	-1
506.404	1	-3
507.596	1	8
508.788	1	-14
509.979	1	0
511.171	1	4
512.362	1	-6
513.553	1	-1
514.745	1	1
515.936	1	1
517.127	1	11
518.319	1	6
519.510	1	4
520.701	1	9
521.892	1	3
523.083	1	5
524.274	1	-3
525.465	1	0
526.656	1	11
527.847	1	0
529.038	1	4
530.229	1	16
531.419	1	8
532.610	1	1
533.801	1	8
534.991	1	-1
536.182	1	-1
537.373	1	-1
538.563	1	2
539.754	1	-4
540.944	1	-11
542.134	1	5
543.325	1	5
544.515	1	7
545.705	1	7
546.896	1	6
548.086	1	-7
549.276	1	-4
550.466	1	7
551.656	1	2
552.846	1	3
554.036	1	-5
555.226	1	1
556.416	1	5
557.606	1	-3
558.796	1	1
559.986	1	3
561.175	1	-10
562.365	1	0
563.555	1	1
564.744	1	-7
565.934	1	3
567.123	1	0
568.313	1	-3
569.502	1	6
570.692	1	11
571.881	1	0
573.070	1	4
574.260	1	9
575.449	1	7
576.638	1	5
577.827	1	1
579.016	1	2
580.205	1	1
581.394	1	-2
582.583	1	5
583.772	1	-1
584.961	1	-1
586.150	1	-6
587.339	1	9
588.528	1	-5
589.717	1	1
590.905	1	9
592.094	1	4
593.283	1	3
594.471	1	6
595.660	1	5
596.848	1	-1
598.037	1	8
599.225	1	4
600.413	1	-10
601.602	1	-1
602.790	1	2
603.978	1	1
605.166	1	7
606.355	1	8
607.543	1	12
608.731	1	-1
609.919	1	-2
611.107	1	-5
612.295	1	-1
613.483	1	-8
614.671	1	9
615.858	1	-7
617.046	1	-6
618.234	1	8
619.422	1	-6
620.609	1	7
621.797	1	4
622.985	1	-4
624.172	1	-2
625.360	1	3
626.547	1	1
627.735	1	-6
628.922	1	3
630.109	1	2
631.297	1	2
632.484	1	-3
633.671	1	8
634.858	1	-1
636.045	1	13
637.232	1	-1
638.419	1	-13
639.606	1	-7
640.793	1	1
641.980	1	-10
643.167	1	0
644.354	1	-3
645.541	1	4
646.728	1	-3
647.914	1	0
649.101	1	-2
650.288	1	-4
651.474	1	12
652.661	1	4
653.847	1	-1
655.034	1	-5
656.220	1	7
657.406	1	-1
658.593	1	2
659.779	1	2
660.965	1	18
662.152	1	-5
663.338	1	4
664.524	1	-2
665.710	1	4
666.896	1	2
668.082	1	5
669.268	1	-7
670.454	1	-6
671.640	1	6
672.826	1	3
674.011	1	1
675.197	1	7
676.383	1	11
677.569	1	0
678.754	1	7
679.940	1	9
681.125	1	6
682.311	1	0
683.496	1	2
684.682	1	9
685.867	1	7
687.053	1	-9
688.238	1	-4
688.746	1	-9