File: Data/GaN_170K_550ms/GaN_sample D_spot 18_UVVIS_170 K_200um_550 ms 2x2mm1_94.txt
340.368	1	3
341.565	1	7
342.763	1	2
343.960	1	-3
345.157	1	3
346.354	1	-3
347.552	1	5
348.749	1	14
349.946	1	10
351.143	1	2
352.340	1	11
353.537	1	17
354.734	1	10
355.931	1	18
357.127	1	16
358.324	1	20
359.521	1	26
360.718	1	22
361.914	1	23
363.111	1	54
364.308	1	65
365.504	1	65
366.701	1	97
367.897	1	105
369.093	1	96
370.290	1	99
371.486	1	82
372.682	1	77
373.879	1	69
375.075	1	42
376.271	1	60
377.467	1	57
378.663	1	38
379.859	1	32
381.055	1	31
382.251	1	21
383.447	1	25
384.643	1	11
385.839	1	12
387.035	1	16
388.230	1	4
389.426	1	11
390.622	1	6
391.817	1	15
393.013	1	8
394.208	1	13
395.404	1	12
396.599	1	-1
397.795	1	6
398.990	1	-4
400.186	1	0
401.381	1	14
402.576	1	9
403.771	1	6
404.967	1	6
406.162	1	19
407.357	1	7
408.552	1	-3
409.747	1	2
410.942	1	3
412.137	1	-7
413.332	1	2
414.526	1	1
415.721	1	-6
416.916	1	-2
418.111	1	10
419.305	1	-1
420.500	1	3
421.695	1	-4
422.889	1	2
424.084	1	16
425.278	1	7
426.472	1	-1
427.667	1	3
428.861	1	-5
430.055	1	0
431.250	1	18
432.444	1	4
433.638	1	9
434.832	1	6
436.026	1	10
437.220	1	1
438.414	1	2
439.608	1	5
440.802	1	15
441.996	1	-1
443.190	1	2
444.384	1	4
445.578	1	8
446.771	1	-9
447.965	1	2
449.159	1	-3
450.352	1	-6
451.546	1	-9
452.739	1	0
453.933	1	2
455.126	1	7
456.320	1	0
457.513	1	6
458.706	1	8
459.899	1	-1
461.093	1	10
462.286	1	0
463.479	1	-1
464.672	1	6
465.865	1	8
467.058	1	5
468.251	1	-2
469.444	1	-4
470.637	1	8
471.830	1	-4
473.023	1	4
474.215	1	0
475.408	1	-7
476.601	1	8
477.793	1	13
478.986	1	2
480.179	1	0
481.371	1	0
482.564	1	-3
483.756	1	16
484.948	1	-2
486.141	1	9
487.333	1	-1
488.525	1	11
489.718	1	12
490.910	1	7
492.102	1	8
493.294	1	5
494.486	1	8
495.678	1	9
496.870	1	-2
498.062	1	6
499.254	1	14
500.446	1	9
501.638	1	13
502.829	1	13
504.021	1	13
505.213	1	15
506.404	1	19
507.596	1	23
508.788	1	4
509.979	1	19
511.171	1	16
512.362	1	18
513.553	1	17
514.745	1	6
515.936	1	13
517.127	1	24
518.319	1	12
519.510	1	19
520.701	1	16
521.892	1	14
523.083	1	9
524.274	1	11
525.465	1	15
526.656	1	22
527.847	1	24
529.038	1	15
530.229	1	27
531.419	1	22
532.610	1	19
533.801	1	19
534.991	1	13
536.182	1	12
537.373	1	5
538.563	1	18
539.754	1	17
540.944	1	8
542.134	1	12
543.325	1	15
544.515	1	21
545.705	1	10
546.896	1	23
548.086	1	17
549.276	1	17
550.466	1	20
551.656	1	10
552.846	1	14
554.036	1	11
555.226	1	5
556.416	1	10
557.606	1	14
558.796	1	12
559.986	1	15
561.175	1	-2
562.365	1	9
563.555	1	8
564.744	1	15
565.934	1	19
567.123	1	20
568.313	1	4
569.502	1	8
570.692	1	16
571.881	1	2
573.070	1	3
574.260	1	15
575.449	1	13
576.638	1	16
577.827	1	6
579.016	1	7
580.205	1	1
581.394	1	7
582.583	1	8
583.772	1	3
584.961	1	4
586.150	1	6
587.339	1	1
588.528	1	-2
589.717	1	16
590.905	1	10
592.094	1	11
593.283	1	16
594.471	1	13
595.660	1	8
596.848	1	12
598.037	1	-4
599.225	1	8
600.413	1	2
601.602	1	4
602.790	1	16
603.978	1	9
605.166	1	11
606.355	1	11
607.543	1	11
608.731	1	11
609.919	1	2
611.107	1	0
612.295	1	8
613.483	1	3
614.671	1	6
615.858	1	6
617.046	1	0
618.234	1	12
619.422	1	-5
620.609	1	7
621.797	1	5
622.985	1	5
624.172	1	0
625.360	1	1
626.547	1	-6
627.735	1	-6
628.922	1	-10
630.109	1	3
631.297	1	3
632.484	1	1
633.671	1	5
634.858	1	12
636.045	1	10
637.232	1	2
638.419	1	-2
639.606	1	-7
640.793	1	-1
641.980	1	2
643.167	1	0
644.354	1	4
645.541	1	8
646.728	1	18
647.914	1	9
649.101	1	10
650.288	1	11
651.474	1	6
652.661	1	6
653.847	1	-4
655.034	1	3
656.220	1	4
657.406	1	-2
658.593	1	7
659.779	1	4
660.965	1	17
662.152	1	6
663.338	1	8
664.524	1	7
665.710	1	5
666.896	1	5
668.082	1	11
669.268	1	4
670.454	1	-6
671.640	1	7
672.826	1	2
674.011	1	4
675.197	1	17
676.383	1	-1
677.569	1	8
678.754	1	10
679.940	1	14
681.125	1	13
682.311	1	5
683.496	1	15
684.682	1	8
685.867	1	4
687.053	1	1
688.238	1	-5
688.746	1	0