File: Data/GaN_170K_550ms/GaN_sample D_spot 18_UVVIS_170 K_200um_550 ms 2x2mm1_70.txt
340.368	1	-9
341.565	1	10
342.763	1	7
343.960	1	10
345.157	1	5
346.354	1	-2
347.552	1	13
348.749	1	10
349.946	1	23
351.143	1	3
352.340	1	7
353.537	1	14
354.734	1	18
355.931	1	19
357.127	1	25
358.324	1	34
359.521	1	35
360.718	1	52
361.914	1	78
363.111	1	108
364.308	1	149
365.504	1	208
366.701	1	267
367.897	1	299
369.093	1	316
370.290	1	301
371.486	1	227
372.682	1	200
373.879	1	159
375.075	1	135
376.271	1	124
377.467	1	98
378.663	1	79
379.859	1	66
381.055	1	44
382.251	1	49
383.447	1	54
384.643	1	39
385.839	1	29
387.035	1	35
388.230	1	32
389.426	1	25
390.622	1	16
391.817	1	31
393.013	1	17
394.208	1	20
395.404	1	18
396.599	1	9
397.795	1	6
398.990	1	-2
400.186	1	6
401.381	1	19
402.576	1	9
403.771	1	2
404.967	1	15
406.162	1	9
407.357	1	11
408.552	1	9
409.747	1	3
410.942	1	5
412.137	1	7
413.332	1	4
414.526	1	11
415.721	1	-1
416.916	1	-5
418.111	1	13
419.305	1	0
420.500	1	5
421.695	1	-6
422.889	1	-3
424.084	1	22
425.278	1	3
426.472	1	2
427.667	1	1
428.861	1	12
430.055	1	4
431.250	1	20
432.444	1	6
433.638	1	11
434.832	1	6
436.026	1	0
437.220	1	5
438.414	1	4
439.608	1	4
440.802	1	9
441.996	1	10
443.190	1	5
444.384	1	9
445.578	1	5
446.771	1	-4
447.965	1	1
449.159	1	5
450.352	1	-3
451.546	1	0
452.739	1	13
453.933	1	0
455.126	1	16
456.320	1	0
457.513	1	13
458.706	1	7
459.899	1	-3
461.093	1	19
462.286	1	1
463.479	1	-6
464.672	1	7
465.865	1	16
467.058	1	4
468.251	1	-1
469.444	1	13
470.637	1	0
471.830	1	6
473.023	1	14
474.215	1	7
475.408	1	5
476.601	1	9
477.793	1	13
478.986	1	-2
480.179	1	-2
481.371	1	6
482.564	1	11
483.756	1	23
484.948	1	9
486.141	1	14
487.333	1	8
488.525	1	14
489.718	1	13
490.910	1	15
492.102	1	15
493.294	1	15
494.486	1	27
495.678	1	16
496.870	1	17
498.062	1	23
499.254	1	25
500.446	1	25
501.638	1	21
502.829	1	19
504.021	1	35
505.213	1	22
506.404	1	36
507.596	1	36
508.788	1	25
509.979	1	38
511.171	1	42
512.362	1	30
513.553	1	34
514.745	1	37
515.936	1	41
517.127	1	42
518.319	1	49
519.510	1	47
520.701	1	53
521.892	1	42
523.083	1	40
524.274	1	46
525.465	1	49
526.656	1	44
527.847	1	43
529.038	1	45
530.229	1	58
531.419	1	47
532.610	1	49
533.801	1	50
534.991	1	36
536.182	1	38
537.373	1	34
538.563	1	37
539.754	1	36
540.944	1	23
542.134	1	39
543.325	1	42
544.515	1	37
545.705	1	58
546.896	1	46
548.086	1	36
549.276	1	37
550.466	1	48
551.656	1	48
552.846	1	41
554.036	1	39
555.226	1	29
556.416	1	37
557.606	1	38
558.796	1	37
559.986	1	36
561.175	1	15
562.365	1	41
563.555	1	27
564.744	1	30
565.934	1	30
567.123	1	21
568.313	1	27
569.502	1	21
570.692	1	27
571.881	1	12
573.070	1	41
574.260	1	25
575.449	1	19
576.638	1	22
577.827	1	17
579.016	1	14
580.205	1	13
581.394	1	20
582.583	1	16
583.772	1	15
584.961	1	7
586.150	1	14
587.339	1	14
588.528	1	10
589.717	1	11
590.905	1	24
592.094	1	18
593.283	1	15
594.471	1	8
595.660	1	15
596.848	1	19
598.037	1	14
599.225	1	17
600.413	1	13
601.602	1	8
602.790	1	23
603.978	1	17
605.166	1	25
606.355	1	18
607.543	1	14
608.731	1	14
609.919	1	6
611.107	1	5
612.295	1	6
613.483	1	4
614.671	1	11
615.858	1	5
617.046	1	7
618.234	1	8
619.422	1	2
620.609	1	15
621.797	1	3
622.985	1	14
624.172	1	1
625.360	1	3
626.547	1	14
627.735	1	-6
628.922	1	1
630.109	1	11
631.297	1	2
632.484	1	5
633.671	1	15
634.858	1	9
636.045	1	9
637.232	1	8
638.419	1	-3
639.606	1	-5
640.793	1	-2
641.980	1	1
643.167	1	1
644.354	1	7
645.541	1	7
646.728	1	10
647.914	1	5
649.101	1	10
650.288	1	7
651.474	1	10
652.661	1	10
653.847	1	5
655.034	1	7
656.220	1	5
657.406	1	12
658.593	1	9
659.779	1	7
660.965	1	23
662.152	1	11
663.338	1	11
664.524	1	8
665.710	1	6
666.896	1	5
668.082	1	15
669.268	1	-3
670.454	1	-1
671.640	1	9
672.826	1	2
674.011	1	11
675.197	1	18
676.383	1	3
677.569	1	3
678.754	1	8
679.940	1	11
681.125	1	6
682.311	1	7
683.496	1	7
684.682	1	11
685.867	1	12
687.053	1	-1
688.238	1	2
688.746	1	0