File: Data/GaN_170K_550ms/GaN_sample D_spot 18_UVVIS_170 K_200um_550 ms 2x2mm1_357.txt
340.368	1	0
341.565	1	0
342.763	1	1
343.960	1	-4
345.157	1	0
346.354	1	-7
347.552	1	7
348.749	1	3
349.946	1	9
351.143	1	1
352.340	1	7
353.537	1	0
354.734	1	11
355.931	1	2
357.127	1	3
358.324	1	-1
359.521	1	5
360.718	1	-4
361.914	1	2
363.111	1	9
364.308	1	13
365.504	1	5
366.701	1	5
367.897	1	8
369.093	1	3
370.290	1	7
371.486	1	1
372.682	1	8
373.879	1	4
375.075	1	4
376.271	1	1
377.467	1	4
378.663	1	7
379.859	1	-2
381.055	1	5
382.251	1	2
383.447	1	13
384.643	1	2
385.839	1	-5
387.035	1	11
388.230	1	1
389.426	1	3
390.622	1	-1
391.817	1	9
393.013	1	-1
394.208	1	7
395.404	1	3
396.599	1	3
397.795	1	-6
398.990	1	-8
400.186	1	-3
401.381	1	4
402.576	1	2
403.771	1	7
404.967	1	-3
406.162	1	-10
407.357	1	-2
408.552	1	4
409.747	1	2
410.942	1	1
412.137	1	-9
413.332	1	-14
414.526	1	-4
415.721	1	-6
416.916	1	-10
418.111	1	4
419.305	1	4
420.500	1	0
421.695	1	-14
422.889	1	-3
424.084	1	20
425.278	1	1
426.472	1	1
427.667	1	-1
428.861	1	2
430.055	1	2
431.250	1	15
432.444	1	1
433.638	1	13
434.832	1	3
436.026	1	1
437.220	1	-3
438.414	1	-3
439.608	1	-8
440.802	1	10
441.996	1	4
443.190	1	-3
444.384	1	3
445.578	1	14
446.771	1	-14
447.965	1	-1
449.159	1	-1
450.352	1	-10
451.546	1	-3
452.739	1	1
453.933	1	-6
455.126	1	4
456.320	1	5
457.513	1	10
458.706	1	4
459.899	1	3
461.093	1	8
462.286	1	2
463.479	1	-2
464.672	1	-6
465.865	1	4
467.058	1	1
468.251	1	-1
469.444	1	-1
470.637	1	5
471.830	1	2
473.023	1	1
474.215	1	5
475.408	1	-6
476.601	1	-3
477.793	1	6
478.986	1	-1
480.179	1	-3
481.371	1	-1
482.564	1	6
483.756	1	5
484.948	1	-1
486.141	1	15
487.333	1	-9
488.525	1	9
489.718	1	2
490.910	1	0
492.102	1	-2
493.294	1	0
494.486	1	13
495.678	1	17
496.870	1	-2
498.062	1	-5
499.254	1	0
500.446	1	-7
501.638	1	-2
502.829	1	7
504.021	1	4
505.213	1	-7
506.404	1	-1
507.596	1	2
508.788	1	-2
509.979	1	-2
511.171	1	-3
512.362	1	-1
513.553	1	-4
514.745	1	-7
515.936	1	2
517.127	1	2
518.319	1	10
519.510	1	14
520.701	1	4
521.892	1	6
523.083	1	1
524.274	1	-5
525.465	1	0
526.656	1	11
527.847	1	-2
529.038	1	-4
530.229	1	11
531.419	1	-2
532.610	1	8
533.801	1	2
534.991	1	-4
536.182	1	-4
537.373	1	-4
538.563	1	1
539.754	1	-4
540.944	1	-9
542.134	1	5
543.325	1	6
544.515	1	5
545.705	1	1
546.896	1	10
548.086	1	-2
549.276	1	-3
550.466	1	-3
551.656	1	7
552.846	1	4
554.036	1	1
555.226	1	-3
556.416	1	3
557.606	1	3
558.796	1	-2
559.986	1	6
561.175	1	-4
562.365	1	6
563.555	1	-5
564.744	1	-3
565.934	1	13
567.123	1	-4
568.313	1	1
569.502	1	-1
570.692	1	5
571.881	1	-4
573.070	1	10
574.260	1	6
575.449	1	3
576.638	1	5
577.827	1	-1
579.016	1	3
580.205	1	-5
581.394	1	4
582.583	1	1
583.772	1	-6
584.961	1	0
586.150	1	-5
587.339	1	2
588.528	1	-4
589.717	1	5
590.905	1	3
592.094	1	-2
593.283	1	-3
594.471	1	-1
595.660	1	3
596.848	1	8
598.037	1	-6
599.225	1	-5
600.413	1	-2
601.602	1	7
602.790	1	1
603.978	1	-4
605.166	1	11
606.355	1	1
607.543	1	9
608.731	1	6
609.919	1	0
611.107	1	4
612.295	1	0
613.483	1	-5
614.671	1	7
615.858	1	-1
617.046	1	-1
618.234	1	-5
619.422	1	-10
620.609	1	4
621.797	1	13
622.985	1	3
624.172	1	-1
625.360	1	5
626.547	1	-9
627.735	1	-10
628.922	1	-15
630.109	1	3
631.297	1	-6
632.484	1	-2
633.671	1	2
634.858	1	-2
636.045	1	2
637.232	1	6
638.419	1	-13
639.606	1	-4
640.793	1	-2
641.980	1	-6
643.167	1	-8
644.354	1	-1
645.541	1	-6
646.728	1	-1
647.914	1	-6
649.101	1	2
650.288	1	-4
651.474	1	10
652.661	1	0
653.847	1	-3
655.034	1	-1
656.220	1	4
657.406	1	-10
658.593	1	-5
659.779	1	2
660.965	1	10
662.152	1	-7
663.338	1	6
664.524	1	10
665.710	1	1
666.896	1	3
668.082	1	7
669.268	1	-9
670.454	1	-8
671.640	1	3
672.826	1	4
674.011	1	9
675.197	1	3
676.383	1	1
677.569	1	-8
678.754	1	2
679.940	1	12
681.125	1	3
682.311	1	-1
683.496	1	1
684.682	1	0
685.867	1	4
687.053	1	-5
688.238	1	-7
688.746	1	-2