File: Data/GaN_170K_550ms/GaN_sample D_spot 18_UVVIS_170 K_200um_550 ms 2x2mm1_140.txt
340.368	1	-1
341.565	1	-3
342.763	1	7
343.960	1	-1
345.157	1	0
346.354	1	-3
347.552	1	19
348.749	1	8
349.946	1	4
351.143	1	-2
352.340	1	7
353.537	1	2
354.734	1	8
355.931	1	0
357.127	1	-2
358.324	1	10
359.521	1	11
360.718	1	9
361.914	1	16
363.111	1	34
364.308	1	28
365.504	1	27
366.701	1	39
367.897	1	34
369.093	1	38
370.290	1	36
371.486	1	24
372.682	1	35
373.879	1	33
375.075	1	21
376.271	1	22
377.467	1	15
378.663	1	15
379.859	1	18
381.055	1	19
382.251	1	9
383.447	1	15
384.643	1	5
385.839	1	7
387.035	1	2
388.230	1	10
389.426	1	13
390.622	1	-8
391.817	1	-3
393.013	1	-2
394.208	1	12
395.404	1	11
396.599	1	-10
397.795	1	3
398.990	1	-10
400.186	1	-2
401.381	1	11
402.576	1	-2
403.771	1	0
404.967	1	-3
406.162	1	8
407.357	1	-1
408.552	1	-2
409.747	1	1
410.942	1	6
412.137	1	2
413.332	1	5
414.526	1	8
415.721	1	3
416.916	1	-7
418.111	1	1
419.305	1	2
420.500	1	-3
421.695	1	-2
422.889	1	-2
424.084	1	17
425.278	1	7
426.472	1	-3
427.667	1	4
428.861	1	3
430.055	1	7
431.250	1	10
432.444	1	11
433.638	1	9
434.832	1	11
436.026	1	-9
437.220	1	3
438.414	1	-5
439.608	1	-5
440.802	1	15
441.996	1	-2
443.190	1	-4
444.384	1	9
445.578	1	8
446.771	1	-8
447.965	1	6
449.159	1	-3
450.352	1	-4
451.546	1	-4
452.739	1	8
453.933	1	1
455.126	1	12
456.320	1	6
457.513	1	12
458.706	1	-1
459.899	1	-3
461.093	1	6
462.286	1	0
463.479	1	0
464.672	1	5
465.865	1	3
467.058	1	5
468.251	1	4
469.444	1	0
470.637	1	3
471.830	1	1
473.023	1	9
474.215	1	3
475.408	1	1
476.601	1	9
477.793	1	10
478.986	1	-1
480.179	1	-4
481.371	1	13
482.564	1	-7
483.756	1	2
484.948	1	4
486.141	1	8
487.333	1	-9
488.525	1	9
489.718	1	3
490.910	1	-1
492.102	1	2
493.294	1	7
494.486	1	13
495.678	1	7
496.870	1	6
498.062	1	0
499.254	1	2
500.446	1	-3
501.638	1	1
502.829	1	5
504.021	1	8
505.213	1	-2
506.404	1	13
507.596	1	6
508.788	1	-3
509.979	1	3
511.171	1	6
512.362	1	-1
513.553	1	-2
514.745	1	1
515.936	1	-2
517.127	1	5
518.319	1	9
519.510	1	13
520.701	1	13
521.892	1	5
523.083	1	16
524.274	1	10
525.465	1	12
526.656	1	13
527.847	1	11
529.038	1	0
530.229	1	21
531.419	1	20
532.610	1	15
533.801	1	15
534.991	1	1
536.182	1	7
537.373	1	7
538.563	1	21
539.754	1	8
540.944	1	7
542.134	1	5
543.325	1	9
544.515	1	3
545.705	1	14
546.896	1	4
548.086	1	10
549.276	1	7
550.466	1	0
551.656	1	9
552.846	1	4
554.036	1	10
555.226	1	6
556.416	1	5
557.606	1	7
558.796	1	3
559.986	1	14
561.175	1	3
562.365	1	0
563.555	1	1
564.744	1	17
565.934	1	2
567.123	1	3
568.313	1	7
569.502	1	2
570.692	1	12
571.881	1	5
573.070	1	-4
574.260	1	6
575.449	1	6
576.638	1	13
577.827	1	-11
579.016	1	-1
580.205	1	0
581.394	1	7
582.583	1	7
583.772	1	4
584.961	1	1
586.150	1	-2
587.339	1	3
588.528	1	0
589.717	1	16
590.905	1	17
592.094	1	9
593.283	1	11
594.471	1	18
595.660	1	10
596.848	1	3
598.037	1	6
599.225	1	16
600.413	1	-5
601.602	1	8
602.790	1	9
603.978	1	7
605.166	1	12
606.355	1	7
607.543	1	2
608.731	1	7
609.919	1	-2
611.107	1	5
612.295	1	-2
613.483	1	-1
614.671	1	7
615.858	1	2
617.046	1	1
618.234	1	3
619.422	1	-9
620.609	1	4
621.797	1	0
622.985	1	2
624.172	1	2
625.360	1	6
626.547	1	-3
627.735	1	-7
628.922	1	-14
630.109	1	2
631.297	1	-1
632.484	1	-5
633.671	1	13
634.858	1	7
636.045	1	7
637.232	1	-7
638.419	1	-8
639.606	1	-3
640.793	1	-3
641.980	1	0
643.167	1	2
644.354	1	1
645.541	1	11
646.728	1	4
647.914	1	-2
649.101	1	8
650.288	1	0
651.474	1	10
652.661	1	3
653.847	1	3
655.034	1	2
656.220	1	-4
657.406	1	-1
658.593	1	-2
659.779	1	-1
660.965	1	13
662.152	1	-4
663.338	1	3
664.524	1	5
665.710	1	3
666.896	1	1
668.082	1	15
669.268	1	-6
670.454	1	-3
671.640	1	8
672.826	1	12
674.011	1	3
675.197	1	-5
676.383	1	-1
677.569	1	-9
678.754	1	12
679.940	1	12
681.125	1	7
682.311	1	7
683.496	1	3
684.682	1	17
685.867	1	12
687.053	1	-4
688.238	1	3
688.746	1	0