File: Data/GaN_170K_550ms/GaN_sample D_spot 18_UVVIS_170 K_200um_550 ms 2x2mm1_288.txt
340.368	1	-4
341.565	1	4
342.763	1	3
343.960	1	-4
345.157	1	-4
346.354	1	1
347.552	1	9
348.749	1	10
349.946	1	11
351.143	1	-2
352.340	1	-1
353.537	1	5
354.734	1	-1
355.931	1	3
357.127	1	2
358.324	1	6
359.521	1	5
360.718	1	10
361.914	1	1
363.111	1	18
364.308	1	15
365.504	1	13
366.701	1	15
367.897	1	5
369.093	1	-4
370.290	1	11
371.486	1	2
372.682	1	9
373.879	1	5
375.075	1	-2
376.271	1	11
377.467	1	7
378.663	1	8
379.859	1	4
381.055	1	-4
382.251	1	-1
383.447	1	13
384.643	1	-7
385.839	1	-7
387.035	1	-7
388.230	1	1
389.426	1	4
390.622	1	2
391.817	1	0
393.013	1	-4
394.208	1	5
395.404	1	13
396.599	1	-5
397.795	1	6
398.990	1	0
400.186	1	-9
401.381	1	9
402.576	1	0
403.771	1	0
404.967	1	1
406.162	1	12
407.357	1	-4
408.552	1	-2
409.747	1	1
410.942	1	4
412.137	1	-5
413.332	1	-7
414.526	1	4
415.721	1	-4
416.916	1	1
418.111	1	7
419.305	1	-6
420.500	1	5
421.695	1	-6
422.889	1	-5
424.084	1	8
425.278	1	-1
426.472	1	-3
427.667	1	5
428.861	1	8
430.055	1	2
431.250	1	11
432.444	1	5
433.638	1	2
434.832	1	2
436.026	1	-5
437.220	1	8
438.414	1	-1
439.608	1	4
440.802	1	13
441.996	1	-2
443.190	1	0
444.384	1	2
445.578	1	1
446.771	1	-3
447.965	1	0
449.159	1	1
450.352	1	-3
451.546	1	-4
452.739	1	6
453.933	1	-2
455.126	1	4
456.320	1	-3
457.513	1	12
458.706	1	1
459.899	1	3
461.093	1	-2
462.286	1	-5
463.479	1	-1
464.672	1	7
465.865	1	2
467.058	1	2
468.251	1	4
469.444	1	-7
470.637	1	9
471.830	1	-2
473.023	1	-1
474.215	1	4
475.408	1	-4
476.601	1	6
477.793	1	5
478.986	1	-2
480.179	1	2
481.371	1	7
482.564	1	0
483.756	1	-2
484.948	1	0
486.141	1	10
487.333	1	2
488.525	1	5
489.718	1	8
490.910	1	0
492.102	1	5
493.294	1	-4
494.486	1	8
495.678	1	1
496.870	1	5
498.062	1	-2
499.254	1	7
500.446	1	-4
501.638	1	-7
502.829	1	-2
504.021	1	-4
505.213	1	0
506.404	1	3
507.596	1	7
508.788	1	-5
509.979	1	1
511.171	1	2
512.362	1	0
513.553	1	4
514.745	1	-5
515.936	1	3
517.127	1	12
518.319	1	8
519.510	1	9
520.701	1	0
521.892	1	4
523.083	1	-2
524.274	1	1
525.465	1	-8
526.656	1	7
527.847	1	4
529.038	1	-7
530.229	1	13
531.419	1	16
532.610	1	1
533.801	1	1
534.991	1	4
536.182	1	8
537.373	1	-5
538.563	1	3
539.754	1	7
540.944	1	-9
542.134	1	-5
543.325	1	1
544.515	1	-3
545.705	1	8
546.896	1	5
548.086	1	-5
549.276	1	4
550.466	1	1
551.656	1	9
552.846	1	0
554.036	1	-5
555.226	1	-4
556.416	1	0
557.606	1	14
558.796	1	3
559.986	1	8
561.175	1	-11
562.365	1	3
563.555	1	4
564.744	1	-1
565.934	1	4
567.123	1	1
568.313	1	4
569.502	1	2
570.692	1	11
571.881	1	-6
573.070	1	2
574.260	1	6
575.449	1	4
576.638	1	8
577.827	1	-4
579.016	1	3
580.205	1	1
581.394	1	-1
582.583	1	4
583.772	1	-4
584.961	1	-6
586.150	1	-13
587.339	1	-3
588.528	1	-6
589.717	1	5
590.905	1	9
592.094	1	2
593.283	1	1
594.471	1	10
595.660	1	-3
596.848	1	4
598.037	1	7
599.225	1	-6
600.413	1	0
601.602	1	-3
602.790	1	9
603.978	1	5
605.166	1	3
606.355	1	8
607.543	1	8
608.731	1	12
609.919	1	-11
611.107	1	5
612.295	1	4
613.483	1	-4
614.671	1	8
615.858	1	-1
617.046	1	0
618.234	1	-1
619.422	1	-2
620.609	1	-1
621.797	1	1
622.985	1	-1
624.172	1	-3
625.360	1	-2
626.547	1	-7
627.735	1	-14
628.922	1	-5
630.109	1	-4
631.297	1	-6
632.484	1	-1
633.671	1	4
634.858	1	6
636.045	1	2
637.232	1	2
638.419	1	-13
639.606	1	-4
640.793	1	-5
641.980	1	3
643.167	1	-2
644.354	1	4
645.541	1	-7
646.728	1	3
647.914	1	-1
649.101	1	-3
650.288	1	3
651.474	1	9
652.661	1	-8
653.847	1	4
655.034	1	-6
656.220	1	3
657.406	1	-7
658.593	1	-3
659.779	1	5
660.965	1	4
662.152	1	4
663.338	1	0
664.524	1	5
665.710	1	6
666.896	1	4
668.082	1	7
669.268	1	-4
670.454	1	-3
671.640	1	3
672.826	1	-8
674.011	1	0
675.197	1	7
676.383	1	7
677.569	1	-2
678.754	1	8
679.940	1	15
681.125	1	7
682.311	1	2
683.496	1	1
684.682	1	5
685.867	1	3
687.053	1	-5
688.238	1	-6
688.746	1	-8