File: Data/GaN_170K_550ms/GaN_sample D_spot 18_UVVIS_170 K_200um_550 ms 2x2mm1_113.txt
340.368	1	-1
341.565	1	6
342.763	1	8
343.960	1	7
345.157	1	3
346.354	1	0
347.552	1	9
348.749	1	12
349.946	1	8
351.143	1	-2
352.340	1	4
353.537	1	16
354.734	1	7
355.931	1	4
357.127	1	11
358.324	1	9
359.521	1	18
360.718	1	7
361.914	1	21
363.111	1	34
364.308	1	43
365.504	1	42
366.701	1	60
367.897	1	65
369.093	1	66
370.290	1	68
371.486	1	52
372.682	1	51
373.879	1	50
375.075	1	47
376.271	1	37
377.467	1	36
378.663	1	24
379.859	1	33
381.055	1	13
382.251	1	12
383.447	1	23
384.643	1	17
385.839	1	5
387.035	1	6
388.230	1	10
389.426	1	13
390.622	1	1
391.817	1	7
393.013	1	6
394.208	1	7
395.404	1	10
396.599	1	-8
397.795	1	1
398.990	1	-5
400.186	1	-8
401.381	1	12
402.576	1	-2
403.771	1	12
404.967	1	9
406.162	1	9
407.357	1	3
408.552	1	-2
409.747	1	2
410.942	1	6
412.137	1	0
413.332	1	-3
414.526	1	3
415.721	1	-3
416.916	1	-7
418.111	1	12
419.305	1	3
420.500	1	1
421.695	1	-6
422.889	1	-3
424.084	1	10
425.278	1	3
426.472	1	12
427.667	1	10
428.861	1	4
430.055	1	2
431.250	1	10
432.444	1	3
433.638	1	12
434.832	1	3
436.026	1	4
437.220	1	10
438.414	1	0
439.608	1	-5
440.802	1	17
441.996	1	-3
443.190	1	4
444.384	1	7
445.578	1	15
446.771	1	0
447.965	1	12
449.159	1	3
450.352	1	-5
451.546	1	-10
452.739	1	6
453.933	1	-1
455.126	1	12
456.320	1	0
457.513	1	6
458.706	1	8
459.899	1	8
461.093	1	7
462.286	1	-1
463.479	1	-4
464.672	1	0
465.865	1	8
467.058	1	6
468.251	1	-2
469.444	1	1
470.637	1	1
471.830	1	2
473.023	1	3
474.215	1	5
475.408	1	1
476.601	1	7
477.793	1	5
478.986	1	-4
480.179	1	-3
481.371	1	3
482.564	1	3
483.756	1	9
484.948	1	-4
486.141	1	17
487.333	1	-3
488.525	1	12
489.718	1	13
490.910	1	9
492.102	1	7
493.294	1	3
494.486	1	14
495.678	1	2
496.870	1	0
498.062	1	12
499.254	1	15
500.446	1	2
501.638	1	2
502.829	1	14
504.021	1	15
505.213	1	0
506.404	1	9
507.596	1	11
508.788	1	7
509.979	1	17
511.171	1	9
512.362	1	-2
513.553	1	11
514.745	1	3
515.936	1	10
517.127	1	14
518.319	1	15
519.510	1	8
520.701	1	12
521.892	1	10
523.083	1	10
524.274	1	17
525.465	1	10
526.656	1	21
527.847	1	9
529.038	1	0
530.229	1	22
531.419	1	13
532.610	1	16
533.801	1	12
534.991	1	10
536.182	1	11
537.373	1	3
538.563	1	12
539.754	1	8
540.944	1	2
542.134	1	5
543.325	1	3
544.515	1	5
545.705	1	16
546.896	1	9
548.086	1	7
549.276	1	13
550.466	1	8
551.656	1	9
552.846	1	9
554.036	1	6
555.226	1	3
556.416	1	1
557.606	1	9
558.796	1	10
559.986	1	17
561.175	1	2
562.365	1	12
563.555	1	5
564.744	1	5
565.934	1	10
567.123	1	8
568.313	1	8
569.502	1	11
570.692	1	18
571.881	1	-1
573.070	1	9
574.260	1	8
575.449	1	11
576.638	1	7
577.827	1	1
579.016	1	11
580.205	1	0
581.394	1	7
582.583	1	7
583.772	1	2
584.961	1	1
586.150	1	6
587.339	1	7
588.528	1	1
589.717	1	10
590.905	1	13
592.094	1	11
593.283	1	10
594.471	1	4
595.660	1	4
596.848	1	6
598.037	1	5
599.225	1	4
600.413	1	-1
601.602	1	3
602.790	1	15
603.978	1	3
605.166	1	8
606.355	1	13
607.543	1	8
608.731	1	8
609.919	1	-3
611.107	1	5
612.295	1	-4
613.483	1	1
614.671	1	11
615.858	1	-3
617.046	1	-3
618.234	1	0
619.422	1	-3
620.609	1	10
621.797	1	3
622.985	1	9
624.172	1	1
625.360	1	0
626.547	1	-10
627.735	1	-7
628.922	1	-3
630.109	1	4
631.297	1	-1
632.484	1	0
633.671	1	12
634.858	1	2
636.045	1	7
637.232	1	-6
638.419	1	-14
639.606	1	-2
640.793	1	4
641.980	1	-4
643.167	1	-1
644.354	1	-1
645.541	1	3
646.728	1	6
647.914	1	5
649.101	1	6
650.288	1	-3
651.474	1	8
652.661	1	5
653.847	1	9
655.034	1	5
656.220	1	3
657.406	1	0
658.593	1	6
659.779	1	3
660.965	1	9
662.152	1	-1
663.338	1	12
664.524	1	2
665.710	1	0
666.896	1	2
668.082	1	9
669.268	1	-5
670.454	1	-5
671.640	1	4
672.826	1	-3
674.011	1	13
675.197	1	4
676.383	1	-3
677.569	1	-2
678.754	1	9
679.940	1	9
681.125	1	13
682.311	1	12
683.496	1	-1
684.682	1	8
685.867	1	5
687.053	1	-2
688.238	1	0
688.746	1	-3