File: Data/GaN_170K_550ms/GaN_sample D_spot 18_UVVIS_170 K_200um_550 ms 2x2mm1_307.txt
340.368	1	-7
341.565	1	6
342.763	1	-9
343.960	1	-1
345.157	1	0
346.354	1	-4
347.552	1	13
348.749	1	2
349.946	1	5
351.143	1	-2
352.340	1	3
353.537	1	-3
354.734	1	4
355.931	1	-5
357.127	1	6
358.324	1	8
359.521	1	7
360.718	1	-6
361.914	1	5
363.111	1	7
364.308	1	7
365.504	1	4
366.701	1	11
367.897	1	7
369.093	1	-2
370.290	1	4
371.486	1	1
372.682	1	-4
373.879	1	12
375.075	1	6
376.271	1	13
377.467	1	6
378.663	1	3
379.859	1	6
381.055	1	2
382.251	1	2
383.447	1	10
384.643	1	1
385.839	1	0
387.035	1	-2
388.230	1	-2
389.426	1	5
390.622	1	-14
391.817	1	-2
393.013	1	0
394.208	1	13
395.404	1	3
396.599	1	-5
397.795	1	2
398.990	1	-3
400.186	1	-2
401.381	1	6
402.576	1	-9
403.771	1	1
404.967	1	0
406.162	1	7
407.357	1	-3
408.552	1	3
409.747	1	0
410.942	1	-1
412.137	1	-7
413.332	1	-7
414.526	1	3
415.721	1	-1
416.916	1	-11
418.111	1	15
419.305	1	4
420.500	1	-4
421.695	1	-1
422.889	1	1
424.084	1	21
425.278	1	-4
426.472	1	5
427.667	1	3
428.861	1	1
430.055	1	6
431.250	1	15
432.444	1	3
433.638	1	9
434.832	1	-3
436.026	1	-9
437.220	1	0
438.414	1	-12
439.608	1	-1
440.802	1	2
441.996	1	-2
443.190	1	8
444.384	1	6
445.578	1	11
446.771	1	-5
447.965	1	1
449.159	1	6
450.352	1	-2
451.546	1	-8
452.739	1	9
453.933	1	-1
455.126	1	17
456.320	1	0
457.513	1	10
458.706	1	7
459.899	1	-2
461.093	1	9
462.286	1	2
463.479	1	3
464.672	1	1
465.865	1	-2
467.058	1	-3
468.251	1	11
469.444	1	-2
470.637	1	-7
471.830	1	4
473.023	1	6
474.215	1	3
475.408	1	-3
476.601	1	2
477.793	1	5
478.986	1	-9
480.179	1	-2
481.371	1	3
482.564	1	-2
483.756	1	2
484.948	1	-5
486.141	1	7
487.333	1	-5
488.525	1	1
489.718	1	0
490.910	1	2
492.102	1	-8
493.294	1	1
494.486	1	8
495.678	1	7
496.870	1	0
498.062	1	-7
499.254	1	13
500.446	1	9
501.638	1	-9
502.829	1	3
504.021	1	8
505.213	1	1
506.404	1	1
507.596	1	1
508.788	1	-7
509.979	1	-1
511.171	1	2
512.362	1	-1
513.553	1	-1
514.745	1	-7
515.936	1	-10
517.127	1	-5
518.319	1	5
519.510	1	4
520.701	1	5
521.892	1	3
523.083	1	-1
524.274	1	1
525.465	1	-2
526.656	1	2
527.847	1	4
529.038	1	-1
530.229	1	12
531.419	1	11
532.610	1	7
533.801	1	2
534.991	1	-3
536.182	1	-4
537.373	1	-4
538.563	1	-1
539.754	1	0
540.944	1	-6
542.134	1	0
543.325	1	-1
544.515	1	-1
545.705	1	8
546.896	1	10
548.086	1	14
549.276	1	-2
550.466	1	5
551.656	1	-2
552.846	1	-1
554.036	1	7
555.226	1	-1
556.416	1	-4
557.606	1	-2
558.796	1	-1
559.986	1	2
561.175	1	-3
562.365	1	1
563.555	1	6
564.744	1	2
565.934	1	4
567.123	1	1
568.313	1	-2
569.502	1	7
570.692	1	6
571.881	1	-3
573.070	1	-1
574.260	1	3
575.449	1	6
576.638	1	2
577.827	1	0
579.016	1	8
580.205	1	-3
581.394	1	3
582.583	1	-7
583.772	1	4
584.961	1	-6
586.150	1	-5
587.339	1	0
588.528	1	-3
589.717	1	3
590.905	1	7
592.094	1	4
593.283	1	12
594.471	1	5
595.660	1	-2
596.848	1	9
598.037	1	5
599.225	1	-4
600.413	1	-18
601.602	1	3
602.790	1	11
603.978	1	9
605.166	1	7
606.355	1	4
607.543	1	5
608.731	1	4
609.919	1	0
611.107	1	2
612.295	1	2
613.483	1	0
614.671	1	9
615.858	1	-2
617.046	1	-5
618.234	1	-3
619.422	1	-12
620.609	1	4
621.797	1	2
622.985	1	-2
624.172	1	-10
625.360	1	0
626.547	1	-5
627.735	1	-8
628.922	1	-17
630.109	1	-3
631.297	1	-9
632.484	1	-1
633.671	1	10
634.858	1	-8
636.045	1	7
637.232	1	-4
638.419	1	-3
639.606	1	-7
640.793	1	-1
641.980	1	-6
643.167	1	-4
644.354	1	9
645.541	1	2
646.728	1	8
647.914	1	0
649.101	1	-1
650.288	1	-1
651.474	1	3
652.661	1	8
653.847	1	-1
655.034	1	2
656.220	1	5
657.406	1	-6
658.593	1	-6
659.779	1	-1
660.965	1	8
662.152	1	-3
663.338	1	8
664.524	1	1
665.710	1	-2
666.896	1	1
668.082	1	10
669.268	1	-5
670.454	1	-7
671.640	1	8
672.826	1	-2
674.011	1	18
675.197	1	3
676.383	1	1
677.569	1	-3
678.754	1	5
679.940	1	11
681.125	1	8
682.311	1	1
683.496	1	6
684.682	1	3
685.867	1	8
687.053	1	-10
688.238	1	-7
688.746	1	3