File: Data/GaN_170K_550ms/GaN_sample D_spot 18_UVVIS_170 K_200um_550 ms 2x2mm1_55.txt
340.368	1	4
341.565	1	9
342.763	1	10
343.960	1	14
345.157	1	-3
346.354	1	3
347.552	1	20
348.749	1	3
349.946	1	13
351.143	1	15
352.340	1	26
353.537	1	24
354.734	1	25
355.931	1	43
357.127	1	43
358.324	1	68
359.521	1	96
360.718	1	127
361.914	1	211
363.111	1	341
364.308	1	576
365.504	1	950
366.701	1	1469
367.897	1	1926
369.093	1	2056
370.290	1	1758
371.486	1	1370
372.682	1	1054
373.879	1	829
375.075	1	675
376.271	1	551
377.467	1	432
378.663	1	353
379.859	1	279
381.055	1	245
382.251	1	231
383.447	1	231
384.643	1	220
385.839	1	193
387.035	1	191
388.230	1	151
389.426	1	143
390.622	1	131
391.817	1	135
393.013	1	115
394.208	1	118
395.404	1	121
396.599	1	107
397.795	1	112
398.990	1	94
400.186	1	88
401.381	1	87
402.576	1	81
403.771	1	63
404.967	1	67
406.162	1	69
407.357	1	66
408.552	1	63
409.747	1	67
410.942	1	56
412.137	1	43
413.332	1	49
414.526	1	63
415.721	1	45
416.916	1	43
418.111	1	52
419.305	1	53
420.500	1	41
421.695	1	33
422.889	1	35
424.084	1	50
425.278	1	39
426.472	1	39
427.667	1	39
428.861	1	36
430.055	1	36
431.250	1	47
432.444	1	47
433.638	1	38
434.832	1	35
436.026	1	30
437.220	1	35
438.414	1	27
439.608	1	21
440.802	1	26
441.996	1	17
443.190	1	34
444.384	1	41
445.578	1	32
446.771	1	12
447.965	1	19
449.159	1	17
450.352	1	18
451.546	1	28
452.739	1	19
453.933	1	23
455.126	1	41
456.320	1	17
457.513	1	23
458.706	1	32
459.899	1	11
461.093	1	27
462.286	1	21
463.479	1	16
464.672	1	14
465.865	1	20
467.058	1	22
468.251	1	33
469.444	1	30
470.637	1	22
471.830	1	19
473.023	1	39
474.215	1	18
475.408	1	23
476.601	1	30
477.793	1	33
478.986	1	22
480.179	1	33
481.371	1	29
482.564	1	41
483.756	1	43
484.948	1	42
486.141	1	55
487.333	1	53
488.525	1	68
489.718	1	61
490.910	1	55
492.102	1	67
493.294	1	68
494.486	1	77
495.678	1	80
496.870	1	86
498.062	1	66
499.254	1	95
500.446	1	93
501.638	1	98
502.829	1	117
504.021	1	124
505.213	1	129
506.404	1	121
507.596	1	132
508.788	1	114
509.979	1	126
511.171	1	142
512.362	1	138
513.553	1	154
514.745	1	139
515.936	1	174
517.127	1	183
518.319	1	187
519.510	1	180
520.701	1	182
521.892	1	186
523.083	1	178
524.274	1	186
525.465	1	197
526.656	1	211
527.847	1	223
529.038	1	218
530.229	1	244
531.419	1	239
532.610	1	234
533.801	1	226
534.991	1	227
536.182	1	210
537.373	1	208
538.563	1	214
539.754	1	203
540.944	1	198
542.134	1	218
543.325	1	219
544.515	1	217
545.705	1	242
546.896	1	234
548.086	1	223
549.276	1	229
550.466	1	225
551.656	1	229
552.846	1	225
554.036	1	213
555.226	1	215
556.416	1	221
557.606	1	212
558.796	1	212
559.986	1	229
561.175	1	198
562.365	1	217
563.555	1	210
564.744	1	213
565.934	1	216
567.123	1	201
568.313	1	204
569.502	1	194
570.692	1	183
571.881	1	186
573.070	1	179
574.260	1	180
575.449	1	193
576.638	1	193
577.827	1	166
579.016	1	191
580.205	1	171
581.394	1	186
582.583	1	178
583.772	1	170
584.961	1	179
586.150	1	151
587.339	1	159
588.528	1	162
589.717	1	163
590.905	1	150
592.094	1	145
593.283	1	135
594.471	1	145
595.660	1	130
596.848	1	131
598.037	1	135
599.225	1	136
600.413	1	137
601.602	1	132
602.790	1	143
603.978	1	137
605.166	1	140
606.355	1	142
607.543	1	135
608.731	1	122
609.919	1	124
611.107	1	120
612.295	1	121
613.483	1	97
614.671	1	116
615.858	1	105
617.046	1	103
618.234	1	102
619.422	1	85
620.609	1	105
621.797	1	89
622.985	1	90
624.172	1	84
625.360	1	95
626.547	1	78
627.735	1	82
628.922	1	76
630.109	1	77
631.297	1	81
632.484	1	71
633.671	1	84
634.858	1	83
636.045	1	75
637.232	1	82
638.419	1	65
639.606	1	65
640.793	1	69
641.980	1	76
643.167	1	70
644.354	1	63
645.541	1	68
646.728	1	72
647.914	1	68
649.101	1	65
650.288	1	61
651.474	1	68
652.661	1	60
653.847	1	59
655.034	1	61
656.220	1	58
657.406	1	45
658.593	1	51
659.779	1	53
660.965	1	57
662.152	1	44
663.338	1	56
664.524	1	45
665.710	1	50
666.896	1	47
668.082	1	50
669.268	1	39
670.454	1	45
671.640	1	45
672.826	1	46
674.011	1	44
675.197	1	54
676.383	1	47
677.569	1	37
678.754	1	47
679.940	1	49
681.125	1	57
682.311	1	41
683.496	1	43
684.682	1	41
685.867	1	50
687.053	1	42
688.238	1	43
688.746	1	33