File: Data/GaN_170K_550ms/GaN_sample D_spot 18_UVVIS_170 K_200um_550 ms 2x2mm1_193.txt
340.368	1	-2
341.565	1	-3
342.763	1	7
343.960	1	-5
345.157	1	2
346.354	1	0
347.552	1	12
348.749	1	2
349.946	1	6
351.143	1	-3
352.340	1	3
353.537	1	6
354.734	1	2
355.931	1	9
357.127	1	4
358.324	1	5
359.521	1	13
360.718	1	5
361.914	1	0
363.111	1	20
364.308	1	8
365.504	1	0
366.701	1	13
367.897	1	17
369.093	1	9
370.290	1	14
371.486	1	12
372.682	1	6
373.879	1	15
375.075	1	6
376.271	1	16
377.467	1	16
378.663	1	9
379.859	1	-2
381.055	1	11
382.251	1	6
383.447	1	13
384.643	1	5
385.839	1	-1
387.035	1	12
388.230	1	1
389.426	1	5
390.622	1	-3
391.817	1	-2
393.013	1	8
394.208	1	4
395.404	1	6
396.599	1	0
397.795	1	-3
398.990	1	-5
400.186	1	1
401.381	1	13
402.576	1	7
403.771	1	5
404.967	1	0
406.162	1	3
407.357	1	4
408.552	1	-6
409.747	1	-7
410.942	1	4
412.137	1	-5
413.332	1	5
414.526	1	-2
415.721	1	6
416.916	1	-10
418.111	1	7
419.305	1	4
420.500	1	2
421.695	1	-6
422.889	1	5
424.084	1	17
425.278	1	-5
426.472	1	-6
427.667	1	-1
428.861	1	1
430.055	1	3
431.250	1	9
432.444	1	2
433.638	1	5
434.832	1	6
436.026	1	0
437.220	1	-1
438.414	1	-11
439.608	1	0
440.802	1	17
441.996	1	-8
443.190	1	0
444.384	1	0
445.578	1	4
446.771	1	-7
447.965	1	2
449.159	1	-3
450.352	1	-9
451.546	1	-1
452.739	1	0
453.933	1	2
455.126	1	16
456.320	1	6
457.513	1	-3
458.706	1	6
459.899	1	5
461.093	1	6
462.286	1	-2
463.479	1	2
464.672	1	-11
465.865	1	-8
467.058	1	4
468.251	1	3
469.444	1	-5
470.637	1	-3
471.830	1	7
473.023	1	4
474.215	1	-2
475.408	1	-7
476.601	1	5
477.793	1	11
478.986	1	4
480.179	1	2
481.371	1	1
482.564	1	-3
483.756	1	9
484.948	1	-1
486.141	1	7
487.333	1	-3
488.525	1	10
489.718	1	14
490.910	1	-3
492.102	1	1
493.294	1	-8
494.486	1	8
495.678	1	6
496.870	1	-3
498.062	1	5
499.254	1	10
500.446	1	3
501.638	1	-6
502.829	1	1
504.021	1	4
505.213	1	2
506.404	1	2
507.596	1	7
508.788	1	-5
509.979	1	6
511.171	1	1
512.362	1	4
513.553	1	6
514.745	1	8
515.936	1	12
517.127	1	9
518.319	1	9
519.510	1	4
520.701	1	3
521.892	1	4
523.083	1	6
524.274	1	10
525.465	1	4
526.656	1	6
527.847	1	4
529.038	1	-4
530.229	1	13
531.419	1	17
532.610	1	7
533.801	1	10
534.991	1	1
536.182	1	6
537.373	1	-1
538.563	1	7
539.754	1	-3
540.944	1	0
542.134	1	-1
543.325	1	5
544.515	1	0
545.705	1	6
546.896	1	11
548.086	1	12
549.276	1	11
550.466	1	-1
551.656	1	2
552.846	1	2
554.036	1	6
555.226	1	-7
556.416	1	5
557.606	1	15
558.796	1	7
559.986	1	6
561.175	1	-15
562.365	1	6
563.555	1	-3
564.744	1	7
565.934	1	4
567.123	1	-4
568.313	1	-4
569.502	1	1
570.692	1	6
571.881	1	-4
573.070	1	0
574.260	1	11
575.449	1	-2
576.638	1	8
577.827	1	-1
579.016	1	17
580.205	1	-4
581.394	1	-4
582.583	1	-2
583.772	1	-2
584.961	1	-3
586.150	1	-4
587.339	1	-3
588.528	1	0
589.717	1	2
590.905	1	10
592.094	1	3
593.283	1	5
594.471	1	9
595.660	1	-3
596.848	1	-1
598.037	1	-3
599.225	1	6
600.413	1	-7
601.602	1	5
602.790	1	4
603.978	1	6
605.166	1	7
606.355	1	9
607.543	1	16
608.731	1	8
609.919	1	2
611.107	1	-2
612.295	1	-2
613.483	1	0
614.671	1	9
615.858	1	3
617.046	1	9
618.234	1	-2
619.422	1	-8
620.609	1	3
621.797	1	-5
622.985	1	5
624.172	1	6
625.360	1	-3
626.547	1	-1
627.735	1	-8
628.922	1	-6
630.109	1	6
631.297	1	-5
632.484	1	-2
633.671	1	6
634.858	1	-2
636.045	1	13
637.232	1	4
638.419	1	-5
639.606	1	-4
640.793	1	3
641.980	1	-8
643.167	1	6
644.354	1	-5
645.541	1	5
646.728	1	7
647.914	1	-3
649.101	1	6
650.288	1	-3
651.474	1	6
652.661	1	5
653.847	1	4
655.034	1	-3
656.220	1	2
657.406	1	-3
658.593	1	2
659.779	1	-7
660.965	1	9
662.152	1	3
663.338	1	4
664.524	1	-5
665.710	1	2
666.896	1	2
668.082	1	8
669.268	1	-5
670.454	1	-8
671.640	1	5
672.826	1	2
674.011	1	4
675.197	1	2
676.383	1	0
677.569	1	-3
678.754	1	8
679.940	1	1
681.125	1	5
682.311	1	5
683.496	1	4
684.682	1	-5
685.867	1	3
687.053	1	-7
688.238	1	-1
688.746	1	-2