File: Data/GaN_170K_550ms/GaN_sample D_spot 18_UVVIS_170 K_200um_550 ms 2x2mm1_8.txt
340.368	1	-5
341.565	1	0
342.763	1	9
343.960	1	1
345.157	1	-3
346.354	1	-3
347.552	1	6
348.749	1	11
349.946	1	4
351.143	1	0
352.340	1	2
353.537	1	4
354.734	1	-3
355.931	1	-5
357.127	1	1
358.324	1	17
359.521	1	3
360.718	1	-3
361.914	1	-7
363.111	1	7
364.308	1	-4
365.504	1	-5
366.701	1	6
367.897	1	-2
369.093	1	-9
370.290	1	1
371.486	1	-7
372.682	1	5
373.879	1	10
375.075	1	-4
376.271	1	-5
377.467	1	-2
378.663	1	3
379.859	1	0
381.055	1	3
382.251	1	3
383.447	1	19
384.643	1	4
385.839	1	-10
387.035	1	-2
388.230	1	2
389.426	1	-1
390.622	1	0
391.817	1	-4
393.013	1	0
394.208	1	7
395.404	1	6
396.599	1	-13
397.795	1	2
398.990	1	-2
400.186	1	-7
401.381	1	16
402.576	1	3
403.771	1	-1
404.967	1	4
406.162	1	-1
407.357	1	-3
408.552	1	5
409.747	1	-2
410.942	1	0
412.137	1	-3
413.332	1	-1
414.526	1	-1
415.721	1	-11
416.916	1	-12
418.111	1	3
419.305	1	2
420.500	1	1
421.695	1	-3
422.889	1	1
424.084	1	16
425.278	1	1
426.472	1	3
427.667	1	0
428.861	1	3
430.055	1	-3
431.250	1	6
432.444	1	14
433.638	1	1
434.832	1	8
436.026	1	-7
437.220	1	3
438.414	1	-3
439.608	1	-1
440.802	1	6
441.996	1	-8
443.190	1	-1
444.384	1	-11
445.578	1	6
446.771	1	-8
447.965	1	-2
449.159	1	0
450.352	1	-7
451.546	1	-7
452.739	1	0
453.933	1	-1
455.126	1	10
456.320	1	5
457.513	1	8
458.706	1	5
459.899	1	7
461.093	1	9
462.286	1	1
463.479	1	-6
464.672	1	1
465.865	1	-4
467.058	1	5
468.251	1	0
469.444	1	4
470.637	1	0
471.830	1	0
473.023	1	-3
474.215	1	2
475.408	1	-3
476.601	1	7
477.793	1	0
478.986	1	0
480.179	1	4
481.371	1	4
482.564	1	-4
483.756	1	-6
484.948	1	-4
486.141	1	6
487.333	1	-3
488.525	1	3
489.718	1	3
490.910	1	0
492.102	1	6
493.294	1	0
494.486	1	9
495.678	1	4
496.870	1	-3
498.062	1	-4
499.254	1	1
500.446	1	-3
501.638	1	-7
502.829	1	-1
504.021	1	4
505.213	1	-2
506.404	1	0
507.596	1	15
508.788	1	-8
509.979	1	1
511.171	1	-3
512.362	1	6
513.553	1	1
514.745	1	-6
515.936	1	0
517.127	1	1
518.319	1	9
519.510	1	4
520.701	1	0
521.892	1	1
523.083	1	3
524.274	1	0
525.465	1	3
526.656	1	4
527.847	1	-4
529.038	1	-5
530.229	1	9
531.419	1	10
532.610	1	-9
533.801	1	8
534.991	1	-3
536.182	1	-4
537.373	1	-8
538.563	1	0
539.754	1	-2
540.944	1	-7
542.134	1	-1
543.325	1	2
544.515	1	-10
545.705	1	0
546.896	1	2
548.086	1	-8
549.276	1	-1
550.466	1	5
551.656	1	-1
552.846	1	-7
554.036	1	3
555.226	1	-7
556.416	1	0
557.606	1	-1
558.796	1	3
559.986	1	6
561.175	1	-7
562.365	1	4
563.555	1	3
564.744	1	0
565.934	1	7
567.123	1	-5
568.313	1	1
569.502	1	1
570.692	1	10
571.881	1	-8
573.070	1	-4
574.260	1	5
575.449	1	7
576.638	1	4
577.827	1	-7
579.016	1	-1
580.205	1	-14
581.394	1	3
582.583	1	-3
583.772	1	1
584.961	1	-5
586.150	1	-2
587.339	1	-1
588.528	1	3
589.717	1	4
590.905	1	2
592.094	1	6
593.283	1	8
594.471	1	4
595.660	1	2
596.848	1	-1
598.037	1	4
599.225	1	-2
600.413	1	-5
601.602	1	0
602.790	1	6
603.978	1	4
605.166	1	12
606.355	1	4
607.543	1	2
608.731	1	6
609.919	1	1
611.107	1	-6
612.295	1	-2
613.483	1	-5
614.671	1	5
615.858	1	-2
617.046	1	-1
618.234	1	1
619.422	1	2
620.609	1	9
621.797	1	-1
622.985	1	2
624.172	1	3
625.360	1	-7
626.547	1	-7
627.735	1	-6
628.922	1	-12
630.109	1	4
631.297	1	0
632.484	1	0
633.671	1	8
634.858	1	-1
636.045	1	0
637.232	1	2
638.419	1	-1
639.606	1	-3
640.793	1	-8
641.980	1	-5
643.167	1	-5
644.354	1	5
645.541	1	-1
646.728	1	-1
647.914	1	-2
649.101	1	5
650.288	1	5
651.474	1	8
652.661	1	-5
653.847	1	1
655.034	1	0
656.220	1	-3
657.406	1	7
658.593	1	4
659.779	1	6
660.965	1	7
662.152	1	-1
663.338	1	-2
664.524	1	1
665.710	1	-1
666.896	1	1
668.082	1	7
669.268	1	-2
670.454	1	-1
671.640	1	9
672.826	1	0
674.011	1	6
675.197	1	-1
676.383	1	6
677.569	1	-3
678.754	1	7
679.940	1	6
681.125	1	9
682.311	1	-7
683.496	1	11
684.682	1	9
685.867	1	0
687.053	1	-4
688.238	1	-6
688.746	1	-10