File: Data/GaN_170K_550ms/GaN_sample D_spot 18_UVVIS_170 K_200um_550 ms 2x2mm1_236.txt
340.368	1	-4
341.565	1	-1
342.763	1	6
343.960	1	1
345.157	1	-8
346.354	1	-3
347.552	1	4
348.749	1	13
349.946	1	4
351.143	1	-2
352.340	1	2
353.537	1	-1
354.734	1	11
355.931	1	-4
357.127	1	3
358.324	1	7
359.521	1	9
360.718	1	1
361.914	1	0
363.111	1	10
364.308	1	11
365.504	1	6
366.701	1	11
367.897	1	10
369.093	1	-2
370.290	1	23
371.486	1	7
372.682	1	8
373.879	1	23
375.075	1	1
376.271	1	19
377.467	1	10
378.663	1	4
379.859	1	10
381.055	1	3
382.251	1	1
383.447	1	13
384.643	1	5
385.839	1	-5
387.035	1	3
388.230	1	1
389.426	1	7
390.622	1	0
391.817	1	9
393.013	1	7
394.208	1	4
395.404	1	8
396.599	1	-5
397.795	1	1
398.990	1	-7
400.186	1	-1
401.381	1	11
402.576	1	8
403.771	1	4
404.967	1	11
406.162	1	8
407.357	1	5
408.552	1	5
409.747	1	-5
410.942	1	4
412.137	1	-15
413.332	1	-4
414.526	1	-1
415.721	1	-1
416.916	1	-7
418.111	1	11
419.305	1	-4
420.500	1	1
421.695	1	-9
422.889	1	3
424.084	1	15
425.278	1	1
426.472	1	2
427.667	1	3
428.861	1	-3
430.055	1	-1
431.250	1	10
432.444	1	13
433.638	1	9
434.832	1	5
436.026	1	2
437.220	1	1
438.414	1	-6
439.608	1	5
440.802	1	7
441.996	1	0
443.190	1	-8
444.384	1	7
445.578	1	-3
446.771	1	-9
447.965	1	-5
449.159	1	-1
450.352	1	0
451.546	1	-11
452.739	1	-4
453.933	1	1
455.126	1	3
456.320	1	5
457.513	1	1
458.706	1	9
459.899	1	0
461.093	1	2
462.286	1	5
463.479	1	-2
464.672	1	0
465.865	1	5
467.058	1	2
468.251	1	2
469.444	1	0
470.637	1	3
471.830	1	6
473.023	1	3
474.215	1	-1
475.408	1	-4
476.601	1	3
477.793	1	20
478.986	1	-3
480.179	1	-3
481.371	1	6
482.564	1	2
483.756	1	-5
484.948	1	-13
486.141	1	17
487.333	1	-1
488.525	1	4
489.718	1	4
490.910	1	1
492.102	1	3
493.294	1	6
494.486	1	3
495.678	1	4
496.870	1	4
498.062	1	-6
499.254	1	12
500.446	1	3
501.638	1	-9
502.829	1	5
504.021	1	4
505.213	1	-6
506.404	1	6
507.596	1	4
508.788	1	-2
509.979	1	2
511.171	1	1
512.362	1	5
513.553	1	4
514.745	1	4
515.936	1	4
517.127	1	10
518.319	1	-1
519.510	1	6
520.701	1	9
521.892	1	6
523.083	1	3
524.274	1	-1
525.465	1	4
526.656	1	4
527.847	1	-1
529.038	1	-5
530.229	1	16
531.419	1	13
532.610	1	2
533.801	1	7
534.991	1	4
536.182	1	8
537.373	1	3
538.563	1	1
539.754	1	4
540.944	1	-3
542.134	1	-4
543.325	1	11
544.515	1	3
545.705	1	3
546.896	1	8
548.086	1	-1
549.276	1	3
550.466	1	2
551.656	1	9
552.846	1	3
554.036	1	2
555.226	1	-14
556.416	1	-4
557.606	1	6
558.796	1	9
559.986	1	6
561.175	1	-3
562.365	1	7
563.555	1	-1
564.744	1	4
565.934	1	8
567.123	1	4
568.313	1	-6
569.502	1	5
570.692	1	9
571.881	1	-2
573.070	1	5
574.260	1	6
575.449	1	-2
576.638	1	4
577.827	1	2
579.016	1	5
580.205	1	-5
581.394	1	9
582.583	1	4
583.772	1	2
584.961	1	0
586.150	1	-8
587.339	1	-2
588.528	1	-4
589.717	1	0
590.905	1	5
592.094	1	5
593.283	1	4
594.471	1	9
595.660	1	-1
596.848	1	4
598.037	1	6
599.225	1	-1
600.413	1	-8
601.602	1	4
602.790	1	9
603.978	1	-1
605.166	1	10
606.355	1	2
607.543	1	10
608.731	1	8
609.919	1	4
611.107	1	1
612.295	1	-1
613.483	1	-7
614.671	1	4
615.858	1	7
617.046	1	-1
618.234	1	2
619.422	1	-10
620.609	1	0
621.797	1	1
622.985	1	-2
624.172	1	2
625.360	1	9
626.547	1	-12
627.735	1	-19
628.922	1	-2
630.109	1	-4
631.297	1	2
632.484	1	-6
633.671	1	0
634.858	1	2
636.045	1	7
637.232	1	0
638.419	1	-6
639.606	1	9
640.793	1	-8
641.980	1	-6
643.167	1	-11
644.354	1	0
645.541	1	8
646.728	1	1
647.914	1	-1
649.101	1	2
650.288	1	-8
651.474	1	2
652.661	1	5
653.847	1	-5
655.034	1	1
656.220	1	-8
657.406	1	-4
658.593	1	9
659.779	1	10
660.965	1	6
662.152	1	7
663.338	1	-5
664.524	1	9
665.710	1	8
666.896	1	13
668.082	1	10
669.268	1	-6
670.454	1	-7
671.640	1	8
672.826	1	3
674.011	1	4
675.197	1	9
676.383	1	-4
677.569	1	0
678.754	1	-2
679.940	1	7
681.125	1	-4
682.311	1	7
683.496	1	5
684.682	1	5
685.867	1	5
687.053	1	-5
688.238	1	-2
688.746	1	732