File: Data/GaN_170K_550ms/GaN_sample D_spot 18_UVVIS_170 K_200um_550 ms 2x2mm1_206.txt
340.368	1	2
341.565	1	6
342.763	1	14
343.960	1	-7
345.157	1	8
346.354	1	2
347.552	1	7
348.749	1	7
349.946	1	9
351.143	1	0
352.340	1	9
353.537	1	4
354.734	1	7
355.931	1	-1
357.127	1	-1
358.324	1	11
359.521	1	5
360.718	1	8
361.914	1	9
363.111	1	20
364.308	1	11
365.504	1	23
366.701	1	18
367.897	1	19
369.093	1	16
370.290	1	14
371.486	1	13
372.682	1	16
373.879	1	16
375.075	1	13
376.271	1	12
377.467	1	9
378.663	1	7
379.859	1	12
381.055	1	7
382.251	1	-7
383.447	1	6
384.643	1	0
385.839	1	0
387.035	1	6
388.230	1	2
389.426	1	2
390.622	1	4
391.817	1	2
393.013	1	6
394.208	1	6
395.404	1	4
396.599	1	2
397.795	1	0
398.990	1	-9
400.186	1	-1
401.381	1	12
402.576	1	3
403.771	1	8
404.967	1	8
406.162	1	7
407.357	1	-3
408.552	1	3
409.747	1	0
410.942	1	-1
412.137	1	2
413.332	1	-2
414.526	1	6
415.721	1	1
416.916	1	-6
418.111	1	10
419.305	1	7
420.500	1	0
421.695	1	-9
422.889	1	0
424.084	1	19
425.278	1	-5
426.472	1	1
427.667	1	-4
428.861	1	11
430.055	1	0
431.250	1	18
432.444	1	4
433.638	1	13
434.832	1	-1
436.026	1	3
437.220	1	6
438.414	1	-10
439.608	1	0
440.802	1	6
441.996	1	0
443.190	1	6
444.384	1	8
445.578	1	3
446.771	1	-11
447.965	1	-4
449.159	1	-3
450.352	1	3
451.546	1	-5
452.739	1	6
453.933	1	1
455.126	1	11
456.320	1	2
457.513	1	12
458.706	1	2
459.899	1	0
461.093	1	8
462.286	1	-8
463.479	1	-2
464.672	1	-5
465.865	1	2
467.058	1	1
468.251	1	7
469.444	1	-4
470.637	1	3
471.830	1	-5
473.023	1	0
474.215	1	2
475.408	1	2
476.601	1	2
477.793	1	3
478.986	1	-2
480.179	1	-4
481.371	1	3
482.564	1	0
483.756	1	8
484.948	1	-10
486.141	1	12
487.333	1	-2
488.525	1	14
489.718	1	5
490.910	1	4
492.102	1	0
493.294	1	4
494.486	1	10
495.678	1	3
496.870	1	3
498.062	1	11
499.254	1	12
500.446	1	-2
501.638	1	-6
502.829	1	1
504.021	1	4
505.213	1	4
506.404	1	0
507.596	1	1
508.788	1	-12
509.979	1	12
511.171	1	2
512.362	1	-2
513.553	1	10
514.745	1	-7
515.936	1	2
517.127	1	5
518.319	1	8
519.510	1	7
520.701	1	5
521.892	1	-1
523.083	1	10
524.274	1	1
525.465	1	5
526.656	1	6
527.847	1	-4
529.038	1	3
530.229	1	14
531.419	1	2
532.610	1	11
533.801	1	6
534.991	1	6
536.182	1	-1
537.373	1	6
538.563	1	10
539.754	1	8
540.944	1	-3
542.134	1	-3
543.325	1	4
544.515	1	1
545.705	1	11
546.896	1	3
548.086	1	-2
549.276	1	10
550.466	1	2
551.656	1	9
552.846	1	5
554.036	1	3
555.226	1	-8
556.416	1	-1
557.606	1	-4
558.796	1	3
559.986	1	1
561.175	1	2
562.365	1	5
563.555	1	3
564.744	1	9
565.934	1	-3
567.123	1	3
568.313	1	1
569.502	1	7
570.692	1	8
571.881	1	1
573.070	1	0
574.260	1	-2
575.449	1	15
576.638	1	7
577.827	1	-2
579.016	1	8
580.205	1	0
581.394	1	5
582.583	1	2
583.772	1	6
584.961	1	2
586.150	1	0
587.339	1	2
588.528	1	-2
589.717	1	8
590.905	1	4
592.094	1	7
593.283	1	8
594.471	1	10
595.660	1	3
596.848	1	-1
598.037	1	0
599.225	1	1
600.413	1	0
601.602	1	7
602.790	1	14
603.978	1	5
605.166	1	6
606.355	1	3
607.543	1	11
608.731	1	4
609.919	1	-6
611.107	1	-6
612.295	1	-1
613.483	1	-2
614.671	1	0
615.858	1	-1
617.046	1	0
618.234	1	1
619.422	1	-4
620.609	1	0
621.797	1	-6
622.985	1	4
624.172	1	2
625.360	1	4
626.547	1	-1
627.735	1	-2
628.922	1	3
630.109	1	4
631.297	1	9
632.484	1	-7
633.671	1	-4
634.858	1	8
636.045	1	15
637.232	1	0
638.419	1	-3
639.606	1	-6
640.793	1	2
641.980	1	-3
643.167	1	1
644.354	1	2
645.541	1	4
646.728	1	9
647.914	1	6
649.101	1	1
650.288	1	8
651.474	1	10
652.661	1	-6
653.847	1	1
655.034	1	-12
656.220	1	1
657.406	1	2
658.593	1	1
659.779	1	0
660.965	1	12
662.152	1	5
663.338	1	8
664.524	1	-3
665.710	1	1
666.896	1	-2
668.082	1	17
669.268	1	-8
670.454	1	-6
671.640	1	4
672.826	1	2
674.011	1	6
675.197	1	5
676.383	1	4
677.569	1	-9
678.754	1	2
679.940	1	18
681.125	1	12
682.311	1	1
683.496	1	2
684.682	1	1
685.867	1	8
687.053	1	-10
688.238	1	1
688.746	1	-8