File: Data/GaN_170K_550ms/GaN_sample D_spot 18_UVVIS_170 K_200um_550 ms 2x2mm1_101.txt
340.368	1	5
341.565	1	9
342.763	1	8
343.960	1	1
345.157	1	1
346.354	1	0
347.552	1	20
348.749	1	5
349.946	1	10
351.143	1	-3
352.340	1	6
353.537	1	12
354.734	1	10
355.931	1	6
357.127	1	4
358.324	1	20
359.521	1	18
360.718	1	25
361.914	1	35
363.111	1	48
364.308	1	51
365.504	1	62
366.701	1	71
367.897	1	86
369.093	1	83
370.290	1	83
371.486	1	58
372.682	1	73
373.879	1	55
375.075	1	53
376.271	1	42
377.467	1	33
378.663	1	40
379.859	1	32
381.055	1	20
382.251	1	13
383.447	1	20
384.643	1	20
385.839	1	14
387.035	1	17
388.230	1	14
389.426	1	17
390.622	1	10
391.817	1	5
393.013	1	2
394.208	1	15
395.404	1	3
396.599	1	-1
397.795	1	13
398.990	1	2
400.186	1	-1
401.381	1	9
402.576	1	5
403.771	1	6
404.967	1	5
406.162	1	13
407.357	1	-3
408.552	1	-2
409.747	1	7
410.942	1	10
412.137	1	-5
413.332	1	0
414.526	1	12
415.721	1	1
416.916	1	-5
418.111	1	9
419.305	1	5
420.500	1	10
421.695	1	-3
422.889	1	2
424.084	1	15
425.278	1	1
426.472	1	0
427.667	1	3
428.861	1	3
430.055	1	9
431.250	1	13
432.444	1	0
433.638	1	8
434.832	1	9
436.026	1	-2
437.220	1	7
438.414	1	0
439.608	1	-6
440.802	1	11
441.996	1	5
443.190	1	4
444.384	1	5
445.578	1	9
446.771	1	-12
447.965	1	3
449.159	1	0
450.352	1	-7
451.546	1	-11
452.739	1	7
453.933	1	-3
455.126	1	7
456.320	1	2
457.513	1	6
458.706	1	10
459.899	1	0
461.093	1	7
462.286	1	0
463.479	1	-2
464.672	1	-10
465.865	1	3
467.058	1	8
468.251	1	3
469.444	1	7
470.637	1	-2
471.830	1	3
473.023	1	6
474.215	1	-1
475.408	1	2
476.601	1	1
477.793	1	11
478.986	1	-5
480.179	1	-1
481.371	1	4
482.564	1	-1
483.756	1	5
484.948	1	0
486.141	1	12
487.333	1	-7
488.525	1	4
489.718	1	13
490.910	1	8
492.102	1	3
493.294	1	5
494.486	1	12
495.678	1	6
496.870	1	1
498.062	1	4
499.254	1	11
500.446	1	8
501.638	1	5
502.829	1	14
504.021	1	15
505.213	1	7
506.404	1	16
507.596	1	20
508.788	1	3
509.979	1	9
511.171	1	17
512.362	1	13
513.553	1	10
514.745	1	10
515.936	1	18
517.127	1	22
518.319	1	13
519.510	1	13
520.701	1	13
521.892	1	9
523.083	1	17
524.274	1	18
525.465	1	15
526.656	1	31
527.847	1	9
529.038	1	2
530.229	1	23
531.419	1	19
532.610	1	20
533.801	1	28
534.991	1	8
536.182	1	16
537.373	1	4
538.563	1	24
539.754	1	13
540.944	1	10
542.134	1	15
543.325	1	9
544.515	1	4
545.705	1	17
546.896	1	9
548.086	1	15
549.276	1	12
550.466	1	11
551.656	1	12
552.846	1	7
554.036	1	12
555.226	1	14
556.416	1	21
557.606	1	10
558.796	1	9
559.986	1	10
561.175	1	-5
562.365	1	12
563.555	1	3
564.744	1	15
565.934	1	6
567.123	1	10
568.313	1	8
569.502	1	10
570.692	1	14
571.881	1	2
573.070	1	1
574.260	1	8
575.449	1	10
576.638	1	9
577.827	1	-5
579.016	1	11
580.205	1	-2
581.394	1	12
582.583	1	10
583.772	1	1
584.961	1	1
586.150	1	-4
587.339	1	-2
588.528	1	-1
589.717	1	11
590.905	1	6
592.094	1	14
593.283	1	10
594.471	1	17
595.660	1	12
596.848	1	4
598.037	1	3
599.225	1	4
600.413	1	-5
601.602	1	7
602.790	1	10
603.978	1	10
605.166	1	15
606.355	1	4
607.543	1	4
608.731	1	6
609.919	1	2
611.107	1	0
612.295	1	-11
613.483	1	-2
614.671	1	11
615.858	1	1
617.046	1	-3
618.234	1	8
619.422	1	-1
620.609	1	8
621.797	1	7
622.985	1	8
624.172	1	10
625.360	1	2
626.547	1	4
627.735	1	-4
628.922	1	-2
630.109	1	2
631.297	1	4
632.484	1	-3
633.671	1	-1
634.858	1	-3
636.045	1	8
637.232	1	1
638.419	1	-6
639.606	1	-10
640.793	1	-1
641.980	1	-1
643.167	1	-1
644.354	1	-1
645.541	1	9
646.728	1	5
647.914	1	6
649.101	1	8
650.288	1	7
651.474	1	15
652.661	1	-1
653.847	1	1
655.034	1	10
656.220	1	10
657.406	1	-1
658.593	1	-2
659.779	1	9
660.965	1	10
662.152	1	1
663.338	1	-1
664.524	1	7
665.710	1	3
666.896	1	8
668.082	1	22
669.268	1	-1
670.454	1	-6
671.640	1	11
672.826	1	7
674.011	1	8
675.197	1	5
676.383	1	1
677.569	1	-9
678.754	1	9
679.940	1	11
681.125	1	8
682.311	1	4
683.496	1	12
684.682	1	12
685.867	1	13
687.053	1	0
688.238	1	0
688.746	1	-1