File: Data/GaN_170K_550ms/GaN_sample D_spot 18_UVVIS_170 K_200um_550 ms 2x2mm1_97.txt
340.368	1	2
341.565	1	3
342.763	1	5
343.960	1	-2
345.157	1	3
346.354	1	1
347.552	1	8
348.749	1	12
349.946	1	12
351.143	1	10
352.340	1	16
353.537	1	4
354.734	1	18
355.931	1	10
357.127	1	8
358.324	1	10
359.521	1	25
360.718	1	13
361.914	1	28
363.111	1	45
364.308	1	53
365.504	1	71
366.701	1	90
367.897	1	105
369.093	1	96
370.290	1	90
371.486	1	79
372.682	1	70
373.879	1	63
375.075	1	53
376.271	1	45
377.467	1	48
378.663	1	31
379.859	1	28
381.055	1	22
382.251	1	38
383.447	1	35
384.643	1	12
385.839	1	16
387.035	1	19
388.230	1	6
389.426	1	17
390.622	1	10
391.817	1	9
393.013	1	10
394.208	1	15
395.404	1	18
396.599	1	3
397.795	1	5
398.990	1	-3
400.186	1	4
401.381	1	11
402.576	1	1
403.771	1	3
404.967	1	4
406.162	1	12
407.357	1	4
408.552	1	-3
409.747	1	9
410.942	1	4
412.137	1	-5
413.332	1	-3
414.526	1	11
415.721	1	0
416.916	1	-4
418.111	1	8
419.305	1	2
420.500	1	-2
421.695	1	0
422.889	1	-1
424.084	1	13
425.278	1	5
426.472	1	-3
427.667	1	5
428.861	1	-6
430.055	1	0
431.250	1	10
432.444	1	4
433.638	1	5
434.832	1	3
436.026	1	5
437.220	1	0
438.414	1	6
439.608	1	-1
440.802	1	11
441.996	1	4
443.190	1	8
444.384	1	-1
445.578	1	10
446.771	1	-4
447.965	1	7
449.159	1	6
450.352	1	-5
451.546	1	3
452.739	1	-1
453.933	1	2
455.126	1	4
456.320	1	2
457.513	1	11
458.706	1	13
459.899	1	3
461.093	1	14
462.286	1	1
463.479	1	0
464.672	1	0
465.865	1	12
467.058	1	10
468.251	1	7
469.444	1	0
470.637	1	-4
471.830	1	4
473.023	1	10
474.215	1	5
475.408	1	-9
476.601	1	1
477.793	1	13
478.986	1	1
480.179	1	3
481.371	1	8
482.564	1	1
483.756	1	12
484.948	1	-3
486.141	1	16
487.333	1	2
488.525	1	8
489.718	1	9
490.910	1	6
492.102	1	6
493.294	1	0
494.486	1	18
495.678	1	2
496.870	1	4
498.062	1	8
499.254	1	22
500.446	1	3
501.638	1	-2
502.829	1	17
504.021	1	9
505.213	1	11
506.404	1	5
507.596	1	10
508.788	1	-4
509.979	1	10
511.171	1	14
512.362	1	9
513.553	1	16
514.745	1	16
515.936	1	8
517.127	1	20
518.319	1	22
519.510	1	23
520.701	1	22
521.892	1	15
523.083	1	11
524.274	1	17
525.465	1	14
526.656	1	18
527.847	1	15
529.038	1	9
530.229	1	27
531.419	1	22
532.610	1	23
533.801	1	20
534.991	1	15
536.182	1	17
537.373	1	16
538.563	1	14
539.754	1	2
540.944	1	11
542.134	1	16
543.325	1	14
544.515	1	8
545.705	1	21
546.896	1	15
548.086	1	11
549.276	1	12
550.466	1	24
551.656	1	14
552.846	1	9
554.036	1	12
555.226	1	10
556.416	1	11
557.606	1	10
558.796	1	10
559.986	1	8
561.175	1	4
562.365	1	14
563.555	1	8
564.744	1	10
565.934	1	9
567.123	1	8
568.313	1	3
569.502	1	5
570.692	1	24
571.881	1	7
573.070	1	9
574.260	1	18
575.449	1	16
576.638	1	14
577.827	1	9
579.016	1	5
580.205	1	0
581.394	1	12
582.583	1	7
583.772	1	11
584.961	1	9
586.150	1	4
587.339	1	10
588.528	1	8
589.717	1	12
590.905	1	8
592.094	1	8
593.283	1	16
594.471	1	9
595.660	1	7
596.848	1	1
598.037	1	1
599.225	1	0
600.413	1	3
601.602	1	12
602.790	1	9
603.978	1	6
605.166	1	15
606.355	1	5
607.543	1	9
608.731	1	14
609.919	1	4
611.107	1	2
612.295	1	0
613.483	1	2
614.671	1	3
615.858	1	2
617.046	1	-1
618.234	1	5
619.422	1	-1
620.609	1	18
621.797	1	9
622.985	1	11
624.172	1	2
625.360	1	1
626.547	1	-1
627.735	1	-11
628.922	1	3
630.109	1	-3
631.297	1	-1
632.484	1	-1
633.671	1	15
634.858	1	-2
636.045	1	12
637.232	1	6
638.419	1	-2
639.606	1	-6
640.793	1	-1
641.980	1	-1
643.167	1	6
644.354	1	8
645.541	1	11
646.728	1	9
647.914	1	-2
649.101	1	1
650.288	1	-2
651.474	1	12
652.661	1	7
653.847	1	1
655.034	1	12
656.220	1	2
657.406	1	5
658.593	1	5
659.779	1	6
660.965	1	14
662.152	1	1
663.338	1	12
664.524	1	12
665.710	1	5
666.896	1	5
668.082	1	6
669.268	1	2
670.454	1	-4
671.640	1	8
672.826	1	7
674.011	1	8
675.197	1	10
676.383	1	14
677.569	1	-4
678.754	1	4
679.940	1	11
681.125	1	14
682.311	1	5
683.496	1	6
684.682	1	10
685.867	1	9
687.053	1	-10
688.238	1	-5
688.746	1	3