File: Data/GaN_170K_550ms/GaN_sample D_spot 18_UVVIS_170 K_200um_550 ms 2x2mm1_253.txt
340.368	1	0
341.565	1	1
342.763	1	1
343.960	1	-7
345.157	1	-12
346.354	1	-6
347.552	1	13
348.749	1	7
349.946	1	11
351.143	1	0
352.340	1	-2
353.537	1	-1
354.734	1	6
355.931	1	-3
357.127	1	4
358.324	1	7
359.521	1	6
360.718	1	5
361.914	1	4
363.111	1	17
364.308	1	13
365.504	1	5
366.701	1	4
367.897	1	12
369.093	1	-3
370.290	1	13
371.486	1	2
372.682	1	17
373.879	1	14
375.075	1	4
376.271	1	14
377.467	1	13
378.663	1	4
379.859	1	0
381.055	1	12
382.251	1	4
383.447	1	13
384.643	1	-7
385.839	1	1
387.035	1	6
388.230	1	1
389.426	1	8
390.622	1	-6
391.817	1	5
393.013	1	-8
394.208	1	1
395.404	1	8
396.599	1	-2
397.795	1	0
398.990	1	-11
400.186	1	1
401.381	1	16
402.576	1	6
403.771	1	6
404.967	1	1
406.162	1	6
407.357	1	-10
408.552	1	-3
409.747	1	2
410.942	1	-4
412.137	1	0
413.332	1	5
414.526	1	-3
415.721	1	-2
416.916	1	-2
418.111	1	9
419.305	1	3
420.500	1	0
421.695	1	-10
422.889	1	1
424.084	1	22
425.278	1	4
426.472	1	-1
427.667	1	6
428.861	1	5
430.055	1	1
431.250	1	6
432.444	1	8
433.638	1	6
434.832	1	3
436.026	1	-2
437.220	1	-3
438.414	1	-11
439.608	1	-1
440.802	1	6
441.996	1	-7
443.190	1	1
444.384	1	-5
445.578	1	8
446.771	1	-2
447.965	1	4
449.159	1	-1
450.352	1	-11
451.546	1	-17
452.739	1	-4
453.933	1	-4
455.126	1	2
456.320	1	4
457.513	1	8
458.706	1	7
459.899	1	0
461.093	1	8
462.286	1	-11
463.479	1	3
464.672	1	4
465.865	1	5
467.058	1	4
468.251	1	6
469.444	1	5
470.637	1	6
471.830	1	2
473.023	1	-5
474.215	1	12
475.408	1	-1
476.601	1	5
477.793	1	11
478.986	1	-1
480.179	1	-6
481.371	1	4
482.564	1	3
483.756	1	-1
484.948	1	-6
486.141	1	4
487.333	1	-7
488.525	1	9
489.718	1	2
490.910	1	1
492.102	1	3
493.294	1	1
494.486	1	13
495.678	1	-3
496.870	1	-1
498.062	1	-8
499.254	1	14
500.446	1	-1
501.638	1	-8
502.829	1	4
504.021	1	5
505.213	1	4
506.404	1	4
507.596	1	3
508.788	1	0
509.979	1	0
511.171	1	6
512.362	1	-5
513.553	1	4
514.745	1	-2
515.936	1	-1
517.127	1	13
518.319	1	1
519.510	1	11
520.701	1	8
521.892	1	-7
523.083	1	4
524.274	1	1
525.465	1	2
526.656	1	7
527.847	1	7
529.038	1	10
530.229	1	7
531.419	1	6
532.610	1	8
533.801	1	3
534.991	1	-2
536.182	1	-1
537.373	1	-5
538.563	1	-1
539.754	1	7
540.944	1	-3
542.134	1	5
543.325	1	2
544.515	1	-1
545.705	1	5
546.896	1	10
548.086	1	3
549.276	1	5
550.466	1	0
551.656	1	5
552.846	1	-3
554.036	1	1
555.226	1	-10
556.416	1	2
557.606	1	4
558.796	1	-1
559.986	1	-1
561.175	1	3
562.365	1	3
563.555	1	-2
564.744	1	4
565.934	1	5
567.123	1	0
568.313	1	-1
569.502	1	-7
570.692	1	8
571.881	1	-2
573.070	1	-1
574.260	1	7
575.449	1	4
576.638	1	5
577.827	1	-5
579.016	1	2
580.205	1	-6
581.394	1	2
582.583	1	15
583.772	1	5
584.961	1	2
586.150	1	-5
587.339	1	3
588.528	1	-3
589.717	1	8
590.905	1	6
592.094	1	1
593.283	1	12
594.471	1	5
595.660	1	6
596.848	1	5
598.037	1	6
599.225	1	4
600.413	1	-1
601.602	1	5
602.790	1	10
603.978	1	8
605.166	1	11
606.355	1	2
607.543	1	6
608.731	1	2
609.919	1	3
611.107	1	0
612.295	1	-2
613.483	1	-6
614.671	1	11
615.858	1	-1
617.046	1	9
618.234	1	7
619.422	1	-4
620.609	1	6
621.797	1	4
622.985	1	10
624.172	1	-1
625.360	1	3
626.547	1	0
627.735	1	-4
628.922	1	-2
630.109	1	-2
631.297	1	2
632.484	1	-13
633.671	1	0
634.858	1	5
636.045	1	4
637.232	1	14
638.419	1	-7
639.606	1	-9
640.793	1	0
641.980	1	-6
643.167	1	-2
644.354	1	3
645.541	1	-3
646.728	1	1
647.914	1	4
649.101	1	-1
650.288	1	9
651.474	1	5
652.661	1	6
653.847	1	5
655.034	1	-1
656.220	1	3
657.406	1	-9
658.593	1	-2
659.779	1	0
660.965	1	15
662.152	1	6
663.338	1	5
664.524	1	-3
665.710	1	4
666.896	1	0
668.082	1	8
669.268	1	-1
670.454	1	-10
671.640	1	10
672.826	1	-2
674.011	1	1
675.197	1	3
676.383	1	4
677.569	1	-12
678.754	1	5
679.940	1	6
681.125	1	8
682.311	1	0
683.496	1	0
684.682	1	-1
685.867	1	13
687.053	1	-6
688.238	1	-3
688.746	1	-3