File: Data/GaN_170K_550ms/GaN_sample D_spot 18_UVVIS_170 K_200um_550 ms 2x2mm1_188.txt
340.368	1	-2
341.565	1	0
342.763	1	-4
343.960	1	0
345.157	1	-8
346.354	1	0
347.552	1	15
348.749	1	11
349.946	1	12
351.143	1	5
352.340	1	6
353.537	1	6
354.734	1	7
355.931	1	7
357.127	1	7
358.324	1	13
359.521	1	13
360.718	1	9
361.914	1	5
363.111	1	24
364.308	1	16
365.504	1	18
366.701	1	23
367.897	1	14
369.093	1	9
370.290	1	21
371.486	1	12
372.682	1	19
373.879	1	18
375.075	1	14
376.271	1	13
377.467	1	6
378.663	1	12
379.859	1	5
381.055	1	7
382.251	1	7
383.447	1	15
384.643	1	-5
385.839	1	-8
387.035	1	-2
388.230	1	6
389.426	1	4
390.622	1	-1
391.817	1	-3
393.013	1	3
394.208	1	7
395.404	1	7
396.599	1	-6
397.795	1	-3
398.990	1	-11
400.186	1	6
401.381	1	5
402.576	1	2
403.771	1	-2
404.967	1	7
406.162	1	1
407.357	1	-7
408.552	1	1
409.747	1	3
410.942	1	-4
412.137	1	-8
413.332	1	-4
414.526	1	9
415.721	1	2
416.916	1	-8
418.111	1	4
419.305	1	-1
420.500	1	1
421.695	1	-10
422.889	1	-7
424.084	1	20
425.278	1	2
426.472	1	11
427.667	1	3
428.861	1	6
430.055	1	1
431.250	1	11
432.444	1	-5
433.638	1	1
434.832	1	3
436.026	1	4
437.220	1	4
438.414	1	-5
439.608	1	-1
440.802	1	11
441.996	1	-6
443.190	1	-1
444.384	1	-7
445.578	1	8
446.771	1	-12
447.965	1	1
449.159	1	-6
450.352	1	-3
451.546	1	-5
452.739	1	5
453.933	1	6
455.126	1	4
456.320	1	4
457.513	1	8
458.706	1	6
459.899	1	5
461.093	1	9
462.286	1	-16
463.479	1	-6
464.672	1	8
465.865	1	9
467.058	1	2
468.251	1	-1
469.444	1	2
470.637	1	0
471.830	1	-2
473.023	1	0
474.215	1	10
475.408	1	-8
476.601	1	8
477.793	1	6
478.986	1	-4
480.179	1	-6
481.371	1	0
482.564	1	0
483.756	1	4
484.948	1	3
486.141	1	9
487.333	1	-10
488.525	1	10
489.718	1	9
490.910	1	-1
492.102	1	8
493.294	1	3
494.486	1	3
495.678	1	7
496.870	1	-7
498.062	1	-1
499.254	1	6
500.446	1	-7
501.638	1	-2
502.829	1	5
504.021	1	8
505.213	1	-3
506.404	1	6
507.596	1	2
508.788	1	-2
509.979	1	0
511.171	1	7
512.362	1	1
513.553	1	2
514.745	1	0
515.936	1	2
517.127	1	11
518.319	1	5
519.510	1	5
520.701	1	10
521.892	1	12
523.083	1	8
524.274	1	1
525.465	1	7
526.656	1	8
527.847	1	0
529.038	1	8
530.229	1	11
531.419	1	12
532.610	1	9
533.801	1	4
534.991	1	7
536.182	1	-1
537.373	1	3
538.563	1	4
539.754	1	-1
540.944	1	-1
542.134	1	-2
543.325	1	5
544.515	1	7
545.705	1	8
546.896	1	10
548.086	1	4
549.276	1	2
550.466	1	1
551.656	1	13
552.846	1	-1
554.036	1	0
555.226	1	4
556.416	1	8
557.606	1	1
558.796	1	1
559.986	1	10
561.175	1	-1
562.365	1	5
563.555	1	0
564.744	1	0
565.934	1	5
567.123	1	2
568.313	1	7
569.502	1	2
570.692	1	3
571.881	1	3
573.070	1	-7
574.260	1	1
575.449	1	6
576.638	1	4
577.827	1	-1
579.016	1	5
580.205	1	2
581.394	1	3
582.583	1	-5
583.772	1	4
584.961	1	2
586.150	1	-2
587.339	1	-3
588.528	1	5
589.717	1	2
590.905	1	14
592.094	1	6
593.283	1	-1
594.471	1	10
595.660	1	-3
596.848	1	7
598.037	1	10
599.225	1	2
600.413	1	1
601.602	1	3
602.790	1	4
603.978	1	3
605.166	1	-4
606.355	1	13
607.543	1	16
608.731	1	-3
609.919	1	0
611.107	1	-3
612.295	1	0
613.483	1	9
614.671	1	8
615.858	1	5
617.046	1	0
618.234	1	3
619.422	1	-7
620.609	1	6
621.797	1	0
622.985	1	12
624.172	1	-1
625.360	1	0
626.547	1	-10
627.735	1	-6
628.922	1	-5
630.109	1	0
631.297	1	-7
632.484	1	-7
633.671	1	16
634.858	1	10
636.045	1	6
637.232	1	1
638.419	1	-2
639.606	1	0
640.793	1	0
641.980	1	-3
643.167	1	-7
644.354	1	9
645.541	1	10
646.728	1	5
647.914	1	4
649.101	1	6
650.288	1	4
651.474	1	14
652.661	1	-2
653.847	1	0
655.034	1	1
656.220	1	1
657.406	1	0
658.593	1	7
659.779	1	1
660.965	1	16
662.152	1	3
663.338	1	10
664.524	1	7
665.710	1	3
666.896	1	4
668.082	1	1
669.268	1	8
670.454	1	2
671.640	1	7
672.826	1	7
674.011	1	7
675.197	1	1
676.383	1	5
677.569	1	3
678.754	1	0
679.940	1	-1
681.125	1	8
682.311	1	-2
683.496	1	6
684.682	1	9
685.867	1	6
687.053	1	-1
688.238	1	-2
688.746	1	-3