File: Data/GaN_170K_550ms/GaN_sample D_spot 18_UVVIS_170 K_200um_550 ms 2x2mm1_96.txt
340.368	1	3
341.565	1	-3
342.763	1	0
343.960	1	0
345.157	1	7
346.354	1	-3
347.552	1	4
348.749	1	4
349.946	1	10
351.143	1	9
352.340	1	11
353.537	1	13
354.734	1	13
355.931	1	10
357.127	1	4
358.324	1	22
359.521	1	23
360.718	1	23
361.914	1	36
363.111	1	60
364.308	1	57
365.504	1	73
366.701	1	83
367.897	1	102
369.093	1	101
370.290	1	96
371.486	1	79
372.682	1	75
373.879	1	66
375.075	1	57
376.271	1	52
377.467	1	35
378.663	1	44
379.859	1	41
381.055	1	35
382.251	1	30
383.447	1	28
384.643	1	15
385.839	1	10
387.035	1	8
388.230	1	7
389.426	1	11
390.622	1	7
391.817	1	15
393.013	1	11
394.208	1	16
395.404	1	14
396.599	1	-2
397.795	1	-1
398.990	1	5
400.186	1	5
401.381	1	13
402.576	1	8
403.771	1	-4
404.967	1	2
406.162	1	11
407.357	1	4
408.552	1	7
409.747	1	-3
410.942	1	2
412.137	1	7
413.332	1	-1
414.526	1	3
415.721	1	0
416.916	1	-1
418.111	1	7
419.305	1	10
420.500	1	-1
421.695	1	-4
422.889	1	3
424.084	1	13
425.278	1	0
426.472	1	1
427.667	1	13
428.861	1	6
430.055	1	2
431.250	1	17
432.444	1	14
433.638	1	4
434.832	1	-1
436.026	1	3
437.220	1	-2
438.414	1	-2
439.608	1	0
440.802	1	12
441.996	1	2
443.190	1	1
444.384	1	5
445.578	1	6
446.771	1	1
447.965	1	-1
449.159	1	-12
450.352	1	0
451.546	1	-4
452.739	1	11
453.933	1	1
455.126	1	8
456.320	1	8
457.513	1	17
458.706	1	5
459.899	1	9
461.093	1	12
462.286	1	5
463.479	1	1
464.672	1	-2
465.865	1	0
467.058	1	8
468.251	1	6
469.444	1	0
470.637	1	3
471.830	1	4
473.023	1	4
474.215	1	11
475.408	1	2
476.601	1	6
477.793	1	3
478.986	1	8
480.179	1	2
481.371	1	1
482.564	1	3
483.756	1	5
484.948	1	7
486.141	1	8
487.333	1	4
488.525	1	15
489.718	1	6
490.910	1	8
492.102	1	3
493.294	1	9
494.486	1	23
495.678	1	1
496.870	1	9
498.062	1	9
499.254	1	15
500.446	1	8
501.638	1	1
502.829	1	19
504.021	1	19
505.213	1	11
506.404	1	15
507.596	1	20
508.788	1	9
509.979	1	17
511.171	1	17
512.362	1	14
513.553	1	17
514.745	1	18
515.936	1	18
517.127	1	19
518.319	1	17
519.510	1	16
520.701	1	22
521.892	1	19
523.083	1	9
524.274	1	4
525.465	1	11
526.656	1	27
527.847	1	12
529.038	1	9
530.229	1	32
531.419	1	25
532.610	1	13
533.801	1	25
534.991	1	10
536.182	1	13
537.373	1	11
538.563	1	20
539.754	1	8
540.944	1	8
542.134	1	8
543.325	1	20
544.515	1	19
545.705	1	19
546.896	1	14
548.086	1	11
549.276	1	16
550.466	1	15
551.656	1	15
552.846	1	16
554.036	1	10
555.226	1	2
556.416	1	7
557.606	1	17
558.796	1	11
559.986	1	15
561.175	1	3
562.365	1	12
563.555	1	5
564.744	1	12
565.934	1	12
567.123	1	10
568.313	1	6
569.502	1	10
570.692	1	11
571.881	1	8
573.070	1	12
574.260	1	11
575.449	1	14
576.638	1	12
577.827	1	6
579.016	1	0
580.205	1	-5
581.394	1	12
582.583	1	1
583.772	1	4
584.961	1	11
586.150	1	-1
587.339	1	2
588.528	1	12
589.717	1	8
590.905	1	15
592.094	1	7
593.283	1	8
594.471	1	16
595.660	1	6
596.848	1	9
598.037	1	5
599.225	1	6
600.413	1	-2
601.602	1	9
602.790	1	10
603.978	1	-3
605.166	1	6
606.355	1	10
607.543	1	10
608.731	1	5
609.919	1	2
611.107	1	-1
612.295	1	0
613.483	1	-3
614.671	1	10
615.858	1	0
617.046	1	-2
618.234	1	4
619.422	1	5
620.609	1	6
621.797	1	7
622.985	1	6
624.172	1	5
625.360	1	8
626.547	1	1
627.735	1	-5
628.922	1	2
630.109	1	0
631.297	1	-5
632.484	1	5
633.671	1	10
634.858	1	2
636.045	1	7
637.232	1	1
638.419	1	0
639.606	1	-5
640.793	1	5
641.980	1	-4
643.167	1	4
644.354	1	2
645.541	1	2
646.728	1	17
647.914	1	3
649.101	1	4
650.288	1	9
651.474	1	5
652.661	1	4
653.847	1	5
655.034	1	1
656.220	1	4
657.406	1	8
658.593	1	6
659.779	1	2
660.965	1	8
662.152	1	3
663.338	1	12
664.524	1	8
665.710	1	2
666.896	1	3
668.082	1	16
669.268	1	-2
670.454	1	-6
671.640	1	6
672.826	1	0
674.011	1	12
675.197	1	0
676.383	1	-1
677.569	1	2
678.754	1	8
679.940	1	14
681.125	1	10
682.311	1	-4
683.496	1	1
684.682	1	6
685.867	1	14
687.053	1	-9
688.238	1	6
688.746	1	-8