File: Data/GaN_170K_550ms/GaN_sample D_spot 18_UVVIS_170 K_200um_550 ms 2x2mm1_384.txt
340.368	1	3
341.565	1	1
342.763	1	4
343.960	1	-2
345.157	1	-6
346.354	1	-7
347.552	1	11
348.749	1	-3
349.946	1	4
351.143	1	-2
352.340	1	-6
353.537	1	2
354.734	1	5
355.931	1	0
357.127	1	-8
358.324	1	-2
359.521	1	0
360.718	1	-6
361.914	1	-1
363.111	1	3
364.308	1	0
365.504	1	2
366.701	1	-2
367.897	1	1
369.093	1	-18
370.290	1	-13
371.486	1	-2
372.682	1	3
373.879	1	10
375.075	1	-1
376.271	1	6
377.467	1	-12
378.663	1	5
379.859	1	-2
381.055	1	-3
382.251	1	-6
383.447	1	11
384.643	1	-4
385.839	1	-6
387.035	1	-2
388.230	1	-6
389.426	1	-4
390.622	1	-12
391.817	1	-7
393.013	1	-2
394.208	1	6
395.404	1	9
396.599	1	-5
397.795	1	-2
398.990	1	-9
400.186	1	-6
401.381	1	10
402.576	1	-4
403.771	1	-8
404.967	1	3
406.162	1	-5
407.357	1	-10
408.552	1	2
409.747	1	-5
410.942	1	1
412.137	1	-5
413.332	1	-9
414.526	1	6
415.721	1	-8
416.916	1	-6
418.111	1	7
419.305	1	3
420.500	1	1
421.695	1	-6
422.889	1	-10
424.084	1	7
425.278	1	-8
426.472	1	-5
427.667	1	1
428.861	1	-3
430.055	1	4
431.250	1	6
432.444	1	-4
433.638	1	10
434.832	1	7
436.026	1	-8
437.220	1	-12
438.414	1	-10
439.608	1	1
440.802	1	9
441.996	1	-9
443.190	1	-2
444.384	1	-10
445.578	1	6
446.771	1	-15
447.965	1	-8
449.159	1	7
450.352	1	-17
451.546	1	-16
452.739	1	5
453.933	1	6
455.126	1	7
456.320	1	-3
457.513	1	-2
458.706	1	5
459.899	1	-8
461.093	1	3
462.286	1	-7
463.479	1	-2
464.672	1	-3
465.865	1	-4
467.058	1	0
468.251	1	-15
469.444	1	0
470.637	1	4
471.830	1	-2
473.023	1	4
474.215	1	-1
475.408	1	-6
476.601	1	0
477.793	1	9
478.986	1	-8
480.179	1	-12
481.371	1	-1
482.564	1	-2
483.756	1	0
484.948	1	3
486.141	1	8
487.333	1	-8
488.525	1	1
489.718	1	-1
490.910	1	-12
492.102	1	-3
493.294	1	-2
494.486	1	3
495.678	1	-3
496.870	1	-5
498.062	1	0
499.254	1	0
500.446	1	-4
501.638	1	-9
502.829	1	-7
504.021	1	7
505.213	1	-8
506.404	1	0
507.596	1	-2
508.788	1	-8
509.979	1	-1
511.171	1	5
512.362	1	-6
513.553	1	-6
514.745	1	-4
515.936	1	-1
517.127	1	1
518.319	1	0
519.510	1	0
520.701	1	1
521.892	1	11
523.083	1	0
524.274	1	-3
525.465	1	-3
526.656	1	9
527.847	1	-7
529.038	1	-10
530.229	1	7
531.419	1	7
532.610	1	-8
533.801	1	0
534.991	1	-6
536.182	1	-5
537.373	1	-2
538.563	1	-2
539.754	1	-2
540.944	1	-10
542.134	1	0
543.325	1	-2
544.515	1	-1
545.705	1	14
546.896	1	-3
548.086	1	0
549.276	1	1
550.466	1	-1
551.656	1	-7
552.846	1	0
554.036	1	2
555.226	1	-5
556.416	1	3
557.606	1	3
558.796	1	-7
559.986	1	1
561.175	1	-8
562.365	1	3
563.555	1	-7
564.744	1	-3
565.934	1	1
567.123	1	0
568.313	1	-2
569.502	1	-8
570.692	1	9
571.881	1	-3
573.070	1	-16
574.260	1	-3
575.449	1	-1
576.638	1	3
577.827	1	1
579.016	1	1
580.205	1	-7
581.394	1	5
582.583	1	-2
583.772	1	-1
584.961	1	-6
586.150	1	-2
587.339	1	-5
588.528	1	1
589.717	1	7
590.905	1	2
592.094	1	17
593.283	1	-2
594.471	1	1
595.660	1	-2
596.848	1	-5
598.037	1	-2
599.225	1	9
600.413	1	-1
601.602	1	-1
602.790	1	8
603.978	1	3
605.166	1	5
606.355	1	1
607.543	1	2
608.731	1	-1
609.919	1	-4
611.107	1	-6
612.295	1	-6
613.483	1	-3
614.671	1	0
615.858	1	-6
617.046	1	3
618.234	1	-4
619.422	1	2
620.609	1	-9
621.797	1	1
622.985	1	-3
624.172	1	-3
625.360	1	-5
626.547	1	1
627.735	1	-8
628.922	1	-8
630.109	1	-1
631.297	1	5
632.484	1	-3
633.671	1	2
634.858	1	0
636.045	1	10
637.232	1	0
638.419	1	-7
639.606	1	-8
640.793	1	-8
641.980	1	-7
643.167	1	-8
644.354	1	-1
645.541	1	-4
646.728	1	2
647.914	1	1
649.101	1	-2
650.288	1	-5
651.474	1	6
652.661	1	-4
653.847	1	7
655.034	1	-8
656.220	1	2
657.406	1	-2
658.593	1	-7
659.779	1	-1
660.965	1	17
662.152	1	-1
663.338	1	2
664.524	1	6
665.710	1	0
666.896	1	-2
668.082	1	7
669.268	1	-4
670.454	1	-10
671.640	1	-1
672.826	1	4
674.011	1	6
675.197	1	5
676.383	1	-11
677.569	1	-11
678.754	1	1
679.940	1	2
681.125	1	1
682.311	1	-8
683.496	1	-2
684.682	1	1
685.867	1	9
687.053	1	-11
688.238	1	-2
688.746	1	-8