File: Data/GaN_170K_550ms/GaN_sample D_spot 18_UVVIS_170 K_200um_550 ms 2x2mm1_84.txt
340.368	1	-4
341.565	1	6
342.763	1	10
343.960	1	-2
345.157	1	3
346.354	1	4
347.552	1	9
348.749	1	7
349.946	1	4
351.143	1	5
352.340	1	8
353.537	1	6
354.734	1	9
355.931	1	12
357.127	1	14
358.324	1	23
359.521	1	28
360.718	1	24
361.914	1	44
363.111	1	71
364.308	1	79
365.504	1	98
366.701	1	132
367.897	1	160
369.093	1	143
370.290	1	144
371.486	1	112
372.682	1	105
373.879	1	87
375.075	1	70
376.271	1	61
377.467	1	61
378.663	1	50
379.859	1	49
381.055	1	34
382.251	1	44
383.447	1	40
384.643	1	21
385.839	1	24
387.035	1	20
388.230	1	11
389.426	1	18
390.622	1	13
391.817	1	11
393.013	1	3
394.208	1	8
395.404	1	13
396.599	1	1
397.795	1	6
398.990	1	-4
400.186	1	8
401.381	1	3
402.576	1	13
403.771	1	0
404.967	1	1
406.162	1	5
407.357	1	8
408.552	1	-3
409.747	1	7
410.942	1	11
412.137	1	2
413.332	1	9
414.526	1	5
415.721	1	4
416.916	1	-6
418.111	1	16
419.305	1	-5
420.500	1	5
421.695	1	-6
422.889	1	0
424.084	1	17
425.278	1	2
426.472	1	5
427.667	1	2
428.861	1	5
430.055	1	8
431.250	1	13
432.444	1	6
433.638	1	5
434.832	1	4
436.026	1	-1
437.220	1	9
438.414	1	-1
439.608	1	1
440.802	1	9
441.996	1	3
443.190	1	1
444.384	1	14
445.578	1	8
446.771	1	-8
447.965	1	7
449.159	1	5
450.352	1	-4
451.546	1	6
452.739	1	6
453.933	1	8
455.126	1	6
456.320	1	11
457.513	1	16
458.706	1	7
459.899	1	4
461.093	1	9
462.286	1	3
463.479	1	4
464.672	1	-4
465.865	1	0
467.058	1	-2
468.251	1	1
469.444	1	2
470.637	1	6
471.830	1	6
473.023	1	1
474.215	1	7
475.408	1	-11
476.601	1	6
477.793	1	15
478.986	1	-8
480.179	1	-1
481.371	1	-4
482.564	1	7
483.756	1	7
484.948	1	11
486.141	1	16
487.333	1	6
488.525	1	10
489.718	1	15
490.910	1	8
492.102	1	10
493.294	1	12
494.486	1	25
495.678	1	11
496.870	1	9
498.062	1	10
499.254	1	16
500.446	1	20
501.638	1	13
502.829	1	12
504.021	1	19
505.213	1	15
506.404	1	25
507.596	1	24
508.788	1	7
509.979	1	22
511.171	1	24
512.362	1	22
513.553	1	24
514.745	1	20
515.936	1	24
517.127	1	25
518.319	1	24
519.510	1	33
520.701	1	26
521.892	1	26
523.083	1	23
524.274	1	17
525.465	1	22
526.656	1	27
527.847	1	31
529.038	1	17
530.229	1	31
531.419	1	36
532.610	1	40
533.801	1	34
534.991	1	15
536.182	1	31
537.373	1	15
538.563	1	22
539.754	1	17
540.944	1	11
542.134	1	20
543.325	1	21
544.515	1	18
545.705	1	30
546.896	1	32
548.086	1	31
549.276	1	20
550.466	1	19
551.656	1	25
552.846	1	8
554.036	1	19
555.226	1	7
556.416	1	7
557.606	1	14
558.796	1	17
559.986	1	18
561.175	1	11
562.365	1	13
563.555	1	12
564.744	1	13
565.934	1	10
567.123	1	13
568.313	1	8
569.502	1	5
570.692	1	13
571.881	1	14
573.070	1	18
574.260	1	16
575.449	1	16
576.638	1	26
577.827	1	12
579.016	1	16
580.205	1	15
581.394	1	13
582.583	1	3
583.772	1	10
584.961	1	14
586.150	1	0
587.339	1	14
588.528	1	6
589.717	1	9
590.905	1	24
592.094	1	14
593.283	1	6
594.471	1	2
595.660	1	8
596.848	1	6
598.037	1	-4
599.225	1	15
600.413	1	-5
601.602	1	14
602.790	1	11
603.978	1	10
605.166	1	14
606.355	1	13
607.543	1	21
608.731	1	17
609.919	1	6
611.107	1	-1
612.295	1	8
613.483	1	-2
614.671	1	17
615.858	1	-1
617.046	1	-4
618.234	1	9
619.422	1	-7
620.609	1	6
621.797	1	10
622.985	1	12
624.172	1	0
625.360	1	4
626.547	1	2
627.735	1	-5
628.922	1	-6
630.109	1	-2
631.297	1	-1
632.484	1	3
633.671	1	13
634.858	1	8
636.045	1	14
637.232	1	7
638.419	1	5
639.606	1	-9
640.793	1	2
641.980	1	0
643.167	1	6
644.354	1	10
645.541	1	14
646.728	1	1
647.914	1	1
649.101	1	4
650.288	1	0
651.474	1	7
652.661	1	9
653.847	1	-3
655.034	1	7
656.220	1	9
657.406	1	-3
658.593	1	-2
659.779	1	4
660.965	1	14
662.152	1	8
663.338	1	14
664.524	1	3
665.710	1	6
666.896	1	0
668.082	1	17
669.268	1	-7
670.454	1	-2
671.640	1	13
672.826	1	2
674.011	1	4
675.197	1	13
676.383	1	15
677.569	1	-5
678.754	1	6
679.940	1	12
681.125	1	17
682.311	1	4
683.496	1	13
684.682	1	10
685.867	1	10
687.053	1	7
688.238	1	6
688.746	1	-4