File: Data/GaN_170K_550ms/GaN_sample D_spot 18_UVVIS_170 K_200um_550 ms 2x2mm1_71.txt
340.368	1	-2
341.565	1	11
342.763	1	8
343.960	1	-2
345.157	1	0
346.354	1	-8
347.552	1	18
348.749	1	13
349.946	1	7
351.143	1	7
352.340	1	2
353.537	1	12
354.734	1	18
355.931	1	21
357.127	1	29
358.324	1	30
359.521	1	43
360.718	1	47
361.914	1	68
363.111	1	91
364.308	1	146
365.504	1	189
366.701	1	243
367.897	1	282
369.093	1	273
370.290	1	273
371.486	1	230
372.682	1	177
373.879	1	158
375.075	1	123
376.271	1	99
377.467	1	83
378.663	1	85
379.859	1	65
381.055	1	59
382.251	1	44
383.447	1	45
384.643	1	34
385.839	1	32
387.035	1	36
388.230	1	34
389.426	1	21
390.622	1	16
391.817	1	22
393.013	1	20
394.208	1	18
395.404	1	23
396.599	1	13
397.795	1	2
398.990	1	3
400.186	1	3
401.381	1	11
402.576	1	6
403.771	1	3
404.967	1	11
406.162	1	7
407.357	1	2
408.552	1	10
409.747	1	8
410.942	1	23
412.137	1	-4
413.332	1	7
414.526	1	8
415.721	1	-4
416.916	1	1
418.111	1	15
419.305	1	5
420.500	1	9
421.695	1	-9
422.889	1	3
424.084	1	20
425.278	1	2
426.472	1	4
427.667	1	13
428.861	1	14
430.055	1	6
431.250	1	15
432.444	1	5
433.638	1	6
434.832	1	18
436.026	1	-2
437.220	1	5
438.414	1	-2
439.608	1	2
440.802	1	6
441.996	1	2
443.190	1	11
444.384	1	0
445.578	1	7
446.771	1	-1
447.965	1	4
449.159	1	-4
450.352	1	-2
451.546	1	-9
452.739	1	3
453.933	1	6
455.126	1	5
456.320	1	5
457.513	1	12
458.706	1	12
459.899	1	2
461.093	1	14
462.286	1	-2
463.479	1	4
464.672	1	5
465.865	1	2
467.058	1	2
468.251	1	15
469.444	1	-1
470.637	1	12
471.830	1	-2
473.023	1	6
474.215	1	-8
475.408	1	2
476.601	1	3
477.793	1	12
478.986	1	9
480.179	1	4
481.371	1	8
482.564	1	7
483.756	1	9
484.948	1	1
486.141	1	16
487.333	1	6
488.525	1	23
489.718	1	22
490.910	1	19
492.102	1	15
493.294	1	10
494.486	1	24
495.678	1	27
496.870	1	11
498.062	1	18
499.254	1	23
500.446	1	22
501.638	1	10
502.829	1	26
504.021	1	37
505.213	1	25
506.404	1	33
507.596	1	36
508.788	1	19
509.979	1	38
511.171	1	34
512.362	1	43
513.553	1	33
514.745	1	36
515.936	1	36
517.127	1	42
518.319	1	42
519.510	1	41
520.701	1	40
521.892	1	42
523.083	1	44
524.274	1	38
525.465	1	45
526.656	1	51
527.847	1	45
529.038	1	40
530.229	1	47
531.419	1	53
532.610	1	46
533.801	1	41
534.991	1	31
536.182	1	33
537.373	1	31
538.563	1	34
539.754	1	35
540.944	1	37
542.134	1	36
543.325	1	39
544.515	1	32
545.705	1	51
546.896	1	42
548.086	1	43
549.276	1	43
550.466	1	42
551.656	1	40
552.846	1	29
554.036	1	40
555.226	1	24
556.416	1	32
557.606	1	37
558.796	1	30
559.986	1	45
561.175	1	18
562.365	1	25
563.555	1	32
564.744	1	23
565.934	1	17
567.123	1	19
568.313	1	15
569.502	1	14
570.692	1	34
571.881	1	13
573.070	1	25
574.260	1	27
575.449	1	22
576.638	1	24
577.827	1	21
579.016	1	16
580.205	1	8
581.394	1	16
582.583	1	13
583.772	1	23
584.961	1	16
586.150	1	9
587.339	1	16
588.528	1	10
589.717	1	14
590.905	1	16
592.094	1	25
593.283	1	11
594.471	1	20
595.660	1	15
596.848	1	8
598.037	1	9
599.225	1	18
600.413	1	1
601.602	1	18
602.790	1	19
603.978	1	12
605.166	1	16
606.355	1	13
607.543	1	11
608.731	1	11
609.919	1	3
611.107	1	6
612.295	1	7
613.483	1	9
614.671	1	14
615.858	1	13
617.046	1	-1
618.234	1	8
619.422	1	4
620.609	1	7
621.797	1	15
622.985	1	11
624.172	1	12
625.360	1	11
626.547	1	-1
627.735	1	-3
628.922	1	-2
630.109	1	10
631.297	1	0
632.484	1	-2
633.671	1	14
634.858	1	4
636.045	1	4
637.232	1	8
638.419	1	6
639.606	1	-2
640.793	1	-3
641.980	1	-3
643.167	1	8
644.354	1	4
645.541	1	10
646.728	1	4
647.914	1	9
649.101	1	4
650.288	1	3
651.474	1	12
652.661	1	10
653.847	1	12
655.034	1	5
656.220	1	-1
657.406	1	7
658.593	1	4
659.779	1	4
660.965	1	6
662.152	1	-3
663.338	1	11
664.524	1	15
665.710	1	4
666.896	1	11
668.082	1	16
669.268	1	3
670.454	1	0
671.640	1	12
672.826	1	4
674.011	1	12
675.197	1	15
676.383	1	4
677.569	1	5
678.754	1	4
679.940	1	9
681.125	1	15
682.311	1	1
683.496	1	7
684.682	1	9
685.867	1	16
687.053	1	6
688.238	1	2
688.746	1	-9