File: Data/GaN_170K_550ms/GaN_sample D_spot 18_UVVIS_170 K_200um_550 ms 2x2mm1_310.txt
340.368	1	0
341.565	1	6
342.763	1	2
343.960	1	4
345.157	1	1
346.354	1	1
347.552	1	5
348.749	1	10
349.946	1	6
351.143	1	-1
352.340	1	1
353.537	1	1
354.734	1	4
355.931	1	-8
357.127	1	0
358.324	1	0
359.521	1	3
360.718	1	-1
361.914	1	5
363.111	1	12
364.308	1	9
365.504	1	8
366.701	1	12
367.897	1	6
369.093	1	-1
370.290	1	5
371.486	1	-1
372.682	1	6
373.879	1	3
375.075	1	6
376.271	1	1
377.467	1	10
378.663	1	-6
379.859	1	2
381.055	1	4
382.251	1	2
383.447	1	11
384.643	1	-2
385.839	1	-6
387.035	1	-1
388.230	1	-6
389.426	1	1
390.622	1	2
391.817	1	-1
393.013	1	0
394.208	1	11
395.404	1	6
396.599	1	-6
397.795	1	-3
398.990	1	-14
400.186	1	-6
401.381	1	6
402.576	1	-1
403.771	1	2
404.967	1	10
406.162	1	6
407.357	1	-3
408.552	1	-3
409.747	1	5
410.942	1	-2
412.137	1	1
413.332	1	2
414.526	1	1
415.721	1	-8
416.916	1	-8
418.111	1	11
419.305	1	-3
420.500	1	1
421.695	1	-5
422.889	1	-7
424.084	1	13
425.278	1	7
426.472	1	-1
427.667	1	1
428.861	1	5
430.055	1	9
431.250	1	4
432.444	1	-3
433.638	1	8
434.832	1	10
436.026	1	1
437.220	1	-5
438.414	1	-12
439.608	1	-8
440.802	1	6
441.996	1	-3
443.190	1	-4
444.384	1	-2
445.578	1	5
446.771	1	-9
447.965	1	-8
449.159	1	0
450.352	1	-4
451.546	1	-6
452.739	1	11
453.933	1	-9
455.126	1	10
456.320	1	4
457.513	1	-4
458.706	1	5
459.899	1	1
461.093	1	4
462.286	1	2
463.479	1	1
464.672	1	1
465.865	1	5
467.058	1	5
468.251	1	0
469.444	1	4
470.637	1	3
471.830	1	-2
473.023	1	3
474.215	1	-4
475.408	1	0
476.601	1	-3
477.793	1	4
478.986	1	-2
480.179	1	-11
481.371	1	4
482.564	1	1
483.756	1	0
484.948	1	-5
486.141	1	4
487.333	1	-5
488.525	1	7
489.718	1	3
490.910	1	-9
492.102	1	-3
493.294	1	3
494.486	1	13
495.678	1	8
496.870	1	-3
498.062	1	2
499.254	1	5
500.446	1	2
501.638	1	-10
502.829	1	6
504.021	1	1
505.213	1	-7
506.404	1	-4
507.596	1	9
508.788	1	-8
509.979	1	-2
511.171	1	0
512.362	1	0
513.553	1	-2
514.745	1	-8
515.936	1	6
517.127	1	5
518.319	1	11
519.510	1	10
520.701	1	2
521.892	1	-2
523.083	1	5
524.274	1	0
525.465	1	3
526.656	1	10
527.847	1	2
529.038	1	-3
530.229	1	9
531.419	1	7
532.610	1	2
533.801	1	5
534.991	1	-6
536.182	1	0
537.373	1	-7
538.563	1	-1
539.754	1	1
540.944	1	-2
542.134	1	-1
543.325	1	-4
544.515	1	-1
545.705	1	1
546.896	1	8
548.086	1	1
549.276	1	5
550.466	1	-7
551.656	1	8
552.846	1	7
554.036	1	4
555.226	1	2
556.416	1	-1
557.606	1	13
558.796	1	6
559.986	1	-4
561.175	1	-9
562.365	1	-3
563.555	1	-6
564.744	1	10
565.934	1	1
567.123	1	1
568.313	1	-6
569.502	1	-3
570.692	1	0
571.881	1	-8
573.070	1	4
574.260	1	4
575.449	1	1
576.638	1	6
577.827	1	2
579.016	1	2
580.205	1	-1
581.394	1	8
582.583	1	-6
583.772	1	-1
584.961	1	1
586.150	1	-2
587.339	1	0
588.528	1	-8
589.717	1	4
590.905	1	13
592.094	1	11
593.283	1	4
594.471	1	19
595.660	1	3
596.848	1	7
598.037	1	0
599.225	1	-5
600.413	1	0
601.602	1	7
602.790	1	6
603.978	1	4
605.166	1	12
606.355	1	4
607.543	1	9
608.731	1	-6
609.919	1	2
611.107	1	2
612.295	1	-6
613.483	1	1
614.671	1	7
615.858	1	-6
617.046	1	-6
618.234	1	8
619.422	1	-16
620.609	1	2
621.797	1	12
622.985	1	8
624.172	1	6
625.360	1	2
626.547	1	-9
627.735	1	-4
628.922	1	-10
630.109	1	-6
631.297	1	3
632.484	1	-7
633.671	1	3
634.858	1	6
636.045	1	4
637.232	1	1
638.419	1	-9
639.606	1	-8
640.793	1	-6
641.980	1	-7
643.167	1	-6
644.354	1	-6
645.541	1	-3
646.728	1	0
647.914	1	5
649.101	1	-1
650.288	1	-1
651.474	1	2
652.661	1	-1
653.847	1	4
655.034	1	-3
656.220	1	3
657.406	1	1
658.593	1	-3
659.779	1	0
660.965	1	12
662.152	1	4
663.338	1	7
664.524	1	-1
665.710	1	2
666.896	1	-3
668.082	1	8
669.268	1	-3
670.454	1	-9
671.640	1	-4
672.826	1	5
674.011	1	8
675.197	1	10
676.383	1	5
677.569	1	-4
678.754	1	5
679.940	1	3
681.125	1	5
682.311	1	4
683.496	1	-1
684.682	1	5
685.867	1	10
687.053	1	-6
688.238	1	-6
688.746	1	-8