File: Data/GaN_170K_550ms/GaN_sample D_spot 18_UVVIS_170 K_200um_550 ms 2x2mm1_35.txt
340.368	1	-6
341.565	1	2
342.763	1	-1
343.960	1	-4
345.157	1	4
346.354	1	-4
347.552	1	14
348.749	1	4
349.946	1	8
351.143	1	-1
352.340	1	9
353.537	1	1
354.734	1	5
355.931	1	-5
357.127	1	-1
358.324	1	1
359.521	1	7
360.718	1	-3
361.914	1	-1
363.111	1	11
364.308	1	4
365.504	1	-2
366.701	1	-2
367.897	1	3
369.093	1	-7
370.290	1	5
371.486	1	-6
372.682	1	0
373.879	1	8
375.075	1	5
376.271	1	1
377.467	1	5
378.663	1	-6
379.859	1	-2
381.055	1	-5
382.251	1	-3
383.447	1	-2
384.643	1	-3
385.839	1	2
387.035	1	6
388.230	1	2
389.426	1	-1
390.622	1	0
391.817	1	4
393.013	1	0
394.208	1	6
395.404	1	14
396.599	1	0
397.795	1	-4
398.990	1	0
400.186	1	1
401.381	1	5
402.576	1	-7
403.771	1	7
404.967	1	7
406.162	1	9
407.357	1	-5
408.552	1	-1
409.747	1	-1
410.942	1	6
412.137	1	-4
413.332	1	-4
414.526	1	-2
415.721	1	-4
416.916	1	-4
418.111	1	7
419.305	1	1
420.500	1	-5
421.695	1	-7
422.889	1	4
424.084	1	12
425.278	1	8
426.472	1	3
427.667	1	7
428.861	1	4
430.055	1	2
431.250	1	23
432.444	1	7
433.638	1	5
434.832	1	4
436.026	1	-3
437.220	1	-3
438.414	1	-1
439.608	1	3
440.802	1	5
441.996	1	-6
443.190	1	7
444.384	1	-1
445.578	1	9
446.771	1	-1
447.965	1	-3
449.159	1	-6
450.352	1	-8
451.546	1	-18
452.739	1	8
453.933	1	1
455.126	1	5
456.320	1	-10
457.513	1	10
458.706	1	3
459.899	1	2
461.093	1	12
462.286	1	1
463.479	1	1
464.672	1	-8
465.865	1	8
467.058	1	4
468.251	1	1
469.444	1	-4
470.637	1	8
471.830	1	-7
473.023	1	12
474.215	1	-5
475.408	1	2
476.601	1	2
477.793	1	5
478.986	1	-4
480.179	1	-2
481.371	1	1
482.564	1	-7
483.756	1	5
484.948	1	-1
486.141	1	7
487.333	1	-1
488.525	1	5
489.718	1	4
490.910	1	4
492.102	1	10
493.294	1	-6
494.486	1	13
495.678	1	-7
496.870	1	6
498.062	1	-11
499.254	1	3
500.446	1	10
501.638	1	-5
502.829	1	-3
504.021	1	7
505.213	1	-8
506.404	1	6
507.596	1	-3
508.788	1	-1
509.979	1	5
511.171	1	7
512.362	1	-5
513.553	1	1
514.745	1	-1
515.936	1	1
517.127	1	3
518.319	1	6
519.510	1	4
520.701	1	7
521.892	1	-2
523.083	1	1
524.274	1	2
525.465	1	0
526.656	1	11
527.847	1	9
529.038	1	0
530.229	1	9
531.419	1	1
532.610	1	10
533.801	1	13
534.991	1	3
536.182	1	4
537.373	1	-5
538.563	1	3
539.754	1	-6
540.944	1	0
542.134	1	2
543.325	1	7
544.515	1	0
545.705	1	5
546.896	1	2
548.086	1	5
549.276	1	1
550.466	1	-1
551.656	1	3
552.846	1	1
554.036	1	-2
555.226	1	-5
556.416	1	0
557.606	1	3
558.796	1	-3
559.986	1	-1
561.175	1	3
562.365	1	1
563.555	1	7
564.744	1	2
565.934	1	4
567.123	1	0
568.313	1	3
569.502	1	1
570.692	1	12
571.881	1	-7
573.070	1	-4
574.260	1	10
575.449	1	13
576.638	1	12
577.827	1	-5
579.016	1	3
580.205	1	-1
581.394	1	9
582.583	1	-5
583.772	1	2
584.961	1	-1
586.150	1	-3
587.339	1	-3
588.528	1	-4
589.717	1	8
590.905	1	2
592.094	1	9
593.283	1	3
594.471	1	2
595.660	1	-3
596.848	1	1
598.037	1	-3
599.225	1	7
600.413	1	-6
601.602	1	5
602.790	1	4
603.978	1	8
605.166	1	11
606.355	1	4
607.543	1	12
608.731	1	1
609.919	1	-5
611.107	1	0
612.295	1	3
613.483	1	-5
614.671	1	4
615.858	1	6
617.046	1	5
618.234	1	-1
619.422	1	-5
620.609	1	2
621.797	1	8
622.985	1	2
624.172	1	-1
625.360	1	3
626.547	1	1
627.735	1	-5
628.922	1	-9
630.109	1	-1
631.297	1	-7
632.484	1	7
633.671	1	12
634.858	1	7
636.045	1	8
637.232	1	-2
638.419	1	-3
639.606	1	-2
640.793	1	-3
641.980	1	0
643.167	1	-7
644.354	1	-1
645.541	1	2
646.728	1	4
647.914	1	2
649.101	1	5
650.288	1	-3
651.474	1	6
652.661	1	-3
653.847	1	-1
655.034	1	-7
656.220	1	-6
657.406	1	9
658.593	1	6
659.779	1	-3
660.965	1	8
662.152	1	5
663.338	1	4
664.524	1	0
665.710	1	0
666.896	1	3
668.082	1	13
669.268	1	-7
670.454	1	-13
671.640	1	5
672.826	1	4
674.011	1	6
675.197	1	5
676.383	1	10
677.569	1	-2
678.754	1	13
679.940	1	11
681.125	1	6
682.311	1	-2
683.496	1	5
684.682	1	8
685.867	1	1
687.053	1	-3
688.238	1	-8
688.746	1	4