File: Data/GaN_150K_450ms/GaN_sample D_spot15_UVVIS_150 K_200um_450 ms 2x2mm1_146.txt
340.368	1	5
341.565	1	4
342.763	1	6
343.960	1	15
345.157	1	7
346.354	1	-1
347.552	1	21
348.749	1	15
349.946	1	13
351.143	1	10
352.340	1	2
353.537	1	-1
354.734	1	4
355.931	1	8
357.127	1	12
358.324	1	13
359.521	1	18
360.718	1	17
361.914	1	8
363.111	1	9
364.308	1	20
365.504	1	21
366.701	1	41
367.897	1	41
369.093	1	41
370.290	1	53
371.486	1	37
372.682	1	26
373.879	1	25
375.075	1	17
376.271	1	8
377.467	1	23
378.663	1	15
379.859	1	-4
381.055	1	11
382.251	1	2
383.447	1	1
384.643	1	8
385.839	1	2
387.035	1	17
388.230	1	6
389.426	1	-6
390.622	1	6
391.817	1	10
393.013	1	9
394.208	1	7
395.404	1	10
396.599	1	2
397.795	1	4
398.990	1	6
400.186	1	13
401.381	1	5
402.576	1	8
403.771	1	2
404.967	1	7
406.162	1	2
407.357	1	18
408.552	1	10
409.747	1	5
410.942	1	9
412.137	1	12
413.332	1	6
414.526	1	-1
415.721	1	13
416.916	1	5
418.111	1	6
419.305	1	17
420.500	1	5
421.695	1	18
422.889	1	14
424.084	1	10
425.278	1	9
426.472	1	11
427.667	1	10
428.861	1	16
430.055	1	5
431.250	1	15
432.444	1	10
433.638	1	11
434.832	1	1
436.026	1	7
437.220	1	10
438.414	1	12
439.608	1	6
440.802	1	3
441.996	1	11
443.190	1	13
444.384	1	9
445.578	1	3
446.771	1	2
447.965	1	7
449.159	1	3
450.352	1	8
451.546	1	8
452.739	1	10
453.933	1	3
455.126	1	8
456.320	1	18
457.513	1	6
458.706	1	15
459.899	1	4
461.093	1	10
462.286	1	1
463.479	1	3
464.672	1	-1
465.865	1	6
467.058	1	11
468.251	1	1
469.444	1	7
470.637	1	1
471.830	1	5
473.023	1	8
474.215	1	11
475.408	1	4
476.601	1	8
477.793	1	4
478.986	1	7
480.179	1	10
481.371	1	-5
482.564	1	9
483.756	1	7
484.948	1	3
486.141	1	16
487.333	1	3
488.525	1	-4
489.718	1	-5
490.910	1	3
492.102	1	7
493.294	1	-3
494.486	1	0
495.678	1	2
496.870	1	10
498.062	1	-3
499.254	1	8
500.446	1	3
501.638	1	19
502.829	1	6
504.021	1	4
505.213	1	7
506.404	1	6
507.596	1	20
508.788	1	4
509.979	1	7
511.171	1	13
512.362	1	14
513.553	1	5
514.745	1	9
515.936	1	4
517.127	1	23
518.319	1	7
519.510	1	-3
520.701	1	13
521.892	1	8
523.083	1	4
524.274	1	9
525.465	1	17
526.656	1	20
527.847	1	-3
529.038	1	8
530.229	1	12
531.419	1	9
532.610	1	19
533.801	1	17
534.991	1	5
536.182	1	10
537.373	1	3
538.563	1	7
539.754	1	7
540.944	1	12
542.134	1	13
543.325	1	19
544.515	1	9
545.705	1	17
546.896	1	14
548.086	1	15
549.276	1	15
550.466	1	9
551.656	1	4
552.846	1	17
554.036	1	21
555.226	1	8
556.416	1	12
557.606	1	-6
558.796	1	17
559.986	1	14
561.175	1	-2
562.365	1	9
563.555	1	15
564.744	1	13
565.934	1	12
567.123	1	0
568.313	1	13
569.502	1	12
570.692	1	-1
571.881	1	6
573.070	1	8
574.260	1	3
575.449	1	6
576.638	1	9
577.827	1	-2
579.016	1	3
580.205	1	2
581.394	1	2
582.583	1	7
583.772	1	7
584.961	1	6
586.150	1	8
587.339	1	3
588.528	1	7
589.717	1	11
590.905	1	6
592.094	1	10
593.283	1	16
594.471	1	-7
595.660	1	5
596.848	1	14
598.037	1	5
599.225	1	-3
600.413	1	12
601.602	1	7
602.790	1	9
603.978	1	6
605.166	1	6
606.355	1	-6
607.543	1	10
608.731	1	-4
609.919	1	-10
611.107	1	9
612.295	1	-7
613.483	1	6
614.671	1	-3
615.858	1	-11
617.046	1	3
618.234	1	-2
619.422	1	19
620.609	1	-6
621.797	1	6
622.985	1	5
624.172	1	6
625.360	1	-4
626.547	1	-6
627.735	1	6
628.922	1	4
630.109	1	-11
631.297	1	2
632.484	1	1
633.671	1	6
634.858	1	4
636.045	1	-5
637.232	1	6
638.419	1	0
639.606	1	9
640.793	1	6
641.980	1	13
643.167	1	7
644.354	1	12
645.541	1	7
646.728	1	2
647.914	1	-2
649.101	1	-6
650.288	1	7
651.474	1	5
652.661	1	8
653.847	1	6
655.034	1	8
656.220	1	2
657.406	1	-3
658.593	1	5
659.779	1	18
660.965	1	3
662.152	1	5
663.338	1	4
664.524	1	20
665.710	1	7
666.896	1	-1
668.082	1	8
669.268	1	0
670.454	1	2
671.640	1	7
672.826	1	-2
674.011	1	8
675.197	1	9
676.383	1	4
677.569	1	14
678.754	1	4
679.940	1	-4
681.125	1	-3
682.311	1	11
683.496	1	-1
684.682	1	12
685.867	1	5
687.053	1	17
688.238	1	13
688.746	1	1