File: Data/GaN_150K_450ms/GaN_sample D_spot15_UVVIS_150 K_200um_450 ms 2x2mm1_219.txt
340.368	1	2
341.565	1	11
342.763	1	8
343.960	1	11
345.157	1	11
346.354	1	1
347.552	1	22
348.749	1	9
349.946	1	2
351.143	1	8
352.340	1	-2
353.537	1	1
354.734	1	7
355.931	1	7
357.127	1	9
358.324	1	9
359.521	1	14
360.718	1	12
361.914	1	7
363.111	1	4
364.308	1	16
365.504	1	9
366.701	1	17
367.897	1	30
369.093	1	18
370.290	1	19
371.486	1	25
372.682	1	11
373.879	1	8
375.075	1	5
376.271	1	15
377.467	1	19
378.663	1	10
379.859	1	3
381.055	1	-2
382.251	1	0
383.447	1	2
384.643	1	1
385.839	1	3
387.035	1	0
388.230	1	-1
389.426	1	-7
390.622	1	-5
391.817	1	2
393.013	1	-1
394.208	1	5
395.404	1	14
396.599	1	1
397.795	1	0
398.990	1	11
400.186	1	4
401.381	1	0
402.576	1	-2
403.771	1	-5
404.967	1	8
406.162	1	-6
407.357	1	2
408.552	1	-1
409.747	1	0
410.942	1	8
412.137	1	3
413.332	1	8
414.526	1	4
415.721	1	3
416.916	1	6
418.111	1	14
419.305	1	4
420.500	1	7
421.695	1	12
422.889	1	1
424.084	1	7
425.278	1	9
426.472	1	10
427.667	1	-2
428.861	1	15
430.055	1	16
431.250	1	3
432.444	1	8
433.638	1	8
434.832	1	-7
436.026	1	2
437.220	1	16
438.414	1	6
439.608	1	6
440.802	1	8
441.996	1	-2
443.190	1	10
444.384	1	13
445.578	1	-8
446.771	1	10
447.965	1	8
449.159	1	-4
450.352	1	-6
451.546	1	0
452.739	1	-2
453.933	1	-7
455.126	1	3
456.320	1	9
457.513	1	-6
458.706	1	4
459.899	1	2
461.093	1	5
462.286	1	9
463.479	1	0
464.672	1	3
465.865	1	7
467.058	1	4
468.251	1	-6
469.444	1	5
470.637	1	-2
471.830	1	5
473.023	1	6
474.215	1	4
475.408	1	1
476.601	1	3
477.793	1	1
478.986	1	3
480.179	1	2
481.371	1	-2
482.564	1	3
483.756	1	3
484.948	1	6
486.141	1	3
487.333	1	-11
488.525	1	-7
489.718	1	-15
490.910	1	11
492.102	1	5
493.294	1	-12
494.486	1	5
495.678	1	-3
496.870	1	5
498.062	1	1
499.254	1	1
500.446	1	1
501.638	1	8
502.829	1	-9
504.021	1	7
505.213	1	3
506.404	1	3
507.596	1	6
508.788	1	0
509.979	1	2
511.171	1	6
512.362	1	11
513.553	1	6
514.745	1	1
515.936	1	-2
517.127	1	15
518.319	1	8
519.510	1	-2
520.701	1	14
521.892	1	-4
523.083	1	6
524.274	1	4
525.465	1	12
526.656	1	10
527.847	1	-2
529.038	1	5
530.229	1	10
531.419	1	6
532.610	1	11
533.801	1	9
534.991	1	3
536.182	1	5
537.373	1	4
538.563	1	5
539.754	1	-1
540.944	1	4
542.134	1	11
543.325	1	6
544.515	1	5
545.705	1	4
546.896	1	2
548.086	1	5
549.276	1	8
550.466	1	-2
551.656	1	8
552.846	1	8
554.036	1	12
555.226	1	11
556.416	1	8
557.606	1	-2
558.796	1	13
559.986	1	-4
561.175	1	5
562.365	1	4
563.555	1	10
564.744	1	8
565.934	1	9
567.123	1	0
568.313	1	4
569.502	1	1
570.692	1	0
571.881	1	1
573.070	1	4
574.260	1	11
575.449	1	-1
576.638	1	9
577.827	1	-1
579.016	1	3
580.205	1	3
581.394	1	-1
582.583	1	1
583.772	1	8
584.961	1	-4
586.150	1	10
587.339	1	-1
588.528	1	5
589.717	1	-2
590.905	1	-4
592.094	1	6
593.283	1	2
594.471	1	-4
595.660	1	7
596.848	1	8
598.037	1	6
599.225	1	-3
600.413	1	11
601.602	1	1
602.790	1	1
603.978	1	-3
605.166	1	7
606.355	1	-7
607.543	1	0
608.731	1	-16
609.919	1	-2
611.107	1	12
612.295	1	9
613.483	1	3
614.671	1	10
615.858	1	-3
617.046	1	-4
618.234	1	0
619.422	1	20
620.609	1	-5
621.797	1	6
622.985	1	7
624.172	1	3
625.360	1	7
626.547	1	4
627.735	1	4
628.922	1	11
630.109	1	-2
631.297	1	6
632.484	1	2
633.671	1	16
634.858	1	4
636.045	1	-4
637.232	1	15
638.419	1	6
639.606	1	9
640.793	1	-6
641.980	1	8
643.167	1	-3
644.354	1	13
645.541	1	6
646.728	1	3
647.914	1	1
649.101	1	-6
650.288	1	3
651.474	1	9
652.661	1	0
653.847	1	3
655.034	1	-5
656.220	1	-1
657.406	1	9
658.593	1	3
659.779	1	8
660.965	1	2
662.152	1	4
663.338	1	-2
664.524	1	14
665.710	1	0
666.896	1	3
668.082	1	8
669.268	1	1
670.454	1	8
671.640	1	11
672.826	1	4
674.011	1	5
675.197	1	4
676.383	1	-6
677.569	1	8
678.754	1	3
679.940	1	-3
681.125	1	1
682.311	1	6
683.496	1	5
684.682	1	-1
685.867	1	4
687.053	1	12
688.238	1	3
688.746	1	-8