File: Data/GaN_150K_450ms/GaN_sample D_spot15_UVVIS_150 K_200um_450 ms 2x2mm1_123.txt
340.368	1	1
341.565	1	3
342.763	1	1
343.960	1	8
345.157	1	18
346.354	1	0
347.552	1	15
348.749	1	17
349.946	1	-2
351.143	1	11
352.340	1	21
353.537	1	-5
354.734	1	17
355.931	1	12
357.127	1	17
358.324	1	15
359.521	1	18
360.718	1	17
361.914	1	20
363.111	1	22
364.308	1	32
365.504	1	35
366.701	1	44
367.897	1	62
369.093	1	61
370.290	1	56
371.486	1	46
372.682	1	48
373.879	1	41
375.075	1	25
376.271	1	25
377.467	1	34
378.663	1	14
379.859	1	18
381.055	1	14
382.251	1	5
383.447	1	14
384.643	1	3
385.839	1	12
387.035	1	8
388.230	1	6
389.426	1	8
390.622	1	3
391.817	1	-6
393.013	1	16
394.208	1	4
395.404	1	6
396.599	1	4
397.795	1	7
398.990	1	13
400.186	1	4
401.381	1	12
402.576	1	13
403.771	1	-1
404.967	1	12
406.162	1	9
407.357	1	6
408.552	1	7
409.747	1	5
410.942	1	20
412.137	1	9
413.332	1	13
414.526	1	1
415.721	1	13
416.916	1	16
418.111	1	14
419.305	1	16
420.500	1	19
421.695	1	19
422.889	1	16
424.084	1	11
425.278	1	11
426.472	1	22
427.667	1	18
428.861	1	23
430.055	1	21
431.250	1	19
432.444	1	8
433.638	1	14
434.832	1	13
436.026	1	12
437.220	1	22
438.414	1	19
439.608	1	3
440.802	1	11
441.996	1	11
443.190	1	17
444.384	1	20
445.578	1	5
446.771	1	10
447.965	1	7
449.159	1	-2
450.352	1	9
451.546	1	2
452.739	1	6
453.933	1	-3
455.126	1	13
456.320	1	4
457.513	1	6
458.706	1	5
459.899	1	-1
461.093	1	3
462.286	1	8
463.479	1	0
464.672	1	8
465.865	1	4
467.058	1	2
468.251	1	0
469.444	1	16
470.637	1	4
471.830	1	3
473.023	1	11
474.215	1	1
475.408	1	3
476.601	1	4
477.793	1	2
478.986	1	12
480.179	1	13
481.371	1	-3
482.564	1	14
483.756	1	12
484.948	1	4
486.141	1	13
487.333	1	3
488.525	1	-1
489.718	1	-4
490.910	1	16
492.102	1	10
493.294	1	-3
494.486	1	8
495.678	1	6
496.870	1	11
498.062	1	0
499.254	1	8
500.446	1	11
501.638	1	16
502.829	1	6
504.021	1	14
505.213	1	-1
506.404	1	9
507.596	1	20
508.788	1	6
509.979	1	10
511.171	1	8
512.362	1	24
513.553	1	17
514.745	1	7
515.936	1	16
517.127	1	26
518.319	1	18
519.510	1	5
520.701	1	14
521.892	1	13
523.083	1	6
524.274	1	13
525.465	1	22
526.656	1	13
527.847	1	7
529.038	1	21
530.229	1	17
531.419	1	11
532.610	1	21
533.801	1	22
534.991	1	14
536.182	1	4
537.373	1	12
538.563	1	13
539.754	1	9
540.944	1	15
542.134	1	12
543.325	1	27
544.515	1	13
545.705	1	2
546.896	1	17
548.086	1	12
549.276	1	13
550.466	1	11
551.656	1	15
552.846	1	11
554.036	1	12
555.226	1	15
556.416	1	20
557.606	1	7
558.796	1	17
559.986	1	21
561.175	1	13
562.365	1	6
563.555	1	2
564.744	1	19
565.934	1	14
567.123	1	8
568.313	1	9
569.502	1	11
570.692	1	19
571.881	1	6
573.070	1	10
574.260	1	20
575.449	1	0
576.638	1	7
577.827	1	3
579.016	1	0
580.205	1	2
581.394	1	1
582.583	1	3
583.772	1	7
584.961	1	-2
586.150	1	18
587.339	1	9
588.528	1	2
589.717	1	8
590.905	1	8
592.094	1	13
593.283	1	11
594.471	1	4
595.660	1	10
596.848	1	7
598.037	1	10
599.225	1	2
600.413	1	5
601.602	1	12
602.790	1	-4
603.978	1	3
605.166	1	6
606.355	1	-6
607.543	1	8
608.731	1	2
609.919	1	-4
611.107	1	15
612.295	1	4
613.483	1	10
614.671	1	6
615.858	1	3
617.046	1	4
618.234	1	5
619.422	1	17
620.609	1	3
621.797	1	1
622.985	1	8
624.172	1	7
625.360	1	16
626.547	1	4
627.735	1	1
628.922	1	13
630.109	1	-1
631.297	1	10
632.484	1	1
633.671	1	4
634.858	1	3
636.045	1	-6
637.232	1	0
638.419	1	-2
639.606	1	4
640.793	1	13
641.980	1	8
643.167	1	3
644.354	1	14
645.541	1	7
646.728	1	10
647.914	1	11
649.101	1	5
650.288	1	3
651.474	1	19
652.661	1	8
653.847	1	12
655.034	1	-4
656.220	1	-1
657.406	1	-3
658.593	1	12
659.779	1	12
660.965	1	4
662.152	1	1
663.338	1	1
664.524	1	13
665.710	1	1
666.896	1	4
668.082	1	5
669.268	1	7
670.454	1	14
671.640	1	10
672.826	1	6
674.011	1	5
675.197	1	6
676.383	1	7
677.569	1	16
678.754	1	5
679.940	1	-3
681.125	1	-2
682.311	1	16
683.496	1	6
684.682	1	5
685.867	1	1
687.053	1	23
688.238	1	10
688.746	1	8