File: Data/GaN_150K_450ms/GaN_sample D_spot15_UVVIS_150 K_200um_450 ms 2x2mm1_27.txt
340.368	1	0
341.565	1	2
342.763	1	-4
343.960	1	7
345.157	1	8
346.354	1	2
347.552	1	14
348.749	1	5
349.946	1	-2
351.143	1	3
352.340	1	4
353.537	1	-10
354.734	1	-1
355.931	1	7
357.127	1	9
358.324	1	-5
359.521	1	8
360.718	1	3
361.914	1	0
363.111	1	-2
364.308	1	1
365.504	1	-4
366.701	1	4
367.897	1	-4
369.093	1	8
370.290	1	6
371.486	1	1
372.682	1	3
373.879	1	0
375.075	1	1
376.271	1	2
377.467	1	14
378.663	1	6
379.859	1	-1
381.055	1	-2
382.251	1	-8
383.447	1	4
384.643	1	-2
385.839	1	2
387.035	1	1
388.230	1	6
389.426	1	-7
390.622	1	-7
391.817	1	-11
393.013	1	9
394.208	1	-4
395.404	1	2
396.599	1	4
397.795	1	-2
398.990	1	4
400.186	1	-2
401.381	1	-1
402.576	1	2
403.771	1	-6
404.967	1	2
406.162	1	-14
407.357	1	-1
408.552	1	-5
409.747	1	1
410.942	1	3
412.137	1	2
413.332	1	-5
414.526	1	-6
415.721	1	-3
416.916	1	3
418.111	1	1
419.305	1	-1
420.500	1	-1
421.695	1	0
422.889	1	3
424.084	1	5
425.278	1	2
426.472	1	11
427.667	1	-4
428.861	1	7
430.055	1	4
431.250	1	4
432.444	1	-1
433.638	1	10
434.832	1	2
436.026	1	-12
437.220	1	6
438.414	1	2
439.608	1	-3
440.802	1	5
441.996	1	-8
443.190	1	-1
444.384	1	11
445.578	1	-3
446.771	1	-3
447.965	1	3
449.159	1	1
450.352	1	-7
451.546	1	0
452.739	1	5
453.933	1	2
455.126	1	-4
456.320	1	3
457.513	1	-1
458.706	1	6
459.899	1	-1
461.093	1	5
462.286	1	-2
463.479	1	2
464.672	1	2
465.865	1	3
467.058	1	-2
468.251	1	-6
469.444	1	3
470.637	1	1
471.830	1	5
473.023	1	7
474.215	1	-1
475.408	1	9
476.601	1	4
477.793	1	-4
478.986	1	7
480.179	1	-2
481.371	1	-5
482.564	1	4
483.756	1	5
484.948	1	-2
486.141	1	7
487.333	1	-3
488.525	1	-5
489.718	1	-10
490.910	1	0
492.102	1	4
493.294	1	-10
494.486	1	-1
495.678	1	-2
496.870	1	5
498.062	1	-3
499.254	1	0
500.446	1	4
501.638	1	4
502.829	1	-5
504.021	1	1
505.213	1	-3
506.404	1	-2
507.596	1	3
508.788	1	-3
509.979	1	-5
511.171	1	2
512.362	1	10
513.553	1	1
514.745	1	4
515.936	1	3
517.127	1	14
518.319	1	2
519.510	1	-4
520.701	1	2
521.892	1	-4
523.083	1	-4
524.274	1	8
525.465	1	5
526.656	1	1
527.847	1	-19
529.038	1	6
530.229	1	8
531.419	1	7
532.610	1	0
533.801	1	7
534.991	1	-4
536.182	1	-3
537.373	1	3
538.563	1	-3
539.754	1	1
540.944	1	6
542.134	1	4
543.325	1	9
544.515	1	4
545.705	1	3
546.896	1	-3
548.086	1	8
549.276	1	4
550.466	1	-4
551.656	1	2
552.846	1	-4
554.036	1	9
555.226	1	3
556.416	1	7
557.606	1	-10
558.796	1	10
559.986	1	4
561.175	1	1
562.365	1	-6
563.555	1	-2
564.744	1	9
565.934	1	19
567.123	1	-2
568.313	1	3
569.502	1	2
570.692	1	8
571.881	1	-3
573.070	1	5
574.260	1	-1
575.449	1	-6
576.638	1	4
577.827	1	2
579.016	1	7
580.205	1	0
581.394	1	-2
582.583	1	5
583.772	1	8
584.961	1	-8
586.150	1	6
587.339	1	4
588.528	1	-6
589.717	1	2
590.905	1	0
592.094	1	5
593.283	1	7
594.471	1	-5
595.660	1	5
596.848	1	5
598.037	1	1
599.225	1	1
600.413	1	3
601.602	1	2
602.790	1	3
603.978	1	-3
605.166	1	-2
606.355	1	-8
607.543	1	2
608.731	1	-12
609.919	1	-15
611.107	1	13
612.295	1	4
613.483	1	-1
614.671	1	8
615.858	1	-11
617.046	1	-7
618.234	1	-6
619.422	1	16
620.609	1	-4
621.797	1	-5
622.985	1	3
624.172	1	1
625.360	1	0
626.547	1	0
627.735	1	2
628.922	1	6
630.109	1	-6
631.297	1	7
632.484	1	4
633.671	1	3
634.858	1	-3
636.045	1	-1
637.232	1	-3
638.419	1	1
639.606	1	10
640.793	1	-4
641.980	1	17
643.167	1	2
644.354	1	7
645.541	1	-1
646.728	1	2
647.914	1	3
649.101	1	-11
650.288	1	5
651.474	1	11
652.661	1	-1
653.847	1	6
655.034	1	-8
656.220	1	4
657.406	1	-4
658.593	1	10
659.779	1	1
660.965	1	-4
662.152	1	-5
663.338	1	2
664.524	1	7
665.710	1	1
666.896	1	-1
668.082	1	4
669.268	1	6
670.454	1	6
671.640	1	0
672.826	1	-2
674.011	1	5
675.197	1	5
676.383	1	-1
677.569	1	6
678.754	1	-1
679.940	1	-7
681.125	1	2
682.311	1	10
683.496	1	-3
684.682	1	7
685.867	1	2
687.053	1	14
688.238	1	5
688.746	1	1