File: Data/GaN_150K_450ms/GaN_sample D_spot15_UVVIS_150 K_200um_450 ms 2x2mm1_331.txt
340.368	1	4
341.565	1	7
342.763	1	7
343.960	1	10
345.157	1	7
346.354	1	-1
347.552	1	20
348.749	1	14
349.946	1	-7
351.143	1	8
352.340	1	6
353.537	1	2
354.734	1	0
355.931	1	11
357.127	1	6
358.324	1	-5
359.521	1	8
360.718	1	10
361.914	1	-2
363.111	1	-6
364.308	1	10
365.504	1	-2
366.701	1	2
367.897	1	3
369.093	1	10
370.290	1	11
371.486	1	13
372.682	1	9
373.879	1	3
375.075	1	-11
376.271	1	6
377.467	1	14
378.663	1	6
379.859	1	-6
381.055	1	6
382.251	1	-10
383.447	1	-5
384.643	1	1
385.839	1	2
387.035	1	7
388.230	1	-1
389.426	1	-3
390.622	1	-2
391.817	1	-3
393.013	1	6
394.208	1	-1
395.404	1	16
396.599	1	-2
397.795	1	0
398.990	1	4
400.186	1	7
401.381	1	-5
402.576	1	1
403.771	1	-14
404.967	1	2
406.162	1	-2
407.357	1	4
408.552	1	-6
409.747	1	-10
410.942	1	4
412.137	1	6
413.332	1	8
414.526	1	0
415.721	1	3
416.916	1	-4
418.111	1	9
419.305	1	0
420.500	1	6
421.695	1	10
422.889	1	7
424.084	1	6
425.278	1	5
426.472	1	9
427.667	1	-1
428.861	1	7
430.055	1	7
431.250	1	7
432.444	1	5
433.638	1	1
434.832	1	3
436.026	1	-6
437.220	1	11
438.414	1	5
439.608	1	-4
440.802	1	1
441.996	1	1
443.190	1	3
444.384	1	12
445.578	1	-13
446.771	1	-11
447.965	1	1
449.159	1	-10
450.352	1	-1
451.546	1	-2
452.739	1	2
453.933	1	-5
455.126	1	0
456.320	1	2
457.513	1	0
458.706	1	8
459.899	1	6
461.093	1	8
462.286	1	-1
463.479	1	-6
464.672	1	7
465.865	1	10
467.058	1	6
468.251	1	-5
469.444	1	1
470.637	1	2
471.830	1	5
473.023	1	4
474.215	1	8
475.408	1	0
476.601	1	5
477.793	1	0
478.986	1	4
480.179	1	4
481.371	1	-14
482.564	1	11
483.756	1	6
484.948	1	0
486.141	1	7
487.333	1	-9
488.525	1	-7
489.718	1	-8
490.910	1	3
492.102	1	-1
493.294	1	-7
494.486	1	-1
495.678	1	4
496.870	1	3
498.062	1	1
499.254	1	-12
500.446	1	-4
501.638	1	-1
502.829	1	-9
504.021	1	-1
505.213	1	-2
506.404	1	6
507.596	1	9
508.788	1	2
509.979	1	-3
511.171	1	11
512.362	1	6
513.553	1	5
514.745	1	0
515.936	1	-2
517.127	1	15
518.319	1	6
519.510	1	-1
520.701	1	14
521.892	1	-7
523.083	1	2
524.274	1	-8
525.465	1	3
526.656	1	0
527.847	1	-7
529.038	1	2
530.229	1	0
531.419	1	4
532.610	1	-1
533.801	1	4
534.991	1	-6
536.182	1	-3
537.373	1	2
538.563	1	0
539.754	1	4
540.944	1	5
542.134	1	3
543.325	1	15
544.515	1	9
545.705	1	3
546.896	1	5
548.086	1	3
549.276	1	2
550.466	1	1
551.656	1	-1
552.846	1	-1
554.036	1	12
555.226	1	2
556.416	1	-4
557.606	1	-10
558.796	1	11
559.986	1	9
561.175	1	5
562.365	1	6
563.555	1	5
564.744	1	6
565.934	1	17
567.123	1	-5
568.313	1	-1
569.502	1	-1
570.692	1	2
571.881	1	-2
573.070	1	-1
574.260	1	5
575.449	1	-9
576.638	1	3
577.827	1	-1
579.016	1	7
580.205	1	3
581.394	1	4
582.583	1	5
583.772	1	0
584.961	1	-8
586.150	1	2
587.339	1	4
588.528	1	12
589.717	1	1
590.905	1	6
592.094	1	10
593.283	1	2
594.471	1	-7
595.660	1	8
596.848	1	1
598.037	1	-7
599.225	1	-1
600.413	1	4
601.602	1	9
602.790	1	1
603.978	1	1
605.166	1	-9
606.355	1	-5
607.543	1	0
608.731	1	-12
609.919	1	-8
611.107	1	10
612.295	1	0
613.483	1	2
614.671	1	-3
615.858	1	-10
617.046	1	-2
618.234	1	-11
619.422	1	9
620.609	1	-13
621.797	1	4
622.985	1	3
624.172	1	6
625.360	1	0
626.547	1	-1
627.735	1	1
628.922	1	6
630.109	1	-2
631.297	1	3
632.484	1	12
633.671	1	-1
634.858	1	3
636.045	1	0
637.232	1	7
638.419	1	10
639.606	1	1
640.793	1	4
641.980	1	14
643.167	1	0
644.354	1	8
645.541	1	5
646.728	1	-3
647.914	1	16
649.101	1	1
650.288	1	7
651.474	1	0
652.661	1	4
653.847	1	8
655.034	1	-7
656.220	1	3
657.406	1	-6
658.593	1	7
659.779	1	6
660.965	1	1
662.152	1	4
663.338	1	-5
664.524	1	7
665.710	1	2
666.896	1	4
668.082	1	0
669.268	1	6
670.454	1	4
671.640	1	-2
672.826	1	6
674.011	1	7
675.197	1	13
676.383	1	2
677.569	1	13
678.754	1	9
679.940	1	-11
681.125	1	-1
682.311	1	11
683.496	1	-7
684.682	1	9
685.867	1	1
687.053	1	16
688.238	1	8
688.746	1	4