File: Data/GaN_150K_450ms/GaN_sample D_spot15_UVVIS_150 K_200um_450 ms 2x2mm1_104.txt
340.368	1	5
341.565	1	21
342.763	1	11
343.960	1	5
345.157	1	13
346.354	1	0
347.552	1	20
348.749	1	13
349.946	1	12
351.143	1	18
352.340	1	10
353.537	1	4
354.734	1	12
355.931	1	20
357.127	1	15
358.324	1	14
359.521	1	27
360.718	1	15
361.914	1	27
363.111	1	31
364.308	1	56
365.504	1	66
366.701	1	81
367.897	1	74
369.093	1	97
370.290	1	81
371.486	1	75
372.682	1	61
373.879	1	48
375.075	1	32
376.271	1	49
377.467	1	41
378.663	1	26
379.859	1	20
381.055	1	19
382.251	1	14
383.447	1	20
384.643	1	11
385.839	1	19
387.035	1	12
388.230	1	15
389.426	1	13
390.622	1	10
391.817	1	2
393.013	1	20
394.208	1	18
395.404	1	9
396.599	1	11
397.795	1	11
398.990	1	19
400.186	1	8
401.381	1	12
402.576	1	18
403.771	1	-4
404.967	1	16
406.162	1	10
407.357	1	23
408.552	1	-4
409.747	1	8
410.942	1	20
412.137	1	15
413.332	1	13
414.526	1	11
415.721	1	16
416.916	1	10
418.111	1	25
419.305	1	24
420.500	1	15
421.695	1	24
422.889	1	22
424.084	1	17
425.278	1	12
426.472	1	15
427.667	1	9
428.861	1	19
430.055	1	17
431.250	1	12
432.444	1	17
433.638	1	23
434.832	1	8
436.026	1	4
437.220	1	16
438.414	1	14
439.608	1	10
440.802	1	6
441.996	1	9
443.190	1	7
444.384	1	19
445.578	1	-4
446.771	1	6
447.965	1	13
449.159	1	-4
450.352	1	9
451.546	1	6
452.739	1	13
453.933	1	-6
455.126	1	8
456.320	1	14
457.513	1	7
458.706	1	18
459.899	1	6
461.093	1	12
462.286	1	5
463.479	1	4
464.672	1	7
465.865	1	7
467.058	1	10
468.251	1	-4
469.444	1	12
470.637	1	7
471.830	1	5
473.023	1	9
474.215	1	15
475.408	1	12
476.601	1	5
477.793	1	9
478.986	1	8
480.179	1	13
481.371	1	-3
482.564	1	14
483.756	1	5
484.948	1	20
486.141	1	16
487.333	1	0
488.525	1	0
489.718	1	5
490.910	1	17
492.102	1	14
493.294	1	7
494.486	1	9
495.678	1	1
496.870	1	17
498.062	1	4
499.254	1	10
500.446	1	7
501.638	1	19
502.829	1	16
504.021	1	25
505.213	1	9
506.404	1	22
507.596	1	24
508.788	1	27
509.979	1	10
511.171	1	23
512.362	1	22
513.553	1	22
514.745	1	16
515.936	1	25
517.127	1	26
518.319	1	20
519.510	1	14
520.701	1	20
521.892	1	20
523.083	1	23
524.274	1	23
525.465	1	26
526.656	1	30
527.847	1	12
529.038	1	36
530.229	1	33
531.419	1	37
532.610	1	34
533.801	1	19
534.991	1	16
536.182	1	11
537.373	1	24
538.563	1	18
539.754	1	13
540.944	1	15
542.134	1	19
543.325	1	21
544.515	1	19
545.705	1	21
546.896	1	23
548.086	1	25
549.276	1	25
550.466	1	14
551.656	1	11
552.846	1	27
554.036	1	20
555.226	1	14
556.416	1	28
557.606	1	9
558.796	1	25
559.986	1	8
561.175	1	19
562.365	1	13
563.555	1	22
564.744	1	20
565.934	1	27
567.123	1	12
568.313	1	14
569.502	1	20
570.692	1	12
571.881	1	10
573.070	1	11
574.260	1	7
575.449	1	10
576.638	1	22
577.827	1	1
579.016	1	11
580.205	1	7
581.394	1	8
582.583	1	13
583.772	1	11
584.961	1	4
586.150	1	9
587.339	1	9
588.528	1	6
589.717	1	11
590.905	1	5
592.094	1	16
593.283	1	7
594.471	1	4
595.660	1	11
596.848	1	10
598.037	1	4
599.225	1	1
600.413	1	6
601.602	1	9
602.790	1	14
603.978	1	5
605.166	1	4
606.355	1	-11
607.543	1	14
608.731	1	-4
609.919	1	-3
611.107	1	16
612.295	1	6
613.483	1	6
614.671	1	3
615.858	1	0
617.046	1	0
618.234	1	6
619.422	1	15
620.609	1	3
621.797	1	8
622.985	1	4
624.172	1	1
625.360	1	4
626.547	1	5
627.735	1	11
628.922	1	7
630.109	1	-8
631.297	1	1
632.484	1	7
633.671	1	18
634.858	1	4
636.045	1	6
637.232	1	12
638.419	1	0
639.606	1	15
640.793	1	1
641.980	1	3
643.167	1	10
644.354	1	9
645.541	1	3
646.728	1	4
647.914	1	7
649.101	1	3
650.288	1	5
651.474	1	14
652.661	1	13
653.847	1	4
655.034	1	2
656.220	1	3
657.406	1	8
658.593	1	11
659.779	1	2
660.965	1	6
662.152	1	1
663.338	1	-4
664.524	1	13
665.710	1	8
666.896	1	10
668.082	1	9
669.268	1	-4
670.454	1	4
671.640	1	9
672.826	1	9
674.011	1	9
675.197	1	3
676.383	1	-1
677.569	1	17
678.754	1	8
679.940	1	-2
681.125	1	9
682.311	1	10
683.496	1	4
684.682	1	11
685.867	1	2
687.053	1	18
688.238	1	10
688.746	1	7