File: Data/GaN_150K_450ms/GaN_sample D_spot15_UVVIS_150 K_200um_450 ms 2x2mm1_101.txt
340.368	1	9
341.565	1	-1
342.763	1	-3
343.960	1	11
345.157	1	15
346.354	1	2
347.552	1	13
348.749	1	25
349.946	1	0
351.143	1	13
352.340	1	16
353.537	1	0
354.734	1	12
355.931	1	13
357.127	1	22
358.324	1	8
359.521	1	33
360.718	1	18
361.914	1	30
363.111	1	38
364.308	1	58
365.504	1	61
366.701	1	72
367.897	1	87
369.093	1	88
370.290	1	87
371.486	1	63
372.682	1	58
373.879	1	49
375.075	1	31
376.271	1	38
377.467	1	48
378.663	1	28
379.859	1	16
381.055	1	25
382.251	1	14
383.447	1	27
384.643	1	16
385.839	1	17
387.035	1	19
388.230	1	14
389.426	1	2
390.622	1	1
391.817	1	10
393.013	1	21
394.208	1	6
395.404	1	13
396.599	1	11
397.795	1	0
398.990	1	24
400.186	1	16
401.381	1	2
402.576	1	13
403.771	1	6
404.967	1	12
406.162	1	7
407.357	1	15
408.552	1	1
409.747	1	14
410.942	1	24
412.137	1	11
413.332	1	14
414.526	1	11
415.721	1	11
416.916	1	10
418.111	1	16
419.305	1	19
420.500	1	12
421.695	1	16
422.889	1	14
424.084	1	14
425.278	1	12
426.472	1	17
427.667	1	5
428.861	1	15
430.055	1	15
431.250	1	11
432.444	1	19
433.638	1	14
434.832	1	10
436.026	1	12
437.220	1	11
438.414	1	14
439.608	1	3
440.802	1	12
441.996	1	8
443.190	1	13
444.384	1	12
445.578	1	2
446.771	1	9
447.965	1	12
449.159	1	7
450.352	1	-3
451.546	1	7
452.739	1	16
453.933	1	5
455.126	1	4
456.320	1	18
457.513	1	8
458.706	1	9
459.899	1	2
461.093	1	11
462.286	1	1
463.479	1	14
464.672	1	11
465.865	1	-1
467.058	1	9
468.251	1	0
469.444	1	7
470.637	1	10
471.830	1	6
473.023	1	9
474.215	1	12
475.408	1	11
476.601	1	-1
477.793	1	9
478.986	1	16
480.179	1	7
481.371	1	-3
482.564	1	8
483.756	1	8
484.948	1	6
486.141	1	12
487.333	1	5
488.525	1	1
489.718	1	3
490.910	1	16
492.102	1	13
493.294	1	2
494.486	1	5
495.678	1	7
496.870	1	15
498.062	1	14
499.254	1	-4
500.446	1	7
501.638	1	13
502.829	1	5
504.021	1	16
505.213	1	9
506.404	1	11
507.596	1	20
508.788	1	15
509.979	1	15
511.171	1	17
512.362	1	11
513.553	1	19
514.745	1	9
515.936	1	15
517.127	1	30
518.319	1	25
519.510	1	19
520.701	1	6
521.892	1	27
523.083	1	25
524.274	1	23
525.465	1	34
526.656	1	19
527.847	1	6
529.038	1	29
530.229	1	32
531.419	1	21
532.610	1	39
533.801	1	17
534.991	1	26
536.182	1	14
537.373	1	16
538.563	1	14
539.754	1	11
540.944	1	18
542.134	1	15
543.325	1	20
544.515	1	19
545.705	1	20
546.896	1	19
548.086	1	25
549.276	1	15
550.466	1	14
551.656	1	14
552.846	1	22
554.036	1	23
555.226	1	23
556.416	1	17
557.606	1	9
558.796	1	17
559.986	1	24
561.175	1	9
562.365	1	12
563.555	1	16
564.744	1	23
565.934	1	23
567.123	1	20
568.313	1	7
569.502	1	18
570.692	1	18
571.881	1	7
573.070	1	18
574.260	1	7
575.449	1	4
576.638	1	12
577.827	1	9
579.016	1	9
580.205	1	4
581.394	1	7
582.583	1	8
583.772	1	17
584.961	1	7
586.150	1	14
587.339	1	16
588.528	1	4
589.717	1	8
590.905	1	8
592.094	1	10
593.283	1	10
594.471	1	7
595.660	1	3
596.848	1	16
598.037	1	10
599.225	1	5
600.413	1	3
601.602	1	10
602.790	1	12
603.978	1	8
605.166	1	9
606.355	1	-11
607.543	1	4
608.731	1	2
609.919	1	4
611.107	1	16
612.295	1	11
613.483	1	4
614.671	1	14
615.858	1	-3
617.046	1	9
618.234	1	4
619.422	1	16
620.609	1	0
621.797	1	8
622.985	1	-2
624.172	1	10
625.360	1	2
626.547	1	-2
627.735	1	7
628.922	1	6
630.109	1	1
631.297	1	12
632.484	1	5
633.671	1	8
634.858	1	6
636.045	1	-1
637.232	1	5
638.419	1	0
639.606	1	8
640.793	1	9
641.980	1	14
643.167	1	9
644.354	1	5
645.541	1	3
646.728	1	12
647.914	1	8
649.101	1	8
650.288	1	3
651.474	1	7
652.661	1	15
653.847	1	10
655.034	1	13
656.220	1	8
657.406	1	4
658.593	1	12
659.779	1	7
660.965	1	5
662.152	1	6
663.338	1	-5
664.524	1	8
665.710	1	4
666.896	1	8
668.082	1	7
669.268	1	2
670.454	1	3
671.640	1	6
672.826	1	9
674.011	1	12
675.197	1	10
676.383	1	4
677.569	1	14
678.754	1	12
679.940	1	2
681.125	1	11
682.311	1	9
683.496	1	7
684.682	1	8
685.867	1	5
687.053	1	21
688.238	1	11
688.746	1	2