File: Data/GaN_150K_450ms/GaN_sample D_spot15_UVVIS_150 K_200um_450 ms 2x2mm1_144.txt
340.368	1	1
341.565	1	0
342.763	1	2
343.960	1	7
345.157	1	9
346.354	1	-4
347.552	1	11
348.749	1	12
349.946	1	-2
351.143	1	4
352.340	1	6
353.537	1	-1
354.734	1	11
355.931	1	11
357.127	1	22
358.324	1	9
359.521	1	16
360.718	1	10
361.914	1	13
363.111	1	9
364.308	1	28
365.504	1	27
366.701	1	44
367.897	1	48
369.093	1	43
370.290	1	49
371.486	1	33
372.682	1	41
373.879	1	20
375.075	1	18
376.271	1	14
377.467	1	16
378.663	1	20
379.859	1	15
381.055	1	16
382.251	1	-7
383.447	1	8
384.643	1	9
385.839	1	11
387.035	1	13
388.230	1	5
389.426	1	4
390.622	1	-8
391.817	1	-3
393.013	1	14
394.208	1	9
395.404	1	18
396.599	1	8
397.795	1	0
398.990	1	20
400.186	1	4
401.381	1	8
402.576	1	14
403.771	1	-2
404.967	1	4
406.162	1	0
407.357	1	14
408.552	1	-1
409.747	1	3
410.942	1	25
412.137	1	8
413.332	1	6
414.526	1	8
415.721	1	13
416.916	1	-5
418.111	1	14
419.305	1	8
420.500	1	5
421.695	1	13
422.889	1	-1
424.084	1	9
425.278	1	5
426.472	1	15
427.667	1	7
428.861	1	15
430.055	1	18
431.250	1	11
432.444	1	11
433.638	1	18
434.832	1	11
436.026	1	1
437.220	1	7
438.414	1	8
439.608	1	1
440.802	1	7
441.996	1	8
443.190	1	14
444.384	1	12
445.578	1	6
446.771	1	15
447.965	1	7
449.159	1	-3
450.352	1	0
451.546	1	5
452.739	1	6
453.933	1	2
455.126	1	5
456.320	1	8
457.513	1	-1
458.706	1	18
459.899	1	5
461.093	1	5
462.286	1	1
463.479	1	13
464.672	1	5
465.865	1	7
467.058	1	6
468.251	1	-4
469.444	1	4
470.637	1	8
471.830	1	8
473.023	1	4
474.215	1	11
475.408	1	1
476.601	1	1
477.793	1	5
478.986	1	9
480.179	1	4
481.371	1	-7
482.564	1	6
483.756	1	15
484.948	1	2
486.141	1	5
487.333	1	-1
488.525	1	-4
489.718	1	1
490.910	1	19
492.102	1	5
493.294	1	-5
494.486	1	6
495.678	1	8
496.870	1	7
498.062	1	12
499.254	1	2
500.446	1	1
501.638	1	10
502.829	1	8
504.021	1	9
505.213	1	5
506.404	1	7
507.596	1	17
508.788	1	5
509.979	1	5
511.171	1	12
512.362	1	15
513.553	1	16
514.745	1	-3
515.936	1	6
517.127	1	21
518.319	1	10
519.510	1	-2
520.701	1	13
521.892	1	20
523.083	1	1
524.274	1	15
525.465	1	27
526.656	1	11
527.847	1	6
529.038	1	0
530.229	1	9
531.419	1	19
532.610	1	24
533.801	1	12
534.991	1	5
536.182	1	10
537.373	1	6
538.563	1	16
539.754	1	11
540.944	1	9
542.134	1	12
543.325	1	10
544.515	1	18
545.705	1	13
546.896	1	10
548.086	1	12
549.276	1	17
550.466	1	4
551.656	1	1
552.846	1	-1
554.036	1	25
555.226	1	13
556.416	1	9
557.606	1	4
558.796	1	11
559.986	1	14
561.175	1	11
562.365	1	12
563.555	1	10
564.744	1	16
565.934	1	18
567.123	1	13
568.313	1	7
569.502	1	4
570.692	1	15
571.881	1	6
573.070	1	3
574.260	1	9
575.449	1	5
576.638	1	13
577.827	1	0
579.016	1	17
580.205	1	14
581.394	1	-1
582.583	1	7
583.772	1	7
584.961	1	-9
586.150	1	4
587.339	1	7
588.528	1	4
589.717	1	2
590.905	1	5
592.094	1	3
593.283	1	0
594.471	1	0
595.660	1	16
596.848	1	7
598.037	1	5
599.225	1	-1
600.413	1	7
601.602	1	-1
602.790	1	3
603.978	1	-1
605.166	1	5
606.355	1	3
607.543	1	11
608.731	1	3
609.919	1	-4
611.107	1	8
612.295	1	11
613.483	1	6
614.671	1	5
615.858	1	-14
617.046	1	4
618.234	1	-6
619.422	1	18
620.609	1	3
621.797	1	8
622.985	1	3
624.172	1	4
625.360	1	-2
626.547	1	1
627.735	1	5
628.922	1	14
630.109	1	-5
631.297	1	4
632.484	1	5
633.671	1	9
634.858	1	7
636.045	1	-4
637.232	1	13
638.419	1	1
639.606	1	15
640.793	1	15
641.980	1	9
643.167	1	3
644.354	1	13
645.541	1	3
646.728	1	14
647.914	1	-5
649.101	1	0
650.288	1	9
651.474	1	16
652.661	1	10
653.847	1	8
655.034	1	-3
656.220	1	6
657.406	1	-1
658.593	1	8
659.779	1	6
660.965	1	-1
662.152	1	2
663.338	1	-2
664.524	1	13
665.710	1	6
666.896	1	1
668.082	1	7
669.268	1	-6
670.454	1	10
671.640	1	11
672.826	1	3
674.011	1	9
675.197	1	3
676.383	1	3
677.569	1	11
678.754	1	4
679.940	1	5
681.125	1	-5
682.311	1	10
683.496	1	0
684.682	1	7
685.867	1	-2
687.053	1	9
688.238	1	9
688.746	1	4