File: Data/GaN_150K_450ms/GaN_sample D_spot15_UVVIS_150 K_200um_450 ms 2x2mm1_135.txt
340.368	1	3
341.565	1	3
342.763	1	4
343.960	1	10
345.157	1	8
346.354	1	8
347.552	1	15
348.749	1	10
349.946	1	5
351.143	1	5
352.340	1	14
353.537	1	-1
354.734	1	13
355.931	1	13
357.127	1	11
358.324	1	8
359.521	1	13
360.718	1	18
361.914	1	24
363.111	1	20
364.308	1	27
365.504	1	31
366.701	1	51
367.897	1	46
369.093	1	53
370.290	1	51
371.486	1	39
372.682	1	31
373.879	1	29
375.075	1	17
376.271	1	20
377.467	1	32
378.663	1	15
379.859	1	14
381.055	1	13
382.251	1	3
383.447	1	11
384.643	1	11
385.839	1	4
387.035	1	13
388.230	1	14
389.426	1	2
390.622	1	3
391.817	1	2
393.013	1	16
394.208	1	6
395.404	1	20
396.599	1	9
397.795	1	4
398.990	1	13
400.186	1	11
401.381	1	12
402.576	1	7
403.771	1	-4
404.967	1	7
406.162	1	0
407.357	1	18
408.552	1	1
409.747	1	8
410.942	1	13
412.137	1	14
413.332	1	12
414.526	1	3
415.721	1	8
416.916	1	6
418.111	1	9
419.305	1	10
420.500	1	3
421.695	1	26
422.889	1	12
424.084	1	5
425.278	1	5
426.472	1	27
427.667	1	10
428.861	1	14
430.055	1	14
431.250	1	15
432.444	1	13
433.638	1	19
434.832	1	6
436.026	1	4
437.220	1	11
438.414	1	13
439.608	1	16
440.802	1	14
441.996	1	10
443.190	1	9
444.384	1	11
445.578	1	10
446.771	1	12
447.965	1	3
449.159	1	3
450.352	1	6
451.546	1	6
452.739	1	14
453.933	1	3
455.126	1	12
456.320	1	16
457.513	1	3
458.706	1	13
459.899	1	4
461.093	1	5
462.286	1	2
463.479	1	-2
464.672	1	2
465.865	1	-8
467.058	1	1
468.251	1	-7
469.444	1	0
470.637	1	5
471.830	1	2
473.023	1	13
474.215	1	7
475.408	1	7
476.601	1	6
477.793	1	1
478.986	1	7
480.179	1	8
481.371	1	-8
482.564	1	10
483.756	1	7
484.948	1	7
486.141	1	15
487.333	1	-4
488.525	1	-3
489.718	1	-5
490.910	1	9
492.102	1	3
493.294	1	6
494.486	1	2
495.678	1	6
496.870	1	5
498.062	1	3
499.254	1	3
500.446	1	3
501.638	1	8
502.829	1	9
504.021	1	13
505.213	1	10
506.404	1	13
507.596	1	20
508.788	1	14
509.979	1	17
511.171	1	13
512.362	1	27
513.553	1	11
514.745	1	8
515.936	1	7
517.127	1	19
518.319	1	14
519.510	1	-7
520.701	1	16
521.892	1	18
523.083	1	3
524.274	1	13
525.465	1	20
526.656	1	10
527.847	1	0
529.038	1	22
530.229	1	12
531.419	1	7
532.610	1	21
533.801	1	20
534.991	1	17
536.182	1	16
537.373	1	9
538.563	1	4
539.754	1	13
540.944	1	14
542.134	1	17
543.325	1	17
544.515	1	17
545.705	1	16
546.896	1	8
548.086	1	14
549.276	1	10
550.466	1	13
551.656	1	11
552.846	1	14
554.036	1	12
555.226	1	12
556.416	1	22
557.606	1	-5
558.796	1	16
559.986	1	15
561.175	1	11
562.365	1	10
563.555	1	10
564.744	1	20
565.934	1	16
567.123	1	6
568.313	1	15
569.502	1	16
570.692	1	7
571.881	1	1
573.070	1	2
574.260	1	10
575.449	1	-2
576.638	1	12
577.827	1	11
579.016	1	7
580.205	1	8
581.394	1	8
582.583	1	3
583.772	1	5
584.961	1	-1
586.150	1	10
587.339	1	5
588.528	1	7
589.717	1	14
590.905	1	1
592.094	1	19
593.283	1	10
594.471	1	-3
595.660	1	9
596.848	1	10
598.037	1	5
599.225	1	3
600.413	1	6
601.602	1	10
602.790	1	10
603.978	1	4
605.166	1	11
606.355	1	-7
607.543	1	9
608.731	1	-8
609.919	1	-3
611.107	1	12
612.295	1	13
613.483	1	-2
614.671	1	18
615.858	1	-3
617.046	1	1
618.234	1	5
619.422	1	21
620.609	1	2
621.797	1	9
622.985	1	6
624.172	1	13
625.360	1	6
626.547	1	2
627.735	1	7
628.922	1	17
630.109	1	-3
631.297	1	9
632.484	1	15
633.671	1	5
634.858	1	8
636.045	1	3
637.232	1	7
638.419	1	6
639.606	1	9
640.793	1	2
641.980	1	17
643.167	1	3
644.354	1	13
645.541	1	6
646.728	1	4
647.914	1	9
649.101	1	1
650.288	1	11
651.474	1	3
652.661	1	7
653.847	1	7
655.034	1	7
656.220	1	10
657.406	1	-7
658.593	1	19
659.779	1	10
660.965	1	11
662.152	1	4
663.338	1	3
664.524	1	5
665.710	1	5
666.896	1	12
668.082	1	14
669.268	1	8
670.454	1	12
671.640	1	8
672.826	1	2
674.011	1	6
675.197	1	11
676.383	1	2
677.569	1	11
678.754	1	13
679.940	1	-6
681.125	1	2
682.311	1	8
683.496	1	0
684.682	1	4
685.867	1	-1
687.053	1	21
688.238	1	3
688.746	1	2