File: Data/GaN_150K_450ms/GaN_sample D_spot15_UVVIS_150 K_200um_450 ms 2x2mm1_117.txt
340.368	1	7
341.565	1	5
342.763	1	3
343.960	1	5
345.157	1	12
346.354	1	8
347.552	1	19
348.749	1	17
349.946	1	1
351.143	1	11
352.340	1	15
353.537	1	6
354.734	1	-1
355.931	1	15
357.127	1	12
358.324	1	12
359.521	1	18
360.718	1	14
361.914	1	23
363.111	1	34
364.308	1	44
365.504	1	43
366.701	1	54
367.897	1	58
369.093	1	69
370.290	1	57
371.486	1	59
372.682	1	45
373.879	1	39
375.075	1	29
376.271	1	27
377.467	1	37
378.663	1	26
379.859	1	20
381.055	1	23
382.251	1	6
383.447	1	14
384.643	1	5
385.839	1	14
387.035	1	17
388.230	1	16
389.426	1	0
390.622	1	11
391.817	1	0
393.013	1	16
394.208	1	2
395.404	1	17
396.599	1	13
397.795	1	14
398.990	1	26
400.186	1	10
401.381	1	3
402.576	1	13
403.771	1	6
404.967	1	18
406.162	1	6
407.357	1	11
408.552	1	9
409.747	1	5
410.942	1	14
412.137	1	13
413.332	1	9
414.526	1	9
415.721	1	11
416.916	1	-3
418.111	1	17
419.305	1	16
420.500	1	20
421.695	1	10
422.889	1	6
424.084	1	5
425.278	1	16
426.472	1	19
427.667	1	9
428.861	1	22
430.055	1	15
431.250	1	17
432.444	1	10
433.638	1	11
434.832	1	8
436.026	1	4
437.220	1	5
438.414	1	12
439.608	1	8
440.802	1	15
441.996	1	10
443.190	1	10
444.384	1	22
445.578	1	0
446.771	1	15
447.965	1	6
449.159	1	9
450.352	1	7
451.546	1	5
452.739	1	14
453.933	1	3
455.126	1	14
456.320	1	13
457.513	1	3
458.706	1	19
459.899	1	8
461.093	1	9
462.286	1	1
463.479	1	-1
464.672	1	3
465.865	1	10
467.058	1	7
468.251	1	-1
469.444	1	4
470.637	1	6
471.830	1	8
473.023	1	20
474.215	1	4
475.408	1	6
476.601	1	3
477.793	1	6
478.986	1	1
480.179	1	11
481.371	1	1
482.564	1	16
483.756	1	6
484.948	1	15
486.141	1	8
487.333	1	-7
488.525	1	1
489.718	1	-6
490.910	1	19
492.102	1	6
493.294	1	-1
494.486	1	13
495.678	1	9
496.870	1	5
498.062	1	9
499.254	1	7
500.446	1	3
501.638	1	14
502.829	1	8
504.021	1	10
505.213	1	4
506.404	1	19
507.596	1	16
508.788	1	20
509.979	1	4
511.171	1	28
512.362	1	12
513.553	1	19
514.745	1	11
515.936	1	17
517.127	1	25
518.319	1	21
519.510	1	13
520.701	1	24
521.892	1	21
523.083	1	13
524.274	1	12
525.465	1	31
526.656	1	10
527.847	1	19
529.038	1	13
530.229	1	18
531.419	1	22
532.610	1	17
533.801	1	14
534.991	1	17
536.182	1	5
537.373	1	16
538.563	1	22
539.754	1	20
540.944	1	15
542.134	1	16
543.325	1	24
544.515	1	14
545.705	1	18
546.896	1	22
548.086	1	20
549.276	1	19
550.466	1	14
551.656	1	17
552.846	1	17
554.036	1	20
555.226	1	9
556.416	1	25
557.606	1	9
558.796	1	19
559.986	1	9
561.175	1	15
562.365	1	8
563.555	1	16
564.744	1	18
565.934	1	24
567.123	1	11
568.313	1	13
569.502	1	10
570.692	1	12
571.881	1	6
573.070	1	5
574.260	1	15
575.449	1	1
576.638	1	13
577.827	1	7
579.016	1	11
580.205	1	10
581.394	1	7
582.583	1	13
583.772	1	10
584.961	1	9
586.150	1	16
587.339	1	11
588.528	1	-3
589.717	1	12
590.905	1	6
592.094	1	6
593.283	1	14
594.471	1	-5
595.660	1	12
596.848	1	7
598.037	1	11
599.225	1	13
600.413	1	8
601.602	1	3
602.790	1	15
603.978	1	13
605.166	1	6
606.355	1	1
607.543	1	4
608.731	1	-5
609.919	1	-3
611.107	1	8
612.295	1	12
613.483	1	-2
614.671	1	15
615.858	1	1
617.046	1	-4
618.234	1	-4
619.422	1	21
620.609	1	2
621.797	1	8
622.985	1	5
624.172	1	13
625.360	1	-1
626.547	1	4
627.735	1	8
628.922	1	-5
630.109	1	1
631.297	1	16
632.484	1	12
633.671	1	16
634.858	1	19
636.045	1	3
637.232	1	2
638.419	1	1
639.606	1	16
640.793	1	10
641.980	1	3
643.167	1	10
644.354	1	13
645.541	1	2
646.728	1	17
647.914	1	2
649.101	1	3
650.288	1	0
651.474	1	10
652.661	1	7
653.847	1	2
655.034	1	1
656.220	1	2
657.406	1	1
658.593	1	10
659.779	1	9
660.965	1	0
662.152	1	6
663.338	1	3
664.524	1	8
665.710	1	3
666.896	1	1
668.082	1	5
669.268	1	0
670.454	1	12
671.640	1	14
672.826	1	2
674.011	1	4
675.197	1	6
676.383	1	3
677.569	1	9
678.754	1	4
679.940	1	4
681.125	1	3
682.311	1	9
683.496	1	-1
684.682	1	11
685.867	1	0
687.053	1	22
688.238	1	12
688.746	1	-1