File: Data/GaN_150K_450ms/GaN_sample D_spot15_UVVIS_150 K_200um_450 ms 2x2mm1_239.txt
340.368	1	5
341.565	1	1
342.763	1	-5
343.960	1	3
345.157	1	13
346.354	1	11
347.552	1	20
348.749	1	9
349.946	1	-7
351.143	1	10
352.340	1	7
353.537	1	5
354.734	1	11
355.931	1	8
357.127	1	8
358.324	1	11
359.521	1	14
360.718	1	-1
361.914	1	8
363.111	1	3
364.308	1	6
365.504	1	10
366.701	1	10
367.897	1	14
369.093	1	24
370.290	1	22
371.486	1	21
372.682	1	11
373.879	1	14
375.075	1	0
376.271	1	-1
377.467	1	16
378.663	1	13
379.859	1	2
381.055	1	-2
382.251	1	-1
383.447	1	4
384.643	1	4
385.839	1	3
387.035	1	7
388.230	1	4
389.426	1	-4
390.622	1	-7
391.817	1	-7
393.013	1	9
394.208	1	-4
395.404	1	1
396.599	1	2
397.795	1	-1
398.990	1	9
400.186	1	0
401.381	1	1
402.576	1	9
403.771	1	-3
404.967	1	2
406.162	1	-3
407.357	1	14
408.552	1	-7
409.747	1	8
410.942	1	10
412.137	1	-2
413.332	1	3
414.526	1	1
415.721	1	8
416.916	1	8
418.111	1	7
419.305	1	2
420.500	1	11
421.695	1	8
422.889	1	1
424.084	1	3
425.278	1	2
426.472	1	15
427.667	1	6
428.861	1	4
430.055	1	4
431.250	1	6
432.444	1	3
433.638	1	8
434.832	1	-1
436.026	1	-1
437.220	1	6
438.414	1	4
439.608	1	-4
440.802	1	6
441.996	1	5
443.190	1	2
444.384	1	6
445.578	1	-2
446.771	1	6
447.965	1	1
449.159	1	-7
450.352	1	5
451.546	1	-4
452.739	1	8
453.933	1	-3
455.126	1	1
456.320	1	2
457.513	1	-3
458.706	1	8
459.899	1	3
461.093	1	1
462.286	1	-1
463.479	1	-6
464.672	1	3
465.865	1	9
467.058	1	-1
468.251	1	-4
469.444	1	6
470.637	1	0
471.830	1	6
473.023	1	4
474.215	1	-1
475.408	1	12
476.601	1	2
477.793	1	1
478.986	1	2
480.179	1	6
481.371	1	-10
482.564	1	4
483.756	1	2
484.948	1	10
486.141	1	3
487.333	1	-9
488.525	1	3
489.718	1	-8
490.910	1	3
492.102	1	11
493.294	1	-7
494.486	1	5
495.678	1	0
496.870	1	10
498.062	1	-3
499.254	1	-5
500.446	1	-3
501.638	1	9
502.829	1	-1
504.021	1	1
505.213	1	-2
506.404	1	2
507.596	1	13
508.788	1	5
509.979	1	-7
511.171	1	5
512.362	1	5
513.553	1	5
514.745	1	2
515.936	1	4
517.127	1	11
518.319	1	-3
519.510	1	2
520.701	1	6
521.892	1	8
523.083	1	5
524.274	1	2
525.465	1	14
526.656	1	12
527.847	1	-3
529.038	1	10
530.229	1	8
531.419	1	8
532.610	1	8
533.801	1	6
534.991	1	-2
536.182	1	2
537.373	1	6
538.563	1	-4
539.754	1	0
540.944	1	4
542.134	1	-3
543.325	1	6
544.515	1	9
545.705	1	-1
546.896	1	7
548.086	1	5
549.276	1	11
550.466	1	-8
551.656	1	0
552.846	1	6
554.036	1	6
555.226	1	9
556.416	1	5
557.606	1	-12
558.796	1	-1
559.986	1	3
561.175	1	8
562.365	1	-3
563.555	1	4
564.744	1	8
565.934	1	9
567.123	1	-1
568.313	1	10
569.502	1	5
570.692	1	11
571.881	1	-2
573.070	1	5
574.260	1	9
575.449	1	-8
576.638	1	3
577.827	1	-2
579.016	1	2
580.205	1	0
581.394	1	4
582.583	1	2
583.772	1	6
584.961	1	-2
586.150	1	9
587.339	1	5
588.528	1	-11
589.717	1	-1
590.905	1	4
592.094	1	9
593.283	1	6
594.471	1	-11
595.660	1	7
596.848	1	1
598.037	1	8
599.225	1	4
600.413	1	-1
601.602	1	2
602.790	1	3
603.978	1	0
605.166	1	1
606.355	1	-5
607.543	1	-2
608.731	1	-11
609.919	1	-6
611.107	1	10
612.295	1	-5
613.483	1	5
614.671	1	7
615.858	1	-5
617.046	1	-3
618.234	1	-4
619.422	1	13
620.609	1	2
621.797	1	-2
622.985	1	1
624.172	1	7
625.360	1	-7
626.547	1	-4
627.735	1	-7
628.922	1	8
630.109	1	4
631.297	1	-2
632.484	1	1
633.671	1	3
634.858	1	4
636.045	1	2
637.232	1	4
638.419	1	-3
639.606	1	8
640.793	1	1
641.980	1	13
643.167	1	3
644.354	1	6
645.541	1	-5
646.728	1	0
647.914	1	0
649.101	1	5
650.288	1	11
651.474	1	7
652.661	1	4
653.847	1	1
655.034	1	5
656.220	1	16
657.406	1	2
658.593	1	2
659.779	1	7
660.965	1	5
662.152	1	-1
663.338	1	-1
664.524	1	11
665.710	1	11
666.896	1	3
668.082	1	7
669.268	1	0
670.454	1	12
671.640	1	6
672.826	1	1
674.011	1	7
675.197	1	-1
676.383	1	0
677.569	1	13
678.754	1	7
679.940	1	-4
681.125	1	0
682.311	1	4
683.496	1	3
684.682	1	14
685.867	1	1
687.053	1	14
688.238	1	7
688.746	1	2