File: Data/GaN_150K_450ms/GaN_sample D_spot15_UVVIS_150 K_200um_450 ms 2x2mm1_126.txt
340.368	1	7
341.565	1	7
342.763	1	10
343.960	1	8
345.157	1	25
346.354	1	7
347.552	1	15
348.749	1	16
349.946	1	3
351.143	1	7
352.340	1	18
353.537	1	2
354.734	1	12
355.931	1	12
357.127	1	16
358.324	1	12
359.521	1	22
360.718	1	13
361.914	1	19
363.111	1	24
364.308	1	42
365.504	1	40
366.701	1	54
367.897	1	53
369.093	1	65
370.290	1	55
371.486	1	50
372.682	1	43
373.879	1	27
375.075	1	31
376.271	1	22
377.467	1	21
378.663	1	10
379.859	1	12
381.055	1	-1
382.251	1	-4
383.447	1	9
384.643	1	8
385.839	1	11
387.035	1	16
388.230	1	8
389.426	1	7
390.622	1	2
391.817	1	1
393.013	1	11
394.208	1	8
395.404	1	6
396.599	1	1
397.795	1	4
398.990	1	17
400.186	1	18
401.381	1	8
402.576	1	18
403.771	1	7
404.967	1	9
406.162	1	4
407.357	1	18
408.552	1	-4
409.747	1	9
410.942	1	15
412.137	1	6
413.332	1	11
414.526	1	1
415.721	1	7
416.916	1	5
418.111	1	20
419.305	1	18
420.500	1	11
421.695	1	0
422.889	1	14
424.084	1	20
425.278	1	8
426.472	1	10
427.667	1	-3
428.861	1	19
430.055	1	14
431.250	1	13
432.444	1	19
433.638	1	18
434.832	1	13
436.026	1	9
437.220	1	12
438.414	1	8
439.608	1	1
440.802	1	8
441.996	1	7
443.190	1	7
444.384	1	11
445.578	1	0
446.771	1	15
447.965	1	3
449.159	1	0
450.352	1	6
451.546	1	7
452.739	1	13
453.933	1	-1
455.126	1	11
456.320	1	19
457.513	1	11
458.706	1	10
459.899	1	3
461.093	1	10
462.286	1	3
463.479	1	9
464.672	1	11
465.865	1	9
467.058	1	10
468.251	1	-5
469.444	1	9
470.637	1	15
471.830	1	4
473.023	1	14
474.215	1	8
475.408	1	3
476.601	1	11
477.793	1	-1
478.986	1	8
480.179	1	8
481.371	1	5
482.564	1	2
483.756	1	17
484.948	1	11
486.141	1	13
487.333	1	-6
488.525	1	3
489.718	1	1
490.910	1	8
492.102	1	7
493.294	1	2
494.486	1	-2
495.678	1	11
496.870	1	5
498.062	1	0
499.254	1	2
500.446	1	3
501.638	1	11
502.829	1	4
504.021	1	13
505.213	1	3
506.404	1	3
507.596	1	19
508.788	1	13
509.979	1	0
511.171	1	10
512.362	1	20
513.553	1	9
514.745	1	13
515.936	1	1
517.127	1	24
518.319	1	17
519.510	1	10
520.701	1	14
521.892	1	19
523.083	1	10
524.274	1	15
525.465	1	22
526.656	1	15
527.847	1	8
529.038	1	25
530.229	1	12
531.419	1	14
532.610	1	19
533.801	1	20
534.991	1	19
536.182	1	13
537.373	1	17
538.563	1	12
539.754	1	9
540.944	1	20
542.134	1	13
543.325	1	12
544.515	1	13
545.705	1	13
546.896	1	11
548.086	1	16
549.276	1	14
550.466	1	16
551.656	1	16
552.846	1	21
554.036	1	13
555.226	1	8
556.416	1	23
557.606	1	-2
558.796	1	21
559.986	1	14
561.175	1	5
562.365	1	9
563.555	1	14
564.744	1	12
565.934	1	20
567.123	1	4
568.313	1	13
569.502	1	9
570.692	1	16
571.881	1	5
573.070	1	9
574.260	1	17
575.449	1	10
576.638	1	13
577.827	1	8
579.016	1	3
580.205	1	8
581.394	1	4
582.583	1	8
583.772	1	12
584.961	1	0
586.150	1	6
587.339	1	1
588.528	1	0
589.717	1	6
590.905	1	7
592.094	1	10
593.283	1	11
594.471	1	-2
595.660	1	8
596.848	1	13
598.037	1	-1
599.225	1	1
600.413	1	7
601.602	1	9
602.790	1	8
603.978	1	2
605.166	1	2
606.355	1	-5
607.543	1	11
608.731	1	-3
609.919	1	-5
611.107	1	12
612.295	1	15
613.483	1	7
614.671	1	12
615.858	1	-8
617.046	1	9
618.234	1	1
619.422	1	8
620.609	1	2
621.797	1	12
622.985	1	6
624.172	1	10
625.360	1	7
626.547	1	-4
627.735	1	6
628.922	1	9
630.109	1	-4
631.297	1	-1
632.484	1	10
633.671	1	15
634.858	1	7
636.045	1	1
637.232	1	11
638.419	1	6
639.606	1	8
640.793	1	8
641.980	1	9
643.167	1	4
644.354	1	13
645.541	1	8
646.728	1	4
647.914	1	9
649.101	1	6
650.288	1	0
651.474	1	13
652.661	1	4
653.847	1	2
655.034	1	3
656.220	1	5
657.406	1	1
658.593	1	14
659.779	1	6
660.965	1	4
662.152	1	-4
663.338	1	-11
664.524	1	12
665.710	1	1
666.896	1	5
668.082	1	6
669.268	1	-3
670.454	1	7
671.640	1	4
672.826	1	-1
674.011	1	7
675.197	1	4
676.383	1	1
677.569	1	15
678.754	1	-6
679.940	1	-5
681.125	1	1
682.311	1	9
683.496	1	-7
684.682	1	13
685.867	1	-2
687.053	1	22
688.238	1	16
688.746	1	5