File: Data/GaN_150K_450ms/GaN_sample D_spot15_UVVIS_150 K_200um_450 ms 2x2mm1_56.txt
340.368	1	-2
341.565	1	-2
342.763	1	5
343.960	1	9
345.157	1	11
346.354	1	7
347.552	1	21
348.749	1	10
349.946	1	10
351.143	1	11
352.340	1	29
353.537	1	13
354.734	1	19
355.931	1	21
357.127	1	38
358.324	1	41
359.521	1	54
360.718	1	76
361.914	1	118
363.111	1	164
364.308	1	267
365.504	1	411
366.701	1	567
367.897	1	674
369.093	1	666
370.290	1	528
371.486	1	430
372.682	1	318
373.879	1	279
375.075	1	218
376.271	1	183
377.467	1	143
378.663	1	123
379.859	1	99
381.055	1	93
382.251	1	82
383.447	1	88
384.643	1	76
385.839	1	77
387.035	1	77
388.230	1	58
389.426	1	54
390.622	1	67
391.817	1	47
393.013	1	46
394.208	1	45
395.404	1	50
396.599	1	52
397.795	1	46
398.990	1	53
400.186	1	38
401.381	1	42
402.576	1	36
403.771	1	27
404.967	1	38
406.162	1	25
407.357	1	36
408.552	1	27
409.747	1	28
410.942	1	46
412.137	1	33
413.332	1	30
414.526	1	25
415.721	1	30
416.916	1	26
418.111	1	36
419.305	1	31
420.500	1	18
421.695	1	32
422.889	1	20
424.084	1	16
425.278	1	20
426.472	1	34
427.667	1	18
428.861	1	34
430.055	1	25
431.250	1	34
432.444	1	14
433.638	1	14
434.832	1	21
436.026	1	12
437.220	1	18
438.414	1	26
439.608	1	13
440.802	1	19
441.996	1	13
443.190	1	18
444.384	1	22
445.578	1	7
446.771	1	21
447.965	1	18
449.159	1	8
450.352	1	18
451.546	1	13
452.739	1	13
453.933	1	3
455.126	1	9
456.320	1	22
457.513	1	14
458.706	1	22
459.899	1	9
461.093	1	21
462.286	1	23
463.479	1	14
464.672	1	17
465.865	1	15
467.058	1	17
468.251	1	14
469.444	1	20
470.637	1	21
471.830	1	11
473.023	1	13
474.215	1	17
475.408	1	25
476.601	1	14
477.793	1	21
478.986	1	27
480.179	1	21
481.371	1	17
482.564	1	28
483.756	1	27
484.948	1	38
486.141	1	32
487.333	1	28
488.525	1	40
489.718	1	32
490.910	1	48
492.102	1	57
493.294	1	43
494.486	1	56
495.678	1	50
496.870	1	55
498.062	1	60
499.254	1	58
500.446	1	68
501.638	1	75
502.829	1	66
504.021	1	83
505.213	1	75
506.404	1	90
507.596	1	99
508.788	1	98
509.979	1	99
511.171	1	107
512.362	1	109
513.553	1	113
514.745	1	118
515.936	1	114
517.127	1	112
518.319	1	119
519.510	1	119
520.701	1	137
521.892	1	129
523.083	1	121
524.274	1	134
525.465	1	131
526.656	1	143
527.847	1	126
529.038	1	144
530.229	1	148
531.419	1	145
532.610	1	135
533.801	1	144
534.991	1	138
536.182	1	130
537.373	1	129
538.563	1	108
539.754	1	126
540.944	1	126
542.134	1	131
543.325	1	131
544.515	1	127
545.705	1	128
546.896	1	113
548.086	1	115
549.276	1	115
550.466	1	123
551.656	1	126
552.846	1	109
554.036	1	104
555.226	1	113
556.416	1	103
557.606	1	92
558.796	1	106
559.986	1	87
561.175	1	83
562.365	1	93
563.555	1	89
564.744	1	93
565.934	1	93
567.123	1	73
568.313	1	80
569.502	1	82
570.692	1	80
571.881	1	77
573.070	1	75
574.260	1	71
575.449	1	63
576.638	1	72
577.827	1	65
579.016	1	66
580.205	1	69
581.394	1	61
582.583	1	67
583.772	1	61
584.961	1	50
586.150	1	67
587.339	1	57
588.528	1	45
589.717	1	47
590.905	1	51
592.094	1	48
593.283	1	45
594.471	1	36
595.660	1	38
596.848	1	44
598.037	1	30
599.225	1	44
600.413	1	48
601.602	1	42
602.790	1	43
603.978	1	40
605.166	1	48
606.355	1	33
607.543	1	47
608.731	1	33
609.919	1	32
611.107	1	43
612.295	1	41
613.483	1	27
614.671	1	33
615.858	1	25
617.046	1	27
618.234	1	27
619.422	1	36
620.609	1	32
621.797	1	33
622.985	1	39
624.172	1	35
625.360	1	32
626.547	1	36
627.735	1	42
628.922	1	38
630.109	1	19
631.297	1	31
632.484	1	33
633.671	1	37
634.858	1	28
636.045	1	20
637.232	1	30
638.419	1	15
639.606	1	30
640.793	1	20
641.980	1	34
643.167	1	21
644.354	1	33
645.541	1	20
646.728	1	21
647.914	1	24
649.101	1	36
650.288	1	19
651.474	1	31
652.661	1	23
653.847	1	25
655.034	1	22
656.220	1	16
657.406	1	17
658.593	1	26
659.779	1	28
660.965	1	23
662.152	1	14
663.338	1	12
664.524	1	25
665.710	1	28
666.896	1	21
668.082	1	22
669.268	1	12
670.454	1	17
671.640	1	25
672.826	1	18
674.011	1	28
675.197	1	21
676.383	1	17
677.569	1	34
678.754	1	19
679.940	1	28
681.125	1	18
682.311	1	24
683.496	1	6
684.682	1	29
685.867	1	13
687.053	1	31
688.238	1	33
688.746	1	14