File: Data/GaN_150K_450ms/GaN_sample D_spot15_UVVIS_150 K_200um_450 ms 2x2mm1_132.txt
340.368	1	-3
341.565	1	1
342.763	1	4
343.960	1	10
345.157	1	8
346.354	1	5
347.552	1	11
348.749	1	5
349.946	1	12
351.143	1	11
352.340	1	12
353.537	1	2
354.734	1	8
355.931	1	13
357.127	1	15
358.324	1	13
359.521	1	22
360.718	1	9
361.914	1	7
363.111	1	19
364.308	1	39
365.504	1	37
366.701	1	38
367.897	1	45
369.093	1	47
370.290	1	56
371.486	1	59
372.682	1	43
373.879	1	20
375.075	1	15
376.271	1	19
377.467	1	33
378.663	1	13
379.859	1	22
381.055	1	1
382.251	1	3
383.447	1	8
384.643	1	0
385.839	1	8
387.035	1	21
388.230	1	7
389.426	1	-4
390.622	1	5
391.817	1	-3
393.013	1	10
394.208	1	0
395.404	1	15
396.599	1	15
397.795	1	9
398.990	1	19
400.186	1	12
401.381	1	14
402.576	1	10
403.771	1	-10
404.967	1	14
406.162	1	10
407.357	1	18
408.552	1	18
409.747	1	12
410.942	1	18
412.137	1	6
413.332	1	8
414.526	1	2
415.721	1	10
416.916	1	7
418.111	1	11
419.305	1	22
420.500	1	11
421.695	1	13
422.889	1	6
424.084	1	9
425.278	1	9
426.472	1	10
427.667	1	10
428.861	1	12
430.055	1	14
431.250	1	8
432.444	1	19
433.638	1	24
434.832	1	6
436.026	1	2
437.220	1	10
438.414	1	9
439.608	1	2
440.802	1	13
441.996	1	8
443.190	1	7
444.384	1	14
445.578	1	10
446.771	1	9
447.965	1	12
449.159	1	-6
450.352	1	0
451.546	1	5
452.739	1	13
453.933	1	3
455.126	1	9
456.320	1	15
457.513	1	-3
458.706	1	11
459.899	1	-4
461.093	1	5
462.286	1	4
463.479	1	5
464.672	1	8
465.865	1	-6
467.058	1	5
468.251	1	4
469.444	1	0
470.637	1	-2
471.830	1	8
473.023	1	11
474.215	1	2
475.408	1	4
476.601	1	2
477.793	1	3
478.986	1	8
480.179	1	10
481.371	1	4
482.564	1	7
483.756	1	6
484.948	1	12
486.141	1	9
487.333	1	7
488.525	1	7
489.718	1	-7
490.910	1	14
492.102	1	1
493.294	1	3
494.486	1	8
495.678	1	8
496.870	1	13
498.062	1	11
499.254	1	5
500.446	1	4
501.638	1	10
502.829	1	9
504.021	1	6
505.213	1	5
506.404	1	15
507.596	1	11
508.788	1	9
509.979	1	10
511.171	1	7
512.362	1	13
513.553	1	7
514.745	1	3
515.936	1	5
517.127	1	12
518.319	1	5
519.510	1	3
520.701	1	20
521.892	1	24
523.083	1	10
524.274	1	10
525.465	1	16
526.656	1	16
527.847	1	10
529.038	1	7
530.229	1	23
531.419	1	9
532.610	1	26
533.801	1	10
534.991	1	9
536.182	1	14
537.373	1	4
538.563	1	12
539.754	1	17
540.944	1	13
542.134	1	11
543.325	1	17
544.515	1	16
545.705	1	11
546.896	1	12
548.086	1	17
549.276	1	15
550.466	1	2
551.656	1	10
552.846	1	14
554.036	1	18
555.226	1	8
556.416	1	15
557.606	1	8
558.796	1	17
559.986	1	14
561.175	1	3
562.365	1	12
563.555	1	11
564.744	1	23
565.934	1	15
567.123	1	11
568.313	1	6
569.502	1	9
570.692	1	6
571.881	1	11
573.070	1	14
574.260	1	14
575.449	1	4
576.638	1	8
577.827	1	10
579.016	1	8
580.205	1	2
581.394	1	2
582.583	1	7
583.772	1	11
584.961	1	1
586.150	1	7
587.339	1	1
588.528	1	11
589.717	1	9
590.905	1	3
592.094	1	12
593.283	1	6
594.471	1	2
595.660	1	6
596.848	1	12
598.037	1	0
599.225	1	4
600.413	1	9
601.602	1	3
602.790	1	2
603.978	1	6
605.166	1	5
606.355	1	-2
607.543	1	8
608.731	1	-4
609.919	1	-3
611.107	1	7
612.295	1	4
613.483	1	0
614.671	1	5
615.858	1	-3
617.046	1	2
618.234	1	-4
619.422	1	13
620.609	1	0
621.797	1	2
622.985	1	0
624.172	1	6
625.360	1	14
626.547	1	0
627.735	1	-2
628.922	1	13
630.109	1	2
631.297	1	11
632.484	1	2
633.671	1	9
634.858	1	1
636.045	1	-7
637.232	1	2
638.419	1	4
639.606	1	13
640.793	1	-3
641.980	1	14
643.167	1	6
644.354	1	12
645.541	1	8
646.728	1	5
647.914	1	-4
649.101	1	-3
650.288	1	5
651.474	1	11
652.661	1	4
653.847	1	14
655.034	1	4
656.220	1	7
657.406	1	-5
658.593	1	5
659.779	1	1
660.965	1	4
662.152	1	7
663.338	1	4
664.524	1	14
665.710	1	9
666.896	1	6
668.082	1	-2
669.268	1	1
670.454	1	5
671.640	1	4
672.826	1	3
674.011	1	8
675.197	1	2
676.383	1	2
677.569	1	11
678.754	1	-1
679.940	1	-3
681.125	1	-1
682.311	1	1
683.496	1	5
684.682	1	6
685.867	1	-3
687.053	1	20
688.238	1	10
688.746	1	2