File: Data/GaN_150K_450ms/GaN_sample D_spot15_UVVIS_150 K_200um_450 ms 2x2mm1_204.txt
340.368	1	3
341.565	1	5
342.763	1	6
343.960	1	7
345.157	1	16
346.354	1	-1
347.552	1	9
348.749	1	19
349.946	1	5
351.143	1	10
352.340	1	12
353.537	1	1
354.734	1	-5
355.931	1	2
357.127	1	6
358.324	1	1
359.521	1	12
360.718	1	-3
361.914	1	5
363.111	1	5
364.308	1	20
365.504	1	11
366.701	1	11
367.897	1	28
369.093	1	26
370.290	1	24
371.486	1	20
372.682	1	16
373.879	1	18
375.075	1	-6
376.271	1	7
377.467	1	13
378.663	1	5
379.859	1	7
381.055	1	6
382.251	1	1
383.447	1	6
384.643	1	4
385.839	1	1
387.035	1	7
388.230	1	5
389.426	1	2
390.622	1	-10
391.817	1	-1
393.013	1	8
394.208	1	1
395.404	1	2
396.599	1	11
397.795	1	1
398.990	1	9
400.186	1	6
401.381	1	5
402.576	1	15
403.771	1	-10
404.967	1	1
406.162	1	5
407.357	1	6
408.552	1	2
409.747	1	2
410.942	1	11
412.137	1	5
413.332	1	4
414.526	1	-3
415.721	1	6
416.916	1	2
418.111	1	4
419.305	1	12
420.500	1	6
421.695	1	14
422.889	1	6
424.084	1	-3
425.278	1	-1
426.472	1	15
427.667	1	-2
428.861	1	14
430.055	1	8
431.250	1	14
432.444	1	7
433.638	1	16
434.832	1	10
436.026	1	1
437.220	1	14
438.414	1	16
439.608	1	-4
440.802	1	6
441.996	1	-1
443.190	1	1
444.384	1	5
445.578	1	-1
446.771	1	9
447.965	1	11
449.159	1	-1
450.352	1	2
451.546	1	2
452.739	1	14
453.933	1	-1
455.126	1	6
456.320	1	15
457.513	1	9
458.706	1	3
459.899	1	1
461.093	1	10
462.286	1	-3
463.479	1	1
464.672	1	8
465.865	1	10
467.058	1	6
468.251	1	-6
469.444	1	7
470.637	1	6
471.830	1	9
473.023	1	5
474.215	1	2
475.408	1	4
476.601	1	4
477.793	1	-1
478.986	1	2
480.179	1	8
481.371	1	1
482.564	1	5
483.756	1	11
484.948	1	-1
486.141	1	3
487.333	1	-2
488.525	1	-5
489.718	1	-8
490.910	1	-2
492.102	1	3
493.294	1	-9
494.486	1	3
495.678	1	5
496.870	1	6
498.062	1	1
499.254	1	-1
500.446	1	-2
501.638	1	14
502.829	1	-3
504.021	1	4
505.213	1	2
506.404	1	2
507.596	1	13
508.788	1	-2
509.979	1	2
511.171	1	0
512.362	1	9
513.553	1	13
514.745	1	3
515.936	1	4
517.127	1	8
518.319	1	2
519.510	1	7
520.701	1	10
521.892	1	11
523.083	1	9
524.274	1	7
525.465	1	12
526.656	1	10
527.847	1	-1
529.038	1	7
530.229	1	14
531.419	1	12
532.610	1	11
533.801	1	5
534.991	1	4
536.182	1	7
537.373	1	9
538.563	1	1
539.754	1	1
540.944	1	10
542.134	1	2
543.325	1	17
544.515	1	9
545.705	1	5
546.896	1	9
548.086	1	16
549.276	1	9
550.466	1	2
551.656	1	1
552.846	1	10
554.036	1	11
555.226	1	-5
556.416	1	6
557.606	1	-12
558.796	1	10
559.986	1	3
561.175	1	9
562.365	1	3
563.555	1	12
564.744	1	9
565.934	1	13
567.123	1	9
568.313	1	0
569.502	1	8
570.692	1	10
571.881	1	3
573.070	1	3
574.260	1	12
575.449	1	6
576.638	1	12
577.827	1	7
579.016	1	5
580.205	1	4
581.394	1	8
582.583	1	5
583.772	1	7
584.961	1	-1
586.150	1	7
587.339	1	6
588.528	1	-11
589.717	1	10
590.905	1	-3
592.094	1	9
593.283	1	6
594.471	1	-5
595.660	1	1
596.848	1	6
598.037	1	-1
599.225	1	-1
600.413	1	7
601.602	1	7
602.790	1	8
603.978	1	7
605.166	1	8
606.355	1	-5
607.543	1	8
608.731	1	-11
609.919	1	-3
611.107	1	9
612.295	1	1
613.483	1	3
614.671	1	3
615.858	1	-9
617.046	1	-2
618.234	1	-2
619.422	1	18
620.609	1	8
621.797	1	9
622.985	1	4
624.172	1	3
625.360	1	1
626.547	1	-4
627.735	1	5
628.922	1	11
630.109	1	-4
631.297	1	14
632.484	1	4
633.671	1	9
634.858	1	7
636.045	1	-1
637.232	1	1
638.419	1	2
639.606	1	5
640.793	1	2
641.980	1	6
643.167	1	5
644.354	1	11
645.541	1	2
646.728	1	6
647.914	1	10
649.101	1	11
650.288	1	5
651.474	1	10
652.661	1	13
653.847	1	0
655.034	1	-1
656.220	1	-4
657.406	1	-3
658.593	1	3
659.779	1	14
660.965	1	0
662.152	1	4
663.338	1	1
664.524	1	9
665.710	1	11
666.896	1	10
668.082	1	6
669.268	1	0
670.454	1	7
671.640	1	16
672.826	1	-4
674.011	1	4
675.197	1	11
676.383	1	7
677.569	1	11
678.754	1	-2
679.940	1	3
681.125	1	1
682.311	1	4
683.496	1	2
684.682	1	8
685.867	1	2
687.053	1	20
688.238	1	8
688.746	1	6