File: Data/GaN_150K_450ms/GaN_sample D_spot15_UVVIS_150 K_200um_450 ms 2x2mm1_137.txt
340.368	1	2
341.565	1	5
342.763	1	-2
343.960	1	4
345.157	1	7
346.354	1	2
347.552	1	8
348.749	1	18
349.946	1	9
351.143	1	6
352.340	1	8
353.537	1	5
354.734	1	7
355.931	1	11
357.127	1	7
358.324	1	18
359.521	1	20
360.718	1	8
361.914	1	19
363.111	1	17
364.308	1	28
365.504	1	23
366.701	1	42
367.897	1	56
369.093	1	54
370.290	1	51
371.486	1	40
372.682	1	41
373.879	1	34
375.075	1	11
376.271	1	21
377.467	1	19
378.663	1	9
379.859	1	6
381.055	1	14
382.251	1	4
383.447	1	19
384.643	1	1
385.839	1	7
387.035	1	6
388.230	1	4
389.426	1	12
390.622	1	7
391.817	1	0
393.013	1	9
394.208	1	3
395.404	1	7
396.599	1	8
397.795	1	11
398.990	1	25
400.186	1	7
401.381	1	8
402.576	1	12
403.771	1	2
404.967	1	8
406.162	1	4
407.357	1	17
408.552	1	1
409.747	1	7
410.942	1	15
412.137	1	9
413.332	1	8
414.526	1	10
415.721	1	13
416.916	1	7
418.111	1	8
419.305	1	24
420.500	1	9
421.695	1	12
422.889	1	9
424.084	1	12
425.278	1	10
426.472	1	16
427.667	1	19
428.861	1	20
430.055	1	21
431.250	1	16
432.444	1	15
433.638	1	15
434.832	1	11
436.026	1	1
437.220	1	13
438.414	1	14
439.608	1	-2
440.802	1	6
441.996	1	3
443.190	1	10
444.384	1	16
445.578	1	10
446.771	1	4
447.965	1	4
449.159	1	11
450.352	1	7
451.546	1	4
452.739	1	7
453.933	1	5
455.126	1	10
456.320	1	16
457.513	1	5
458.706	1	7
459.899	1	4
461.093	1	4
462.286	1	8
463.479	1	0
464.672	1	15
465.865	1	6
467.058	1	7
468.251	1	-5
469.444	1	3
470.637	1	9
471.830	1	1
473.023	1	3
474.215	1	9
475.408	1	7
476.601	1	4
477.793	1	1
478.986	1	9
480.179	1	12
481.371	1	-6
482.564	1	12
483.756	1	1
484.948	1	5
486.141	1	12
487.333	1	-5
488.525	1	-4
489.718	1	3
490.910	1	12
492.102	1	3
493.294	1	-3
494.486	1	5
495.678	1	-1
496.870	1	7
498.062	1	10
499.254	1	8
500.446	1	1
501.638	1	14
502.829	1	-1
504.021	1	5
505.213	1	-3
506.404	1	6
507.596	1	18
508.788	1	7
509.979	1	3
511.171	1	15
512.362	1	21
513.553	1	18
514.745	1	10
515.936	1	18
517.127	1	21
518.319	1	6
519.510	1	4
520.701	1	15
521.892	1	7
523.083	1	1
524.274	1	13
525.465	1	19
526.656	1	11
527.847	1	-5
529.038	1	18
530.229	1	17
531.419	1	13
532.610	1	16
533.801	1	15
534.991	1	10
536.182	1	6
537.373	1	11
538.563	1	8
539.754	1	12
540.944	1	10
542.134	1	12
543.325	1	8
544.515	1	16
545.705	1	15
546.896	1	24
548.086	1	12
549.276	1	8
550.466	1	10
551.656	1	2
552.846	1	16
554.036	1	14
555.226	1	12
556.416	1	11
557.606	1	-2
558.796	1	21
559.986	1	11
561.175	1	10
562.365	1	3
563.555	1	15
564.744	1	15
565.934	1	11
567.123	1	13
568.313	1	14
569.502	1	2
570.692	1	10
571.881	1	3
573.070	1	11
574.260	1	11
575.449	1	1
576.638	1	20
577.827	1	-2
579.016	1	8
580.205	1	12
581.394	1	6
582.583	1	7
583.772	1	17
584.961	1	-1
586.150	1	15
587.339	1	13
588.528	1	0
589.717	1	12
590.905	1	8
592.094	1	6
593.283	1	13
594.471	1	-1
595.660	1	5
596.848	1	11
598.037	1	10
599.225	1	-3
600.413	1	10
601.602	1	6
602.790	1	1
603.978	1	4
605.166	1	6
606.355	1	-12
607.543	1	0
608.731	1	-9
609.919	1	-1
611.107	1	15
612.295	1	10
613.483	1	2
614.671	1	8
615.858	1	-7
617.046	1	1
618.234	1	2
619.422	1	11
620.609	1	-4
621.797	1	1
622.985	1	-1
624.172	1	8
625.360	1	-1
626.547	1	3
627.735	1	15
628.922	1	11
630.109	1	7
631.297	1	4
632.484	1	6
633.671	1	5
634.858	1	9
636.045	1	-3
637.232	1	0
638.419	1	-3
639.606	1	15
640.793	1	5
641.980	1	4
643.167	1	2
644.354	1	13
645.541	1	3
646.728	1	10
647.914	1	7
649.101	1	4
650.288	1	5
651.474	1	6
652.661	1	5
653.847	1	9
655.034	1	-2
656.220	1	7
657.406	1	0
658.593	1	12
659.779	1	3
660.965	1	7
662.152	1	8
663.338	1	1
664.524	1	14
665.710	1	7
666.896	1	7
668.082	1	2
669.268	1	3
670.454	1	7
671.640	1	8
672.826	1	4
674.011	1	7
675.197	1	-1
676.383	1	6
677.569	1	14
678.754	1	8
679.940	1	-4
681.125	1	6
682.311	1	2
683.496	1	-9
684.682	1	12
685.867	1	3
687.053	1	22
688.238	1	12
688.746	1	5