File: Data/GaN_150K_450ms/GaN_sample D_spot15_UVVIS_150 K_200um_450 ms 2x2mm1_161.txt
340.368	1	3
341.565	1	10
342.763	1	8
343.960	1	3
345.157	1	9
346.354	1	4
347.552	1	3
348.749	1	19
349.946	1	10
351.143	1	10
352.340	1	12
353.537	1	-2
354.734	1	0
355.931	1	12
357.127	1	10
358.324	1	7
359.521	1	16
360.718	1	13
361.914	1	12
363.111	1	13
364.308	1	28
365.504	1	13
366.701	1	33
367.897	1	40
369.093	1	38
370.290	1	30
371.486	1	30
372.682	1	23
373.879	1	25
375.075	1	11
376.271	1	10
377.467	1	24
378.663	1	18
379.859	1	0
381.055	1	0
382.251	1	-8
383.447	1	6
384.643	1	8
385.839	1	11
387.035	1	3
388.230	1	6
389.426	1	0
390.622	1	-6
391.817	1	-5
393.013	1	15
394.208	1	-2
395.404	1	3
396.599	1	11
397.795	1	0
398.990	1	14
400.186	1	10
401.381	1	6
402.576	1	18
403.771	1	1
404.967	1	15
406.162	1	1
407.357	1	19
408.552	1	5
409.747	1	-1
410.942	1	12
412.137	1	2
413.332	1	12
414.526	1	-2
415.721	1	5
416.916	1	3
418.111	1	10
419.305	1	7
420.500	1	7
421.695	1	14
422.889	1	4
424.084	1	13
425.278	1	13
426.472	1	19
427.667	1	10
428.861	1	7
430.055	1	6
431.250	1	7
432.444	1	6
433.638	1	13
434.832	1	5
436.026	1	10
437.220	1	9
438.414	1	9
439.608	1	-1
440.802	1	12
441.996	1	7
443.190	1	13
444.384	1	15
445.578	1	-6
446.771	1	3
447.965	1	9
449.159	1	4
450.352	1	-5
451.546	1	5
452.739	1	5
453.933	1	-1
455.126	1	2
456.320	1	7
457.513	1	1
458.706	1	8
459.899	1	3
461.093	1	3
462.286	1	-2
463.479	1	1
464.672	1	3
465.865	1	12
467.058	1	7
468.251	1	-4
469.444	1	6
470.637	1	3
471.830	1	-1
473.023	1	0
474.215	1	8
475.408	1	2
476.601	1	1
477.793	1	-2
478.986	1	8
480.179	1	15
481.371	1	-5
482.564	1	5
483.756	1	4
484.948	1	10
486.141	1	1
487.333	1	-8
488.525	1	-2
489.718	1	2
490.910	1	15
492.102	1	8
493.294	1	-5
494.486	1	8
495.678	1	8
496.870	1	12
498.062	1	7
499.254	1	-6
500.446	1	7
501.638	1	8
502.829	1	6
504.021	1	5
505.213	1	5
506.404	1	7
507.596	1	8
508.788	1	8
509.979	1	8
511.171	1	8
512.362	1	12
513.553	1	14
514.745	1	5
515.936	1	5
517.127	1	15
518.319	1	0
519.510	1	4
520.701	1	6
521.892	1	18
523.083	1	6
524.274	1	11
525.465	1	8
526.656	1	8
527.847	1	-1
529.038	1	17
530.229	1	10
531.419	1	10
532.610	1	11
533.801	1	15
534.991	1	6
536.182	1	2
537.373	1	10
538.563	1	11
539.754	1	11
540.944	1	8
542.134	1	5
543.325	1	11
544.515	1	6
545.705	1	6
546.896	1	9
548.086	1	9
549.276	1	1
550.466	1	1
551.656	1	10
552.846	1	11
554.036	1	19
555.226	1	2
556.416	1	11
557.606	1	-4
558.796	1	7
559.986	1	5
561.175	1	7
562.365	1	1
563.555	1	12
564.744	1	11
565.934	1	10
567.123	1	-3
568.313	1	-2
569.502	1	2
570.692	1	10
571.881	1	-1
573.070	1	8
574.260	1	1
575.449	1	-3
576.638	1	10
577.827	1	-2
579.016	1	5
580.205	1	9
581.394	1	5
582.583	1	0
583.772	1	9
584.961	1	-7
586.150	1	10
587.339	1	4
588.528	1	-5
589.717	1	1
590.905	1	-4
592.094	1	9
593.283	1	10
594.471	1	-2
595.660	1	12
596.848	1	1
598.037	1	2
599.225	1	-3
600.413	1	8
601.602	1	5
602.790	1	11
603.978	1	5
605.166	1	6
606.355	1	-12
607.543	1	5
608.731	1	-5
609.919	1	3
611.107	1	8
612.295	1	10
613.483	1	-2
614.671	1	-2
615.858	1	-6
617.046	1	1
618.234	1	-8
619.422	1	8
620.609	1	-1
621.797	1	7
622.985	1	-4
624.172	1	4
625.360	1	0
626.547	1	-2
627.735	1	5
628.922	1	12
630.109	1	-7
631.297	1	0
632.484	1	10
633.671	1	3
634.858	1	4
636.045	1	-2
637.232	1	4
638.419	1	-1
639.606	1	14
640.793	1	11
641.980	1	10
643.167	1	7
644.354	1	11
645.541	1	5
646.728	1	8
647.914	1	-1
649.101	1	-6
650.288	1	10
651.474	1	7
652.661	1	3
653.847	1	11
655.034	1	-1
656.220	1	8
657.406	1	-2
658.593	1	9
659.779	1	2
660.965	1	10
662.152	1	4
663.338	1	4
664.524	1	3
665.710	1	2
666.896	1	8
668.082	1	12
669.268	1	4
670.454	1	1
671.640	1	10
672.826	1	10
674.011	1	15
675.197	1	16
676.383	1	3
677.569	1	17
678.754	1	5
679.940	1	0
681.125	1	4
682.311	1	4
683.496	1	12
684.682	1	2
685.867	1	0
687.053	1	13
688.238	1	15
688.746	1	0