File: Data/GaN_150K_450ms/GaN_sample D_spot15_UVVIS_150 K_200um_450 ms 2x2mm1_143.txt
340.368	1	4
341.565	1	7
342.763	1	6
343.960	1	8
345.157	1	8
346.354	1	1
347.552	1	21
348.749	1	12
349.946	1	-4
351.143	1	5
352.340	1	15
353.537	1	-2
354.734	1	6
355.931	1	10
357.127	1	15
358.324	1	6
359.521	1	11
360.718	1	15
361.914	1	21
363.111	1	17
364.308	1	31
365.504	1	33
366.701	1	39
367.897	1	44
369.093	1	41
370.290	1	36
371.486	1	41
372.682	1	34
373.879	1	29
375.075	1	22
376.271	1	19
377.467	1	24
378.663	1	12
379.859	1	7
381.055	1	9
382.251	1	11
383.447	1	7
384.643	1	1
385.839	1	19
387.035	1	19
388.230	1	12
389.426	1	5
390.622	1	4
391.817	1	0
393.013	1	17
394.208	1	7
395.404	1	-1
396.599	1	7
397.795	1	6
398.990	1	13
400.186	1	12
401.381	1	9
402.576	1	7
403.771	1	3
404.967	1	7
406.162	1	3
407.357	1	15
408.552	1	7
409.747	1	7
410.942	1	13
412.137	1	12
413.332	1	16
414.526	1	1
415.721	1	20
416.916	1	8
418.111	1	9
419.305	1	17
420.500	1	9
421.695	1	13
422.889	1	11
424.084	1	12
425.278	1	4
426.472	1	21
427.667	1	12
428.861	1	16
430.055	1	17
431.250	1	6
432.444	1	15
433.638	1	11
434.832	1	-1
436.026	1	6
437.220	1	12
438.414	1	10
439.608	1	7
440.802	1	6
441.996	1	7
443.190	1	15
444.384	1	7
445.578	1	7
446.771	1	10
447.965	1	3
449.159	1	3
450.352	1	7
451.546	1	7
452.739	1	6
453.933	1	-4
455.126	1	3
456.320	1	14
457.513	1	10
458.706	1	13
459.899	1	-1
461.093	1	4
462.286	1	-3
463.479	1	0
464.672	1	11
465.865	1	-6
467.058	1	7
468.251	1	0
469.444	1	-4
470.637	1	3
471.830	1	15
473.023	1	10
474.215	1	9
475.408	1	4
476.601	1	8
477.793	1	4
478.986	1	8
480.179	1	8
481.371	1	0
482.564	1	2
483.756	1	-4
484.948	1	7
486.141	1	17
487.333	1	1
488.525	1	2
489.718	1	-5
490.910	1	8
492.102	1	5
493.294	1	-9
494.486	1	2
495.678	1	-2
496.870	1	3
498.062	1	4
499.254	1	1
500.446	1	3
501.638	1	7
502.829	1	-2
504.021	1	4
505.213	1	2
506.404	1	6
507.596	1	20
508.788	1	13
509.979	1	-1
511.171	1	15
512.362	1	14
513.553	1	11
514.745	1	3
515.936	1	7
517.127	1	18
518.319	1	8
519.510	1	9
520.701	1	12
521.892	1	10
523.083	1	10
524.274	1	13
525.465	1	9
526.656	1	12
527.847	1	-3
529.038	1	9
530.229	1	20
531.419	1	12
532.610	1	18
533.801	1	9
534.991	1	3
536.182	1	19
537.373	1	3
538.563	1	2
539.754	1	0
540.944	1	9
542.134	1	6
543.325	1	15
544.515	1	6
545.705	1	13
546.896	1	23
548.086	1	10
549.276	1	16
550.466	1	5
551.656	1	6
552.846	1	12
554.036	1	12
555.226	1	7
556.416	1	12
557.606	1	-2
558.796	1	8
559.986	1	8
561.175	1	9
562.365	1	6
563.555	1	15
564.744	1	26
565.934	1	16
567.123	1	11
568.313	1	2
569.502	1	8
570.692	1	10
571.881	1	7
573.070	1	4
574.260	1	14
575.449	1	-2
576.638	1	7
577.827	1	2
579.016	1	1
580.205	1	-2
581.394	1	11
582.583	1	4
583.772	1	6
584.961	1	3
586.150	1	7
587.339	1	-4
588.528	1	1
589.717	1	8
590.905	1	4
592.094	1	13
593.283	1	11
594.471	1	-5
595.660	1	12
596.848	1	4
598.037	1	-2
599.225	1	1
600.413	1	7
601.602	1	7
602.790	1	7
603.978	1	5
605.166	1	1
606.355	1	-12
607.543	1	6
608.731	1	-4
609.919	1	-1
611.107	1	8
612.295	1	12
613.483	1	5
614.671	1	10
615.858	1	-11
617.046	1	3
618.234	1	-4
619.422	1	19
620.609	1	0
621.797	1	5
622.985	1	-2
624.172	1	11
625.360	1	-2
626.547	1	7
627.735	1	1
628.922	1	8
630.109	1	-3
631.297	1	7
632.484	1	15
633.671	1	9
634.858	1	12
636.045	1	-1
637.232	1	3
638.419	1	4
639.606	1	2
640.793	1	-3
641.980	1	9
643.167	1	9
644.354	1	7
645.541	1	3
646.728	1	5
647.914	1	-3
649.101	1	0
650.288	1	3
651.474	1	10
652.661	1	13
653.847	1	5
655.034	1	-8
656.220	1	9
657.406	1	-6
658.593	1	6
659.779	1	14
660.965	1	3
662.152	1	7
663.338	1	8
664.524	1	10
665.710	1	8
666.896	1	2
668.082	1	5
669.268	1	6
670.454	1	3
671.640	1	6
672.826	1	-2
674.011	1	5
675.197	1	13
676.383	1	-4
677.569	1	8
678.754	1	2
679.940	1	-3
681.125	1	12
682.311	1	17
683.496	1	-8
684.682	1	8
685.867	1	2
687.053	1	20
688.238	1	9
688.746	1	3