File: Data/GaN_150K_450ms/GaN_sample D_spot15_UVVIS_150 K_200um_450 ms 2x2mm1_329.txt
340.368	1	4
341.565	1	0
342.763	1	5
343.960	1	-2
345.157	1	8
346.354	1	10
347.552	1	9
348.749	1	4
349.946	1	-13
351.143	1	10
352.340	1	1
353.537	1	-4
354.734	1	8
355.931	1	1
357.127	1	10
358.324	1	3
359.521	1	10
360.718	1	3
361.914	1	6
363.111	1	-2
364.308	1	10
365.504	1	1
366.701	1	13
367.897	1	4
369.093	1	12
370.290	1	13
371.486	1	17
372.682	1	3
373.879	1	7
375.075	1	-3
376.271	1	7
377.467	1	10
378.663	1	6
379.859	1	3
381.055	1	1
382.251	1	-8
383.447	1	-6
384.643	1	2
385.839	1	3
387.035	1	6
388.230	1	5
389.426	1	1
390.622	1	2
391.817	1	-1
393.013	1	13
394.208	1	-4
395.404	1	-1
396.599	1	-4
397.795	1	5
398.990	1	5
400.186	1	0
401.381	1	1
402.576	1	0
403.771	1	-2
404.967	1	-4
406.162	1	-7
407.357	1	7
408.552	1	-1
409.747	1	6
410.942	1	10
412.137	1	2
413.332	1	1
414.526	1	-7
415.721	1	8
416.916	1	-8
418.111	1	8
419.305	1	11
420.500	1	5
421.695	1	7
422.889	1	12
424.084	1	6
425.278	1	-10
426.472	1	7
427.667	1	-1
428.861	1	6
430.055	1	6
431.250	1	6
432.444	1	3
433.638	1	8
434.832	1	-2
436.026	1	-7
437.220	1	6
438.414	1	4
439.608	1	-6
440.802	1	6
441.996	1	-5
443.190	1	3
444.384	1	3
445.578	1	-1
446.771	1	-1
447.965	1	7
449.159	1	-9
450.352	1	-3
451.546	1	-5
452.739	1	8
453.933	1	-3
455.126	1	3
456.320	1	8
457.513	1	-6
458.706	1	13
459.899	1	4
461.093	1	0
462.286	1	2
463.479	1	4
464.672	1	-4
465.865	1	1
467.058	1	9
468.251	1	-4
469.444	1	14
470.637	1	0
471.830	1	-8
473.023	1	10
474.215	1	2
475.408	1	0
476.601	1	5
477.793	1	-8
478.986	1	10
480.179	1	11
481.371	1	-5
482.564	1	3
483.756	1	11
484.948	1	7
486.141	1	-1
487.333	1	-4
488.525	1	1
489.718	1	-15
490.910	1	-1
492.102	1	6
493.294	1	-13
494.486	1	-3
495.678	1	3
496.870	1	1
498.062	1	-4
499.254	1	-2
500.446	1	-1
501.638	1	3
502.829	1	4
504.021	1	-7
505.213	1	-10
506.404	1	1
507.596	1	8
508.788	1	0
509.979	1	-7
511.171	1	2
512.362	1	5
513.553	1	8
514.745	1	6
515.936	1	-2
517.127	1	12
518.319	1	-1
519.510	1	-10
520.701	1	6
521.892	1	-2
523.083	1	1
524.274	1	5
525.465	1	4
526.656	1	9
527.847	1	-8
529.038	1	6
530.229	1	9
531.419	1	8
532.610	1	6
533.801	1	6
534.991	1	2
536.182	1	-5
537.373	1	-3
538.563	1	7
539.754	1	2
540.944	1	10
542.134	1	9
543.325	1	6
544.515	1	0
545.705	1	3
546.896	1	10
548.086	1	6
549.276	1	12
550.466	1	-7
551.656	1	-3
552.846	1	3
554.036	1	13
555.226	1	-1
556.416	1	4
557.606	1	-9
558.796	1	8
559.986	1	4
561.175	1	0
562.365	1	-4
563.555	1	5
564.744	1	4
565.934	1	9
567.123	1	4
568.313	1	-2
569.502	1	3
570.692	1	3
571.881	1	-6
573.070	1	4
574.260	1	5
575.449	1	-1
576.638	1	6
577.827	1	-7
579.016	1	0
580.205	1	0
581.394	1	-2
582.583	1	10
583.772	1	11
584.961	1	1
586.150	1	5
587.339	1	5
588.528	1	-3
589.717	1	0
590.905	1	-4
592.094	1	8
593.283	1	2
594.471	1	-5
595.660	1	2
596.848	1	1
598.037	1	-4
599.225	1	-1
600.413	1	4
601.602	1	0
602.790	1	9
603.978	1	1
605.166	1	1
606.355	1	-18
607.543	1	-1
608.731	1	-7
609.919	1	-12
611.107	1	6
612.295	1	-3
613.483	1	-3
614.671	1	0
615.858	1	-3
617.046	1	2
618.234	1	-3
619.422	1	18
620.609	1	-2
621.797	1	7
622.985	1	-4
624.172	1	2
625.360	1	-4
626.547	1	-4
627.735	1	2
628.922	1	6
630.109	1	-12
631.297	1	0
632.484	1	11
633.671	1	9
634.858	1	6
636.045	1	-6
637.232	1	-6
638.419	1	-1
639.606	1	4
640.793	1	-5
641.980	1	16
643.167	1	0
644.354	1	3
645.541	1	0
646.728	1	6
647.914	1	0
649.101	1	2
650.288	1	4
651.474	1	6
652.661	1	6
653.847	1	12
655.034	1	5
656.220	1	6
657.406	1	-10
658.593	1	4
659.779	1	0
660.965	1	-4
662.152	1	1
663.338	1	-3
664.524	1	10
665.710	1	1
666.896	1	6
668.082	1	2
669.268	1	4
670.454	1	8
671.640	1	2
672.826	1	4
674.011	1	6
675.197	1	3
676.383	1	2
677.569	1	7
678.754	1	2
679.940	1	-2
681.125	1	-5
682.311	1	7
683.496	1	2
684.682	1	2
685.867	1	-6
687.053	1	23
688.238	1	12
688.746	1	-4