File: Data/GaN_150K_450ms/GaN_sample D_spot15_UVVIS_150 K_200um_450 ms 2x2mm1_60.txt
340.368	1	-3
341.565	1	3
342.763	1	3
343.960	1	16
345.157	1	20
346.354	1	9
347.552	1	18
348.749	1	10
349.946	1	8
351.143	1	4
352.340	1	5
353.537	1	-2
354.734	1	23
355.931	1	18
357.127	1	34
358.324	1	41
359.521	1	48
360.718	1	60
361.914	1	88
363.111	1	122
364.308	1	216
365.504	1	306
366.701	1	403
367.897	1	481
369.093	1	467
370.290	1	380
371.486	1	307
372.682	1	247
373.879	1	203
375.075	1	138
376.271	1	138
377.467	1	108
378.663	1	99
379.859	1	83
381.055	1	72
382.251	1	64
383.447	1	58
384.643	1	70
385.839	1	51
387.035	1	52
388.230	1	52
389.426	1	43
390.622	1	43
391.817	1	32
393.013	1	38
394.208	1	32
395.404	1	35
396.599	1	40
397.795	1	30
398.990	1	38
400.186	1	30
401.381	1	29
402.576	1	26
403.771	1	20
404.967	1	20
406.162	1	22
407.357	1	22
408.552	1	26
409.747	1	22
410.942	1	29
412.137	1	15
413.332	1	17
414.526	1	3
415.721	1	18
416.916	1	18
418.111	1	30
419.305	1	28
420.500	1	18
421.695	1	25
422.889	1	16
424.084	1	18
425.278	1	18
426.472	1	30
427.667	1	35
428.861	1	22
430.055	1	30
431.250	1	26
432.444	1	15
433.638	1	19
434.832	1	8
436.026	1	16
437.220	1	23
438.414	1	18
439.608	1	11
440.802	1	14
441.996	1	13
443.190	1	15
444.384	1	18
445.578	1	14
446.771	1	20
447.965	1	18
449.159	1	9
450.352	1	9
451.546	1	13
452.739	1	21
453.933	1	11
455.126	1	17
456.320	1	21
457.513	1	16
458.706	1	14
459.899	1	11
461.093	1	24
462.286	1	15
463.479	1	8
464.672	1	14
465.865	1	22
467.058	1	22
468.251	1	8
469.444	1	13
470.637	1	18
471.830	1	20
473.023	1	15
474.215	1	14
475.408	1	25
476.601	1	14
477.793	1	7
478.986	1	20
480.179	1	14
481.371	1	12
482.564	1	34
483.756	1	25
484.948	1	25
486.141	1	28
487.333	1	22
488.525	1	20
489.718	1	33
490.910	1	41
492.102	1	48
493.294	1	31
494.486	1	45
495.678	1	41
496.870	1	43
498.062	1	38
499.254	1	58
500.446	1	49
501.638	1	63
502.829	1	55
504.021	1	70
505.213	1	55
506.404	1	73
507.596	1	79
508.788	1	74
509.979	1	70
511.171	1	75
512.362	1	85
513.553	1	94
514.745	1	78
515.936	1	81
517.127	1	92
518.319	1	95
519.510	1	93
520.701	1	99
521.892	1	94
523.083	1	94
524.274	1	99
525.465	1	101
526.656	1	101
527.847	1	89
529.038	1	105
530.229	1	115
531.419	1	107
532.610	1	106
533.801	1	102
534.991	1	107
536.182	1	95
537.373	1	98
538.563	1	92
539.754	1	89
540.944	1	97
542.134	1	89
543.325	1	94
544.515	1	88
545.705	1	94
546.896	1	89
548.086	1	92
549.276	1	98
550.466	1	82
551.656	1	80
552.846	1	82
554.036	1	83
555.226	1	64
556.416	1	69
557.606	1	55
558.796	1	72
559.986	1	71
561.175	1	70
562.365	1	69
563.555	1	68
564.744	1	67
565.934	1	73
567.123	1	55
568.313	1	62
569.502	1	57
570.692	1	57
571.881	1	59
573.070	1	58
574.260	1	40
575.449	1	44
576.638	1	53
577.827	1	39
579.016	1	44
580.205	1	50
581.394	1	50
582.583	1	54
583.772	1	49
584.961	1	39
586.150	1	46
587.339	1	43
588.528	1	30
589.717	1	29
590.905	1	30
592.094	1	42
593.283	1	30
594.471	1	29
595.660	1	39
596.848	1	28
598.037	1	35
599.225	1	26
600.413	1	25
601.602	1	31
602.790	1	22
603.978	1	37
605.166	1	26
606.355	1	19
607.543	1	26
608.731	1	27
609.919	1	18
611.107	1	41
612.295	1	19
613.483	1	23
614.671	1	17
615.858	1	8
617.046	1	6
618.234	1	18
619.422	1	30
620.609	1	11
621.797	1	16
622.985	1	19
624.172	1	21
625.360	1	22
626.547	1	14
627.735	1	6
628.922	1	21
630.109	1	15
631.297	1	20
632.484	1	17
633.671	1	28
634.858	1	18
636.045	1	3
637.232	1	16
638.419	1	11
639.606	1	18
640.793	1	15
641.980	1	23
643.167	1	22
644.354	1	17
645.541	1	6
646.728	1	15
647.914	1	15
649.101	1	7
650.288	1	17
651.474	1	19
652.661	1	11
653.847	1	18
655.034	1	14
656.220	1	15
657.406	1	11
658.593	1	18
659.779	1	7
660.965	1	16
662.152	1	3
663.338	1	14
664.524	1	24
665.710	1	18
666.896	1	15
668.082	1	12
669.268	1	18
670.454	1	18
671.640	1	20
672.826	1	29
674.011	1	15
675.197	1	14
676.383	1	12
677.569	1	24
678.754	1	11
679.940	1	11
681.125	1	11
682.311	1	14
683.496	1	14
684.682	1	19
685.867	1	14
687.053	1	25
688.238	1	17
688.746	1	12