File: Data/GaN_150K_450ms/GaN_sample D_spot15_UVVIS_150 K_200um_450 ms 2x2mm1_177.txt
340.368	1	5
341.565	1	10
342.763	1	-1
343.960	1	-3
345.157	1	3
346.354	1	7
347.552	1	14
348.749	1	18
349.946	1	-1
351.143	1	11
352.340	1	9
353.537	1	6
354.734	1	5
355.931	1	9
357.127	1	17
358.324	1	7
359.521	1	17
360.718	1	5
361.914	1	12
363.111	1	6
364.308	1	18
365.504	1	9
366.701	1	13
367.897	1	25
369.093	1	28
370.290	1	37
371.486	1	33
372.682	1	22
373.879	1	9
375.075	1	4
376.271	1	4
377.467	1	12
378.663	1	15
379.859	1	10
381.055	1	1
382.251	1	-3
383.447	1	12
384.643	1	10
385.839	1	9
387.035	1	10
388.230	1	6
389.426	1	2
390.622	1	3
391.817	1	-1
393.013	1	13
394.208	1	1
395.404	1	12
396.599	1	6
397.795	1	-5
398.990	1	8
400.186	1	6
401.381	1	7
402.576	1	1
403.771	1	0
404.967	1	5
406.162	1	8
407.357	1	3
408.552	1	-8
409.747	1	6
410.942	1	14
412.137	1	10
413.332	1	12
414.526	1	1
415.721	1	7
416.916	1	3
418.111	1	12
419.305	1	7
420.500	1	13
421.695	1	19
422.889	1	10
424.084	1	12
425.278	1	10
426.472	1	19
427.667	1	12
428.861	1	10
430.055	1	11
431.250	1	13
432.444	1	8
433.638	1	-1
434.832	1	-3
436.026	1	9
437.220	1	11
438.414	1	8
439.608	1	9
440.802	1	7
441.996	1	6
443.190	1	14
444.384	1	4
445.578	1	1
446.771	1	10
447.965	1	8
449.159	1	3
450.352	1	12
451.546	1	6
452.739	1	8
453.933	1	0
455.126	1	3
456.320	1	13
457.513	1	4
458.706	1	6
459.899	1	3
461.093	1	9
462.286	1	-4
463.479	1	-4
464.672	1	2
465.865	1	-4
467.058	1	5
468.251	1	-1
469.444	1	-1
470.637	1	7
471.830	1	5
473.023	1	9
474.215	1	7
475.408	1	5
476.601	1	8
477.793	1	-1
478.986	1	15
480.179	1	14
481.371	1	-2
482.564	1	7
483.756	1	-2
484.948	1	3
486.141	1	10
487.333	1	-2
488.525	1	-4
489.718	1	-2
490.910	1	6
492.102	1	2
493.294	1	-3
494.486	1	-8
495.678	1	-4
496.870	1	7
498.062	1	1
499.254	1	-6
500.446	1	-6
501.638	1	3
502.829	1	11
504.021	1	5
505.213	1	-3
506.404	1	5
507.596	1	11
508.788	1	2
509.979	1	6
511.171	1	12
512.362	1	17
513.553	1	9
514.745	1	5
515.936	1	5
517.127	1	17
518.319	1	8
519.510	1	-11
520.701	1	16
521.892	1	12
523.083	1	2
524.274	1	6
525.465	1	9
526.656	1	5
527.847	1	1
529.038	1	12
530.229	1	11
531.419	1	0
532.610	1	18
533.801	1	4
534.991	1	0
536.182	1	6
537.373	1	8
538.563	1	6
539.754	1	7
540.944	1	9
542.134	1	-1
543.325	1	7
544.515	1	10
545.705	1	4
546.896	1	9
548.086	1	11
549.276	1	9
550.466	1	2
551.656	1	6
552.846	1	11
554.036	1	14
555.226	1	11
556.416	1	15
557.606	1	-1
558.796	1	11
559.986	1	7
561.175	1	5
562.365	1	8
563.555	1	16
564.744	1	16
565.934	1	22
567.123	1	-1
568.313	1	14
569.502	1	5
570.692	1	13
571.881	1	1
573.070	1	9
574.260	1	5
575.449	1	-1
576.638	1	14
577.827	1	-2
579.016	1	3
580.205	1	1
581.394	1	8
582.583	1	14
583.772	1	9
584.961	1	-3
586.150	1	2
587.339	1	-4
588.528	1	1
589.717	1	5
590.905	1	6
592.094	1	12
593.283	1	6
594.471	1	-3
595.660	1	5
596.848	1	3
598.037	1	-2
599.225	1	8
600.413	1	5
601.602	1	1
602.790	1	9
603.978	1	-3
605.166	1	7
606.355	1	-7
607.543	1	-1
608.731	1	-13
609.919	1	-7
611.107	1	7
612.295	1	10
613.483	1	7
614.671	1	-2
615.858	1	0
617.046	1	10
618.234	1	-1
619.422	1	16
620.609	1	7
621.797	1	-3
622.985	1	1
624.172	1	8
625.360	1	3
626.547	1	-3
627.735	1	13
628.922	1	16
630.109	1	-4
631.297	1	-6
632.484	1	12
633.671	1	8
634.858	1	6
636.045	1	-4
637.232	1	4
638.419	1	-4
639.606	1	6
640.793	1	-1
641.980	1	14
643.167	1	4
644.354	1	5
645.541	1	11
646.728	1	7
647.914	1	9
649.101	1	5
650.288	1	8
651.474	1	7
652.661	1	5
653.847	1	4
655.034	1	-6
656.220	1	14
657.406	1	-3
658.593	1	2
659.779	1	7
660.965	1	-5
662.152	1	3
663.338	1	7
664.524	1	13
665.710	1	9
666.896	1	4
668.082	1	0
669.268	1	-6
670.454	1	9
671.640	1	7
672.826	1	11
674.011	1	5
675.197	1	7
676.383	1	7
677.569	1	3
678.754	1	3
679.940	1	1
681.125	1	-6
682.311	1	6
683.496	1	0
684.682	1	8
685.867	1	3
687.053	1	22
688.238	1	10
688.746	1	2