File: Data/GaN_150K_450ms/GaN_sample D_spot15_UVVIS_150 K_200um_450 ms 2x2mm1_283.txt
340.368	1	10
341.565	1	6
342.763	1	1
343.960	1	5
345.157	1	7
346.354	1	9
347.552	1	17
348.749	1	10
349.946	1	-4
351.143	1	1
352.340	1	4
353.537	1	-8
354.734	1	2
355.931	1	12
357.127	1	10
358.324	1	1
359.521	1	12
360.718	1	10
361.914	1	7
363.111	1	-3
364.308	1	10
365.504	1	5
366.701	1	10
367.897	1	8
369.093	1	18
370.290	1	22
371.486	1	19
372.682	1	11
373.879	1	0
375.075	1	8
376.271	1	-1
377.467	1	7
378.663	1	5
379.859	1	7
381.055	1	-5
382.251	1	-3
383.447	1	11
384.643	1	1
385.839	1	11
387.035	1	-4
388.230	1	-4
389.426	1	0
390.622	1	-4
391.817	1	-2
393.013	1	6
394.208	1	4
395.404	1	4
396.599	1	5
397.795	1	2
398.990	1	13
400.186	1	0
401.381	1	1
402.576	1	8
403.771	1	-8
404.967	1	0
406.162	1	-8
407.357	1	6
408.552	1	2
409.747	1	9
410.942	1	1
412.137	1	-1
413.332	1	9
414.526	1	-8
415.721	1	1
416.916	1	-6
418.111	1	3
419.305	1	7
420.500	1	0
421.695	1	12
422.889	1	1
424.084	1	-1
425.278	1	11
426.472	1	11
427.667	1	1
428.861	1	7
430.055	1	9
431.250	1	11
432.444	1	5
433.638	1	7
434.832	1	1
436.026	1	5
437.220	1	14
438.414	1	4
439.608	1	1
440.802	1	5
441.996	1	2
443.190	1	-2
444.384	1	5
445.578	1	-12
446.771	1	-1
447.965	1	5
449.159	1	-12
450.352	1	3
451.546	1	4
452.739	1	14
453.933	1	-9
455.126	1	3
456.320	1	2
457.513	1	0
458.706	1	10
459.899	1	-3
461.093	1	6
462.286	1	3
463.479	1	-1
464.672	1	12
465.865	1	-4
467.058	1	6
468.251	1	-8
469.444	1	5
470.637	1	0
471.830	1	4
473.023	1	0
474.215	1	4
475.408	1	3
476.601	1	6
477.793	1	-1
478.986	1	4
480.179	1	9
481.371	1	-13
482.564	1	5
483.756	1	8
484.948	1	-3
486.141	1	6
487.333	1	-7
488.525	1	-4
489.718	1	-5
490.910	1	8
492.102	1	5
493.294	1	-13
494.486	1	0
495.678	1	-2
496.870	1	5
498.062	1	-7
499.254	1	-3
500.446	1	-7
501.638	1	-4
502.829	1	-4
504.021	1	6
505.213	1	-3
506.404	1	1
507.596	1	13
508.788	1	-2
509.979	1	-1
511.171	1	0
512.362	1	3
513.553	1	13
514.745	1	-3
515.936	1	-2
517.127	1	4
518.319	1	4
519.510	1	-6
520.701	1	13
521.892	1	0
523.083	1	-3
524.274	1	5
525.465	1	12
526.656	1	1
527.847	1	-2
529.038	1	2
530.229	1	6
531.419	1	-5
532.610	1	16
533.801	1	-2
534.991	1	-4
536.182	1	7
537.373	1	-5
538.563	1	-3
539.754	1	4
540.944	1	2
542.134	1	5
543.325	1	10
544.515	1	6
545.705	1	5
546.896	1	9
548.086	1	9
549.276	1	-1
550.466	1	0
551.656	1	-7
552.846	1	-1
554.036	1	9
555.226	1	0
556.416	1	6
557.606	1	-13
558.796	1	2
559.986	1	18
561.175	1	6
562.365	1	-5
563.555	1	5
564.744	1	22
565.934	1	11
567.123	1	2
568.313	1	8
569.502	1	5
570.692	1	-1
571.881	1	0
573.070	1	-1
574.260	1	-2
575.449	1	2
576.638	1	4
577.827	1	-5
579.016	1	-1
580.205	1	4
581.394	1	2
582.583	1	-5
583.772	1	7
584.961	1	-3
586.150	1	0
587.339	1	5
588.528	1	-9
589.717	1	0
590.905	1	-3
592.094	1	6
593.283	1	-8
594.471	1	-1
595.660	1	-3
596.848	1	11
598.037	1	1
599.225	1	-4
600.413	1	2
601.602	1	9
602.790	1	10
603.978	1	3
605.166	1	5
606.355	1	-5
607.543	1	5
608.731	1	-13
609.919	1	-4
611.107	1	11
612.295	1	7
613.483	1	0
614.671	1	4
615.858	1	-4
617.046	1	6
618.234	1	-3
619.422	1	21
620.609	1	-4
621.797	1	-3
622.985	1	5
624.172	1	5
625.360	1	-1
626.547	1	-1
627.735	1	-9
628.922	1	6
630.109	1	-4
631.297	1	-4
632.484	1	16
633.671	1	6
634.858	1	-4
636.045	1	-6
637.232	1	1
638.419	1	-4
639.606	1	0
640.793	1	8
641.980	1	2
643.167	1	-5
644.354	1	7
645.541	1	-5
646.728	1	8
647.914	1	1
649.101	1	2
650.288	1	4
651.474	1	10
652.661	1	0
653.847	1	11
655.034	1	-6
656.220	1	9
657.406	1	-8
658.593	1	12
659.779	1	5
660.965	1	-2
662.152	1	6
663.338	1	-10
664.524	1	7
665.710	1	3
666.896	1	5
668.082	1	-1
669.268	1	6
670.454	1	10
671.640	1	0
672.826	1	12
674.011	1	2
675.197	1	1
676.383	1	-2
677.569	1	8
678.754	1	9
679.940	1	-5
681.125	1	-9
682.311	1	11
683.496	1	-6
684.682	1	-1
685.867	1	-5
687.053	1	16
688.238	1	13
688.746	1	3