File: Data/GaN_150K_450ms/GaN_sample D_spot15_UVVIS_150 K_200um_450 ms 2x2mm1_320.txt
340.368	1	-7
341.565	1	6
342.763	1	3
343.960	1	-2
345.157	1	16
346.354	1	2
347.552	1	5
348.749	1	8
349.946	1	-5
351.143	1	0
352.340	1	5
353.537	1	4
354.734	1	12
355.931	1	9
357.127	1	-4
358.324	1	6
359.521	1	15
360.718	1	1
361.914	1	5
363.111	1	9
364.308	1	2
365.504	1	-1
366.701	1	1
367.897	1	10
369.093	1	3
370.290	1	7
371.486	1	12
372.682	1	6
373.879	1	-2
375.075	1	-2
376.271	1	5
377.467	1	17
378.663	1	6
379.859	1	7
381.055	1	2
382.251	1	-11
383.447	1	2
384.643	1	-2
385.839	1	9
387.035	1	7
388.230	1	3
389.426	1	-4
390.622	1	-7
391.817	1	-5
393.013	1	6
394.208	1	2
395.404	1	10
396.599	1	5
397.795	1	-1
398.990	1	5
400.186	1	-6
401.381	1	-2
402.576	1	1
403.771	1	-10
404.967	1	7
406.162	1	7
407.357	1	5
408.552	1	-8
409.747	1	2
410.942	1	3
412.137	1	-10
413.332	1	7
414.526	1	-5
415.721	1	3
416.916	1	-8
418.111	1	-3
419.305	1	13
420.500	1	0
421.695	1	11
422.889	1	8
424.084	1	-2
425.278	1	-5
426.472	1	2
427.667	1	1
428.861	1	6
430.055	1	6
431.250	1	-1
432.444	1	-7
433.638	1	10
434.832	1	0
436.026	1	6
437.220	1	3
438.414	1	3
439.608	1	-7
440.802	1	4
441.996	1	3
443.190	1	8
444.384	1	8
445.578	1	-2
446.771	1	1
447.965	1	5
449.159	1	-3
450.352	1	-1
451.546	1	-7
452.739	1	10
453.933	1	-1
455.126	1	-5
456.320	1	14
457.513	1	3
458.706	1	12
459.899	1	-1
461.093	1	4
462.286	1	1
463.479	1	-4
464.672	1	1
465.865	1	-1
467.058	1	0
468.251	1	-6
469.444	1	8
470.637	1	3
471.830	1	8
473.023	1	10
474.215	1	0
475.408	1	-1
476.601	1	3
477.793	1	-6
478.986	1	7
480.179	1	8
481.371	1	-2
482.564	1	3
483.756	1	2
484.948	1	2
486.141	1	9
487.333	1	-3
488.525	1	-5
489.718	1	-9
490.910	1	8
492.102	1	5
493.294	1	-11
494.486	1	5
495.678	1	2
496.870	1	0
498.062	1	-5
499.254	1	-2
500.446	1	-9
501.638	1	1
502.829	1	-4
504.021	1	2
505.213	1	-12
506.404	1	1
507.596	1	1
508.788	1	1
509.979	1	3
511.171	1	-1
512.362	1	5
513.553	1	0
514.745	1	0
515.936	1	-5
517.127	1	5
518.319	1	2
519.510	1	-1
520.701	1	6
521.892	1	2
523.083	1	-2
524.274	1	7
525.465	1	-2
526.656	1	4
527.847	1	-8
529.038	1	3
530.229	1	9
531.419	1	6
532.610	1	-1
533.801	1	5
534.991	1	0
536.182	1	4
537.373	1	-1
538.563	1	-2
539.754	1	-3
540.944	1	-2
542.134	1	8
543.325	1	1
544.515	1	-4
545.705	1	3
546.896	1	8
548.086	1	8
549.276	1	7
550.466	1	-1
551.656	1	3
552.846	1	-2
554.036	1	10
555.226	1	2
556.416	1	7
557.606	1	-9
558.796	1	11
559.986	1	11
561.175	1	1
562.365	1	2
563.555	1	7
564.744	1	11
565.934	1	9
567.123	1	-2
568.313	1	4
569.502	1	5
570.692	1	5
571.881	1	1
573.070	1	2
574.260	1	1
575.449	1	-10
576.638	1	8
577.827	1	-9
579.016	1	-1
580.205	1	-2
581.394	1	-4
582.583	1	0
583.772	1	10
584.961	1	-4
586.150	1	4
587.339	1	3
588.528	1	3
589.717	1	-4
590.905	1	2
592.094	1	7
593.283	1	-1
594.471	1	-4
595.660	1	12
596.848	1	3
598.037	1	-4
599.225	1	7
600.413	1	-1
601.602	1	-1
602.790	1	5
603.978	1	-2
605.166	1	-2
606.355	1	-11
607.543	1	1
608.731	1	-15
609.919	1	-9
611.107	1	3
612.295	1	5
613.483	1	-1
614.671	1	6
615.858	1	-3
617.046	1	2
618.234	1	-9
619.422	1	16
620.609	1	-2
621.797	1	-2
622.985	1	-5
624.172	1	0
625.360	1	11
626.547	1	-6
627.735	1	0
628.922	1	3
630.109	1	-4
631.297	1	-3
632.484	1	-1
633.671	1	3
634.858	1	1
636.045	1	-5
637.232	1	1
638.419	1	3
639.606	1	9
640.793	1	2
641.980	1	2
643.167	1	4
644.354	1	2
645.541	1	2
646.728	1	15
647.914	1	5
649.101	1	-1
650.288	1	-3
651.474	1	2
652.661	1	5
653.847	1	8
655.034	1	2
656.220	1	6
657.406	1	-1
658.593	1	8
659.779	1	1
660.965	1	4
662.152	1	3
663.338	1	2
664.524	1	11
665.710	1	11
666.896	1	4
668.082	1	6
669.268	1	1
670.454	1	3
671.640	1	10
672.826	1	6
674.011	1	-1
675.197	1	-3
676.383	1	7
677.569	1	6
678.754	1	-7
679.940	1	7
681.125	1	0
682.311	1	7
683.496	1	0
684.682	1	4
685.867	1	0
687.053	1	10
688.238	1	6
688.746	1	3