File: Data/GaN_150K_450ms/GaN_sample D_spot15_UVVIS_150 K_200um_450 ms 2x2mm1_46.txt
340.368	1	1
341.565	1	-2
342.763	1	1
343.960	1	8
345.157	1	8
346.354	1	4
347.552	1	7
348.749	1	2
349.946	1	6
351.143	1	5
352.340	1	1
353.537	1	-1
354.734	1	5
355.931	1	-2
357.127	1	8
358.324	1	4
359.521	1	3
360.718	1	0
361.914	1	-2
363.111	1	-1
364.308	1	1
365.504	1	-16
366.701	1	-2
367.897	1	6
369.093	1	4
370.290	1	2
371.486	1	5
372.682	1	9
373.879	1	1
375.075	1	-9
376.271	1	1
377.467	1	5
378.663	1	3
379.859	1	-1
381.055	1	-11
382.251	1	2
383.447	1	0
384.643	1	7
385.839	1	3
387.035	1	5
388.230	1	-2
389.426	1	1
390.622	1	-3
391.817	1	-10
393.013	1	3
394.208	1	4
395.404	1	11
396.599	1	1
397.795	1	-2
398.990	1	7
400.186	1	-1
401.381	1	-2
402.576	1	-3
403.771	1	-3
404.967	1	3
406.162	1	-13
407.357	1	-2
408.552	1	2
409.747	1	-1
410.942	1	5
412.137	1	-2
413.332	1	-4
414.526	1	-15
415.721	1	-1
416.916	1	2
418.111	1	1
419.305	1	1
420.500	1	-3
421.695	1	17
422.889	1	6
424.084	1	3
425.278	1	-3
426.472	1	-1
427.667	1	3
428.861	1	-2
430.055	1	7
431.250	1	7
432.444	1	5
433.638	1	4
434.832	1	-8
436.026	1	0
437.220	1	6
438.414	1	4
439.608	1	1
440.802	1	9
441.996	1	3
443.190	1	1
444.384	1	7
445.578	1	-3
446.771	1	4
447.965	1	0
449.159	1	-8
450.352	1	0
451.546	1	-9
452.739	1	-1
453.933	1	2
455.126	1	6
456.320	1	9
457.513	1	-2
458.706	1	15
459.899	1	-8
461.093	1	8
462.286	1	-6
463.479	1	2
464.672	1	9
465.865	1	-1
467.058	1	8
468.251	1	0
469.444	1	7
470.637	1	4
471.830	1	3
473.023	1	8
474.215	1	-8
475.408	1	-7
476.601	1	7
477.793	1	2
478.986	1	8
480.179	1	10
481.371	1	-7
482.564	1	4
483.756	1	5
484.948	1	4
486.141	1	4
487.333	1	4
488.525	1	-12
489.718	1	-3
490.910	1	-1
492.102	1	-1
493.294	1	-11
494.486	1	5
495.678	1	-1
496.870	1	7
498.062	1	0
499.254	1	3
500.446	1	-1
501.638	1	6
502.829	1	-5
504.021	1	-3
505.213	1	-4
506.404	1	5
507.596	1	1
508.788	1	4
509.979	1	-8
511.171	1	-3
512.362	1	2
513.553	1	8
514.745	1	-1
515.936	1	-3
517.127	1	6
518.319	1	-6
519.510	1	-1
520.701	1	7
521.892	1	-5
523.083	1	-6
524.274	1	2
525.465	1	6
526.656	1	6
527.847	1	-6
529.038	1	-3
530.229	1	2
531.419	1	2
532.610	1	9
533.801	1	-1
534.991	1	-5
536.182	1	-2
537.373	1	-4
538.563	1	-12
539.754	1	8
540.944	1	5
542.134	1	2
543.325	1	5
544.515	1	4
545.705	1	4
546.896	1	7
548.086	1	-1
549.276	1	8
550.466	1	0
551.656	1	-2
552.846	1	4
554.036	1	11
555.226	1	0
556.416	1	2
557.606	1	-7
558.796	1	12
559.986	1	2
561.175	1	4
562.365	1	0
563.555	1	7
564.744	1	15
565.934	1	20
567.123	1	-1
568.313	1	5
569.502	1	3
570.692	1	6
571.881	1	2
573.070	1	14
574.260	1	-1
575.449	1	-4
576.638	1	2
577.827	1	0
579.016	1	1
580.205	1	6
581.394	1	8
582.583	1	7
583.772	1	11
584.961	1	-7
586.150	1	5
587.339	1	1
588.528	1	1
589.717	1	2
590.905	1	0
592.094	1	11
593.283	1	-5
594.471	1	5
595.660	1	7
596.848	1	3
598.037	1	1
599.225	1	-2
600.413	1	6
601.602	1	2
602.790	1	5
603.978	1	4
605.166	1	-4
606.355	1	-12
607.543	1	4
608.731	1	-6
609.919	1	-9
611.107	1	9
612.295	1	-5
613.483	1	0
614.671	1	8
615.858	1	-10
617.046	1	3
618.234	1	-2
619.422	1	12
620.609	1	1
621.797	1	4
622.985	1	1
624.172	1	-4
625.360	1	0
626.547	1	-6
627.735	1	2
628.922	1	0
630.109	1	0
631.297	1	-2
632.484	1	8
633.671	1	4
634.858	1	0
636.045	1	-1
637.232	1	-2
638.419	1	-4
639.606	1	3
640.793	1	5
641.980	1	9
643.167	1	6
644.354	1	12
645.541	1	7
646.728	1	4
647.914	1	7
649.101	1	-5
650.288	1	8
651.474	1	8
652.661	1	0
653.847	1	9
655.034	1	2
656.220	1	5
657.406	1	-9
658.593	1	11
659.779	1	-4
660.965	1	-3
662.152	1	3
663.338	1	-4
664.524	1	9
665.710	1	-1
666.896	1	-1
668.082	1	4
669.268	1	-9
670.454	1	8
671.640	1	6
672.826	1	-1
674.011	1	-2
675.197	1	7
676.383	1	5
677.569	1	6
678.754	1	6
679.940	1	-3
681.125	1	-5
682.311	1	3
683.496	1	2
684.682	1	7
685.867	1	-3
687.053	1	14
688.238	1	6
688.746	1	-1