File: Data/GaN_150K_450ms/GaN_sample D_spot15_UVVIS_150 K_200um_450 ms 2x2mm1_31.txt
340.368	1	1
341.565	1	3
342.763	1	5
343.960	1	9
345.157	1	5
346.354	1	-6
347.552	1	16
348.749	1	11
349.946	1	-2
351.143	1	1
352.340	1	4
353.537	1	-7
354.734	1	-10
355.931	1	9
357.127	1	3
358.324	1	7
359.521	1	-1
360.718	1	-4
361.914	1	9
363.111	1	5
364.308	1	1
365.504	1	3
366.701	1	2
367.897	1	-2
369.093	1	-4
370.290	1	4
371.486	1	8
372.682	1	2
373.879	1	-1
375.075	1	-5
376.271	1	0
377.467	1	12
378.663	1	6
379.859	1	-2
381.055	1	-2
382.251	1	-10
383.447	1	3
384.643	1	-4
385.839	1	-5
387.035	1	12
388.230	1	0
389.426	1	-3
390.622	1	-3
391.817	1	0
393.013	1	7
394.208	1	4
395.404	1	-1
396.599	1	-2
397.795	1	-2
398.990	1	9
400.186	1	2
401.381	1	4
402.576	1	0
403.771	1	-4
404.967	1	7
406.162	1	3
407.357	1	8
408.552	1	-1
409.747	1	8
410.942	1	1
412.137	1	-4
413.332	1	6
414.526	1	-4
415.721	1	11
416.916	1	-6
418.111	1	3
419.305	1	0
420.500	1	-1
421.695	1	10
422.889	1	3
424.084	1	2
425.278	1	-2
426.472	1	2
427.667	1	-1
428.861	1	5
430.055	1	8
431.250	1	-1
432.444	1	-2
433.638	1	8
434.832	1	-2
436.026	1	-3
437.220	1	2
438.414	1	7
439.608	1	-8
440.802	1	8
441.996	1	0
443.190	1	6
444.384	1	7
445.578	1	-5
446.771	1	3
447.965	1	8
449.159	1	-7
450.352	1	-6
451.546	1	-1
452.739	1	-2
453.933	1	-1
455.126	1	-2
456.320	1	2
457.513	1	-5
458.706	1	0
459.899	1	-4
461.093	1	4
462.286	1	-4
463.479	1	14
464.672	1	5
465.865	1	2
467.058	1	-3
468.251	1	0
469.444	1	3
470.637	1	4
471.830	1	-4
473.023	1	5
474.215	1	1
475.408	1	9
476.601	1	4
477.793	1	2
478.986	1	7
480.179	1	-2
481.371	1	-6
482.564	1	4
483.756	1	5
484.948	1	5
486.141	1	1
487.333	1	-10
488.525	1	-7
489.718	1	-7
490.910	1	3
492.102	1	-2
493.294	1	-6
494.486	1	1
495.678	1	4
496.870	1	2
498.062	1	-3
499.254	1	1
500.446	1	-4
501.638	1	6
502.829	1	-7
504.021	1	-4
505.213	1	-11
506.404	1	9
507.596	1	5
508.788	1	6
509.979	1	5
511.171	1	-3
512.362	1	7
513.553	1	3
514.745	1	3
515.936	1	7
517.127	1	4
518.319	1	-5
519.510	1	-8
520.701	1	-1
521.892	1	2
523.083	1	1
524.274	1	-3
525.465	1	11
526.656	1	3
527.847	1	-7
529.038	1	4
530.229	1	2
531.419	1	6
532.610	1	15
533.801	1	15
534.991	1	-9
536.182	1	2
537.373	1	-4
538.563	1	-1
539.754	1	6
540.944	1	0
542.134	1	7
543.325	1	4
544.515	1	2
545.705	1	1
546.896	1	12
548.086	1	12
549.276	1	8
550.466	1	-4
551.656	1	-1
552.846	1	4
554.036	1	2
555.226	1	-2
556.416	1	-1
557.606	1	-8
558.796	1	2
559.986	1	5
561.175	1	2
562.365	1	0
563.555	1	9
564.744	1	10
565.934	1	9
567.123	1	-1
568.313	1	-5
569.502	1	9
570.692	1	5
571.881	1	-11
573.070	1	10
574.260	1	2
575.449	1	-1
576.638	1	4
577.827	1	-3
579.016	1	-1
580.205	1	5
581.394	1	7
582.583	1	1
583.772	1	7
584.961	1	-6
586.150	1	13
587.339	1	-1
588.528	1	-3
589.717	1	5
590.905	1	4
592.094	1	8
593.283	1	5
594.471	1	-6
595.660	1	7
596.848	1	4
598.037	1	-5
599.225	1	-4
600.413	1	-7
601.602	1	4
602.790	1	1
603.978	1	-1
605.166	1	10
606.355	1	-14
607.543	1	9
608.731	1	-8
609.919	1	-6
611.107	1	12
612.295	1	11
613.483	1	3
614.671	1	-5
615.858	1	-6
617.046	1	-3
618.234	1	-2
619.422	1	13
620.609	1	-4
621.797	1	6
622.985	1	1
624.172	1	-4
625.360	1	2
626.547	1	-7
627.735	1	0
628.922	1	3
630.109	1	-1
631.297	1	2
632.484	1	3
633.671	1	9
634.858	1	-4
636.045	1	-16
637.232	1	7
638.419	1	-4
639.606	1	10
640.793	1	3
641.980	1	4
643.167	1	5
644.354	1	2
645.541	1	1
646.728	1	3
647.914	1	-1
649.101	1	6
650.288	1	2
651.474	1	2
652.661	1	5
653.847	1	8
655.034	1	-11
656.220	1	0
657.406	1	1
658.593	1	3
659.779	1	5
660.965	1	-2
662.152	1	0
663.338	1	-10
664.524	1	13
665.710	1	3
666.896	1	5
668.082	1	1
669.268	1	-9
670.454	1	6
671.640	1	3
672.826	1	1
674.011	1	9
675.197	1	3
676.383	1	-8
677.569	1	19
678.754	1	5
679.940	1	-1
681.125	1	-3
682.311	1	10
683.496	1	3
684.682	1	10
685.867	1	-2
687.053	1	15
688.238	1	7
688.746	1	-5