File: Data/GaN_150K_450ms/GaN_sample D_spot15_UVVIS_150 K_200um_450 ms 2x2mm1_270.txt
340.368	1	1
341.565	1	11
342.763	1	-1
343.960	1	-5
345.157	1	5
346.354	1	4
347.552	1	15
348.749	1	5
349.946	1	-2
351.143	1	4
352.340	1	7
353.537	1	-6
354.734	1	12
355.931	1	9
357.127	1	6
358.324	1	11
359.521	1	6
360.718	1	-2
361.914	1	8
363.111	1	3
364.308	1	4
365.504	1	4
366.701	1	2
367.897	1	6
369.093	1	14
370.290	1	14
371.486	1	19
372.682	1	13
373.879	1	11
375.075	1	0
376.271	1	7
377.467	1	16
378.663	1	14
379.859	1	3
381.055	1	-2
382.251	1	-7
383.447	1	6
384.643	1	-2
385.839	1	6
387.035	1	7
388.230	1	3
389.426	1	-15
390.622	1	-7
391.817	1	-13
393.013	1	14
394.208	1	-1
395.404	1	1
396.599	1	-1
397.795	1	6
398.990	1	14
400.186	1	6
401.381	1	2
402.576	1	0
403.771	1	-4
404.967	1	10
406.162	1	0
407.357	1	9
408.552	1	2
409.747	1	4
410.942	1	15
412.137	1	5
413.332	1	3
414.526	1	-3
415.721	1	5
416.916	1	-2
418.111	1	2
419.305	1	12
420.500	1	5
421.695	1	8
422.889	1	-3
424.084	1	0
425.278	1	1
426.472	1	14
427.667	1	3
428.861	1	9
430.055	1	2
431.250	1	11
432.444	1	14
433.638	1	6
434.832	1	1
436.026	1	-4
437.220	1	8
438.414	1	16
439.608	1	4
440.802	1	-3
441.996	1	-3
443.190	1	3
444.384	1	6
445.578	1	-10
446.771	1	-5
447.965	1	1
449.159	1	-7
450.352	1	3
451.546	1	8
452.739	1	-2
453.933	1	-5
455.126	1	0
456.320	1	15
457.513	1	1
458.706	1	9
459.899	1	1
461.093	1	7
462.286	1	4
463.479	1	-1
464.672	1	7
465.865	1	-1
467.058	1	-4
468.251	1	-8
469.444	1	3
470.637	1	-6
471.830	1	0
473.023	1	0
474.215	1	-4
475.408	1	1
476.601	1	-2
477.793	1	-7
478.986	1	5
480.179	1	2
481.371	1	-13
482.564	1	14
483.756	1	5
484.948	1	7
486.141	1	4
487.333	1	0
488.525	1	-4
489.718	1	-2
490.910	1	3
492.102	1	5
493.294	1	-1
494.486	1	-10
495.678	1	-15
496.870	1	-5
498.062	1	-2
499.254	1	-1
500.446	1	5
501.638	1	2
502.829	1	-1
504.021	1	5
505.213	1	10
506.404	1	9
507.596	1	11
508.788	1	-4
509.979	1	4
511.171	1	-1
512.362	1	5
513.553	1	4
514.745	1	0
515.936	1	3
517.127	1	5
518.319	1	12
519.510	1	-7
520.701	1	1
521.892	1	-3
523.083	1	-1
524.274	1	4
525.465	1	6
526.656	1	2
527.847	1	-4
529.038	1	-2
530.229	1	9
531.419	1	12
532.610	1	7
533.801	1	-1
534.991	1	-6
536.182	1	3
537.373	1	3
538.563	1	-3
539.754	1	7
540.944	1	10
542.134	1	11
543.325	1	3
544.515	1	6
545.705	1	3
546.896	1	2
548.086	1	10
549.276	1	4
550.466	1	-2
551.656	1	6
552.846	1	4
554.036	1	6
555.226	1	1
556.416	1	10
557.606	1	-6
558.796	1	11
559.986	1	10
561.175	1	-8
562.365	1	-3
563.555	1	5
564.744	1	11
565.934	1	11
567.123	1	0
568.313	1	-1
569.502	1	3
570.692	1	7
571.881	1	3
573.070	1	6
574.260	1	0
575.449	1	2
576.638	1	1
577.827	1	-4
579.016	1	7
580.205	1	-10
581.394	1	2
582.583	1	8
583.772	1	3
584.961	1	2
586.150	1	2
587.339	1	-1
588.528	1	-2
589.717	1	-2
590.905	1	0
592.094	1	5
593.283	1	1
594.471	1	-5
595.660	1	10
596.848	1	9
598.037	1	3
599.225	1	8
600.413	1	2
601.602	1	2
602.790	1	-1
603.978	1	6
605.166	1	0
606.355	1	-18
607.543	1	3
608.731	1	-1
609.919	1	-2
611.107	1	14
612.295	1	4
613.483	1	8
614.671	1	1
615.858	1	-6
617.046	1	-12
618.234	1	-3
619.422	1	10
620.609	1	-2
621.797	1	8
622.985	1	7
624.172	1	4
625.360	1	-3
626.547	1	-9
627.735	1	4
628.922	1	2
630.109	1	2
631.297	1	4
632.484	1	11
633.671	1	9
634.858	1	7
636.045	1	0
637.232	1	3
638.419	1	8
639.606	1	13
640.793	1	2
641.980	1	7
643.167	1	11
644.354	1	5
645.541	1	-7
646.728	1	2
647.914	1	6
649.101	1	-3
650.288	1	5
651.474	1	8
652.661	1	3
653.847	1	7
655.034	1	5
656.220	1	10
657.406	1	-5
658.593	1	10
659.779	1	6
660.965	1	-5
662.152	1	12
663.338	1	-8
664.524	1	6
665.710	1	2
666.896	1	5
668.082	1	10
669.268	1	-13
670.454	1	13
671.640	1	6
672.826	1	-2
674.011	1	10
675.197	1	6
676.383	1	1
677.569	1	8
678.754	1	6
679.940	1	-9
681.125	1	-4
682.311	1	4
683.496	1	3
684.682	1	13
685.867	1	5
687.053	1	9
688.238	1	1
688.746	1	1