File: Data/GaN_150K_450ms/GaN_sample D_spot15_UVVIS_150 K_200um_450 ms 2x2mm1_109.txt
340.368	1	1
341.565	1	-4
342.763	1	6
343.960	1	2
345.157	1	12
346.354	1	7
347.552	1	16
348.749	1	8
349.946	1	4
351.143	1	11
352.340	1	6
353.537	1	3
354.734	1	8
355.931	1	12
357.127	1	21
358.324	1	10
359.521	1	24
360.718	1	19
361.914	1	23
363.111	1	36
364.308	1	45
365.504	1	50
366.701	1	63
367.897	1	82
369.093	1	67
370.290	1	74
371.486	1	62
372.682	1	65
373.879	1	39
375.075	1	35
376.271	1	26
377.467	1	46
378.663	1	25
379.859	1	16
381.055	1	15
382.251	1	13
383.447	1	17
384.643	1	12
385.839	1	15
387.035	1	18
388.230	1	8
389.426	1	9
390.622	1	1
391.817	1	2
393.013	1	21
394.208	1	15
395.404	1	9
396.599	1	6
397.795	1	13
398.990	1	20
400.186	1	16
401.381	1	3
402.576	1	17
403.771	1	-2
404.967	1	7
406.162	1	7
407.357	1	8
408.552	1	0
409.747	1	18
410.942	1	20
412.137	1	3
413.332	1	14
414.526	1	4
415.721	1	11
416.916	1	11
418.111	1	1
419.305	1	19
420.500	1	16
421.695	1	18
422.889	1	13
424.084	1	4
425.278	1	14
426.472	1	16
427.667	1	5
428.861	1	22
430.055	1	19
431.250	1	24
432.444	1	18
433.638	1	21
434.832	1	16
436.026	1	13
437.220	1	14
438.414	1	11
439.608	1	4
440.802	1	8
441.996	1	6
443.190	1	5
444.384	1	13
445.578	1	11
446.771	1	7
447.965	1	11
449.159	1	8
450.352	1	4
451.546	1	11
452.739	1	11
453.933	1	-3
455.126	1	5
456.320	1	13
457.513	1	8
458.706	1	13
459.899	1	2
461.093	1	7
462.286	1	8
463.479	1	1
464.672	1	3
465.865	1	2
467.058	1	3
468.251	1	10
469.444	1	10
470.637	1	9
471.830	1	9
473.023	1	10
474.215	1	6
475.408	1	13
476.601	1	7
477.793	1	4
478.986	1	17
480.179	1	8
481.371	1	-3
482.564	1	8
483.756	1	9
484.948	1	10
486.141	1	13
487.333	1	0
488.525	1	-2
489.718	1	3
490.910	1	17
492.102	1	6
493.294	1	0
494.486	1	6
495.678	1	8
496.870	1	9
498.062	1	7
499.254	1	2
500.446	1	4
501.638	1	17
502.829	1	14
504.021	1	18
505.213	1	7
506.404	1	17
507.596	1	19
508.788	1	17
509.979	1	12
511.171	1	19
512.362	1	22
513.553	1	29
514.745	1	13
515.936	1	12
517.127	1	29
518.319	1	16
519.510	1	14
520.701	1	26
521.892	1	15
523.083	1	19
524.274	1	16
525.465	1	28
526.656	1	17
527.847	1	9
529.038	1	13
530.229	1	32
531.419	1	26
532.610	1	25
533.801	1	24
534.991	1	13
536.182	1	21
537.373	1	22
538.563	1	25
539.754	1	15
540.944	1	27
542.134	1	22
543.325	1	27
544.515	1	17
545.705	1	18
546.896	1	25
548.086	1	11
549.276	1	19
550.466	1	10
551.656	1	26
552.846	1	14
554.036	1	17
555.226	1	18
556.416	1	19
557.606	1	14
558.796	1	18
559.986	1	15
561.175	1	9
562.365	1	11
563.555	1	13
564.744	1	23
565.934	1	20
567.123	1	4
568.313	1	6
569.502	1	11
570.692	1	16
571.881	1	-2
573.070	1	11
574.260	1	12
575.449	1	0
576.638	1	19
577.827	1	5
579.016	1	8
580.205	1	9
581.394	1	1
582.583	1	15
583.772	1	12
584.961	1	0
586.150	1	10
587.339	1	10
588.528	1	4
589.717	1	13
590.905	1	14
592.094	1	15
593.283	1	11
594.471	1	0
595.660	1	7
596.848	1	8
598.037	1	8
599.225	1	8
600.413	1	6
601.602	1	17
602.790	1	3
603.978	1	10
605.166	1	3
606.355	1	-4
607.543	1	13
608.731	1	6
609.919	1	-5
611.107	1	9
612.295	1	11
613.483	1	5
614.671	1	3
615.858	1	0
617.046	1	6
618.234	1	1
619.422	1	17
620.609	1	6
621.797	1	9
622.985	1	-2
624.172	1	8
625.360	1	5
626.547	1	-2
627.735	1	0
628.922	1	9
630.109	1	-1
631.297	1	8
632.484	1	8
633.671	1	13
634.858	1	14
636.045	1	1
637.232	1	12
638.419	1	-9
639.606	1	14
640.793	1	3
641.980	1	15
643.167	1	3
644.354	1	13
645.541	1	5
646.728	1	8
647.914	1	1
649.101	1	0
650.288	1	4
651.474	1	1
652.661	1	6
653.847	1	14
655.034	1	-2
656.220	1	2
657.406	1	1
658.593	1	19
659.779	1	17
660.965	1	6
662.152	1	3
663.338	1	4
664.524	1	8
665.710	1	11
666.896	1	9
668.082	1	1
669.268	1	-1
670.454	1	1
671.640	1	12
672.826	1	-2
674.011	1	8
675.197	1	10
676.383	1	1
677.569	1	15
678.754	1	6
679.940	1	-3
681.125	1	0
682.311	1	14
683.496	1	-2
684.682	1	8
685.867	1	4
687.053	1	22
688.238	1	9
688.746	1	-4