File: Data/GaN_150K_450ms/GaN_sample D_spot15_UVVIS_150 K_200um_450 ms 2x2mm1_153.txt
340.368	1	-6
341.565	1	12
342.763	1	-6
343.960	1	6
345.157	1	20
346.354	1	7
347.552	1	12
348.749	1	9
349.946	1	9
351.143	1	17
352.340	1	8
353.537	1	-1
354.734	1	-4
355.931	1	9
357.127	1	6
358.324	1	16
359.521	1	21
360.718	1	9
361.914	1	18
363.111	1	11
364.308	1	27
365.504	1	24
366.701	1	30
367.897	1	36
369.093	1	29
370.290	1	42
371.486	1	32
372.682	1	33
373.879	1	27
375.075	1	17
376.271	1	9
377.467	1	27
378.663	1	20
379.859	1	7
381.055	1	11
382.251	1	-1
383.447	1	10
384.643	1	8
385.839	1	5
387.035	1	7
388.230	1	0
389.426	1	5
390.622	1	-3
391.817	1	-8
393.013	1	14
394.208	1	9
395.404	1	18
396.599	1	14
397.795	1	12
398.990	1	13
400.186	1	15
401.381	1	2
402.576	1	4
403.771	1	-2
404.967	1	13
406.162	1	-2
407.357	1	11
408.552	1	6
409.747	1	11
410.942	1	12
412.137	1	7
413.332	1	8
414.526	1	0
415.721	1	15
416.916	1	12
418.111	1	4
419.305	1	9
420.500	1	-1
421.695	1	13
422.889	1	5
424.084	1	8
425.278	1	6
426.472	1	18
427.667	1	7
428.861	1	13
430.055	1	12
431.250	1	11
432.444	1	14
433.638	1	8
434.832	1	5
436.026	1	-2
437.220	1	17
438.414	1	15
439.608	1	5
440.802	1	12
441.996	1	6
443.190	1	4
444.384	1	11
445.578	1	0
446.771	1	5
447.965	1	5
449.159	1	2
450.352	1	-1
451.546	1	4
452.739	1	6
453.933	1	-3
455.126	1	-2
456.320	1	14
457.513	1	8
458.706	1	15
459.899	1	-4
461.093	1	-1
462.286	1	5
463.479	1	-3
464.672	1	8
465.865	1	7
467.058	1	5
468.251	1	-3
469.444	1	2
470.637	1	-5
471.830	1	0
473.023	1	7
474.215	1	15
475.408	1	16
476.601	1	3
477.793	1	-5
478.986	1	6
480.179	1	3
481.371	1	-2
482.564	1	12
483.756	1	9
484.948	1	3
486.141	1	7
487.333	1	0
488.525	1	9
489.718	1	0
490.910	1	12
492.102	1	6
493.294	1	2
494.486	1	4
495.678	1	8
496.870	1	8
498.062	1	1
499.254	1	4
500.446	1	9
501.638	1	9
502.829	1	7
504.021	1	14
505.213	1	-2
506.404	1	14
507.596	1	17
508.788	1	4
509.979	1	7
511.171	1	9
512.362	1	10
513.553	1	12
514.745	1	8
515.936	1	-1
517.127	1	6
518.319	1	3
519.510	1	6
520.701	1	14
521.892	1	12
523.083	1	5
524.274	1	10
525.465	1	14
526.656	1	9
527.847	1	3
529.038	1	6
530.229	1	23
531.419	1	9
532.610	1	10
533.801	1	12
534.991	1	8
536.182	1	-1
537.373	1	12
538.563	1	11
539.754	1	4
540.944	1	10
542.134	1	12
543.325	1	20
544.515	1	7
545.705	1	11
546.896	1	8
548.086	1	14
549.276	1	11
550.466	1	4
551.656	1	13
552.846	1	5
554.036	1	10
555.226	1	-3
556.416	1	2
557.606	1	1
558.796	1	11
559.986	1	3
561.175	1	3
562.365	1	10
563.555	1	6
564.744	1	10
565.934	1	20
567.123	1	-1
568.313	1	9
569.502	1	11
570.692	1	7
571.881	1	14
573.070	1	5
574.260	1	0
575.449	1	2
576.638	1	15
577.827	1	1
579.016	1	12
580.205	1	3
581.394	1	-2
582.583	1	11
583.772	1	8
584.961	1	2
586.150	1	7
587.339	1	2
588.528	1	4
589.717	1	7
590.905	1	3
592.094	1	10
593.283	1	12
594.471	1	-6
595.660	1	0
596.848	1	4
598.037	1	-1
599.225	1	1
600.413	1	8
601.602	1	2
602.790	1	8
603.978	1	5
605.166	1	5
606.355	1	-10
607.543	1	-1
608.731	1	-12
609.919	1	-3
611.107	1	14
612.295	1	10
613.483	1	7
614.671	1	4
615.858	1	-7
617.046	1	-2
618.234	1	4
619.422	1	20
620.609	1	2
621.797	1	7
622.985	1	3
624.172	1	5
625.360	1	2
626.547	1	-8
627.735	1	9
628.922	1	11
630.109	1	0
631.297	1	6
632.484	1	12
633.671	1	7
634.858	1	1
636.045	1	-9
637.232	1	7
638.419	1	0
639.606	1	8
640.793	1	1
641.980	1	9
643.167	1	6
644.354	1	13
645.541	1	4
646.728	1	4
647.914	1	4
649.101	1	5
650.288	1	9
651.474	1	13
652.661	1	8
653.847	1	4
655.034	1	-6
656.220	1	7
657.406	1	4
658.593	1	3
659.779	1	5
660.965	1	4
662.152	1	7
663.338	1	9
664.524	1	7
665.710	1	0
666.896	1	-3
668.082	1	-2
669.268	1	7
670.454	1	13
671.640	1	15
672.826	1	2
674.011	1	6
675.197	1	10
676.383	1	-4
677.569	1	13
678.754	1	11
679.940	1	-5
681.125	1	-5
682.311	1	9
683.496	1	3
684.682	1	14
685.867	1	5
687.053	1	25
688.238	1	8
688.746	1	3