File: Data/GaN_150K_450ms/GaN_sample D_spot15_UVVIS_150 K_200um_450 ms 2x2mm1_92.txt
340.368	1	6
341.565	1	11
342.763	1	-5
343.960	1	8
345.157	1	2
346.354	1	11
347.552	1	9
348.749	1	14
349.946	1	-3
351.143	1	6
352.340	1	17
353.537	1	3
354.734	1	10
355.931	1	24
357.127	1	26
358.324	1	15
359.521	1	30
360.718	1	28
361.914	1	49
363.111	1	45
364.308	1	75
365.504	1	85
366.701	1	101
367.897	1	112
369.093	1	128
370.290	1	109
371.486	1	87
372.682	1	71
373.879	1	57
375.075	1	46
376.271	1	31
377.467	1	45
378.663	1	29
379.859	1	28
381.055	1	36
382.251	1	14
383.447	1	20
384.643	1	13
385.839	1	26
387.035	1	22
388.230	1	20
389.426	1	9
390.622	1	13
391.817	1	2
393.013	1	20
394.208	1	13
395.404	1	18
396.599	1	19
397.795	1	9
398.990	1	20
400.186	1	10
401.381	1	8
402.576	1	18
403.771	1	6
404.967	1	15
406.162	1	9
407.357	1	19
408.552	1	-5
409.747	1	12
410.942	1	18
412.137	1	10
413.332	1	16
414.526	1	1
415.721	1	5
416.916	1	8
418.111	1	26
419.305	1	15
420.500	1	19
421.695	1	22
422.889	1	24
424.084	1	21
425.278	1	18
426.472	1	22
427.667	1	16
428.861	1	23
430.055	1	20
431.250	1	17
432.444	1	19
433.638	1	21
434.832	1	6
436.026	1	22
437.220	1	17
438.414	1	16
439.608	1	0
440.802	1	21
441.996	1	19
443.190	1	14
444.384	1	14
445.578	1	6
446.771	1	19
447.965	1	9
449.159	1	7
450.352	1	13
451.546	1	8
452.739	1	9
453.933	1	3
455.126	1	12
456.320	1	23
457.513	1	5
458.706	1	19
459.899	1	6
461.093	1	0
462.286	1	6
463.479	1	8
464.672	1	15
465.865	1	2
467.058	1	5
468.251	1	5
469.444	1	15
470.637	1	8
471.830	1	12
473.023	1	7
474.215	1	8
475.408	1	12
476.601	1	11
477.793	1	9
478.986	1	14
480.179	1	9
481.371	1	3
482.564	1	4
483.756	1	6
484.948	1	7
486.141	1	12
487.333	1	2
488.525	1	10
489.718	1	4
490.910	1	14
492.102	1	13
493.294	1	1
494.486	1	5
495.678	1	8
496.870	1	19
498.062	1	18
499.254	1	10
500.446	1	15
501.638	1	26
502.829	1	14
504.021	1	20
505.213	1	13
506.404	1	21
507.596	1	28
508.788	1	27
509.979	1	28
511.171	1	30
512.362	1	23
513.553	1	26
514.745	1	36
515.936	1	18
517.127	1	50
518.319	1	29
519.510	1	30
520.701	1	35
521.892	1	33
523.083	1	27
524.274	1	28
525.465	1	34
526.656	1	31
527.847	1	24
529.038	1	39
530.229	1	36
531.419	1	31
532.610	1	44
533.801	1	43
534.991	1	35
536.182	1	27
537.373	1	23
538.563	1	22
539.754	1	33
540.944	1	29
542.134	1	29
543.325	1	23
544.515	1	19
545.705	1	36
546.896	1	34
548.086	1	25
549.276	1	23
550.466	1	29
551.656	1	21
552.846	1	27
554.036	1	33
555.226	1	29
556.416	1	20
557.606	1	10
558.796	1	28
559.986	1	25
561.175	1	21
562.365	1	26
563.555	1	21
564.744	1	21
565.934	1	31
567.123	1	14
568.313	1	17
569.502	1	13
570.692	1	19
571.881	1	10
573.070	1	15
574.260	1	20
575.449	1	9
576.638	1	14
577.827	1	10
579.016	1	13
580.205	1	25
581.394	1	7
582.583	1	14
583.772	1	19
584.961	1	-1
586.150	1	9
587.339	1	13
588.528	1	8
589.717	1	9
590.905	1	8
592.094	1	16
593.283	1	5
594.471	1	8
595.660	1	10
596.848	1	16
598.037	1	10
599.225	1	0
600.413	1	5
601.602	1	25
602.790	1	10
603.978	1	8
605.166	1	7
606.355	1	-1
607.543	1	8
608.731	1	-3
609.919	1	14
611.107	1	14
612.295	1	5
613.483	1	10
614.671	1	4
615.858	1	-1
617.046	1	2
618.234	1	-6
619.422	1	18
620.609	1	7
621.797	1	7
622.985	1	-2
624.172	1	11
625.360	1	6
626.547	1	-9
627.735	1	4
628.922	1	12
630.109	1	-5
631.297	1	9
632.484	1	10
633.671	1	16
634.858	1	7
636.045	1	3
637.232	1	9
638.419	1	7
639.606	1	16
640.793	1	2
641.980	1	13
643.167	1	10
644.354	1	18
645.541	1	6
646.728	1	7
647.914	1	8
649.101	1	6
650.288	1	10
651.474	1	9
652.661	1	2
653.847	1	6
655.034	1	0
656.220	1	4
657.406	1	-6
658.593	1	21
659.779	1	7
660.965	1	13
662.152	1	6
663.338	1	0
664.524	1	4
665.710	1	13
666.896	1	15
668.082	1	8
669.268	1	0
670.454	1	18
671.640	1	6
672.826	1	8
674.011	1	8
675.197	1	-1
676.383	1	0
677.569	1	23
678.754	1	11
679.940	1	1
681.125	1	4
682.311	1	13
683.496	1	8
684.682	1	9
685.867	1	10
687.053	1	19
688.238	1	15
688.746	1	6