File: Data/GaN_150K_450ms/GaN_sample D_spot15_UVVIS_150 K_200um_450 ms 2x2mm1_138.txt
340.368	1	4
341.565	1	7
342.763	1	1
343.960	1	3
345.157	1	9
346.354	1	-1
347.552	1	14
348.749	1	9
349.946	1	1
351.143	1	2
352.340	1	8
353.537	1	0
354.734	1	4
355.931	1	11
357.127	1	16
358.324	1	16
359.521	1	25
360.718	1	20
361.914	1	20
363.111	1	16
364.308	1	15
365.504	1	25
366.701	1	39
367.897	1	44
369.093	1	53
370.290	1	43
371.486	1	48
372.682	1	42
373.879	1	26
375.075	1	14
376.271	1	11
377.467	1	24
378.663	1	11
379.859	1	11
381.055	1	8
382.251	1	5
383.447	1	10
384.643	1	8
385.839	1	11
387.035	1	10
388.230	1	12
389.426	1	1
390.622	1	2
391.817	1	-7
393.013	1	7
394.208	1	4
395.404	1	18
396.599	1	7
397.795	1	2
398.990	1	16
400.186	1	15
401.381	1	10
402.576	1	7
403.771	1	5
404.967	1	16
406.162	1	8
407.357	1	19
408.552	1	7
409.747	1	9
410.942	1	17
412.137	1	7
413.332	1	2
414.526	1	-2
415.721	1	10
416.916	1	3
418.111	1	9
419.305	1	10
420.500	1	17
421.695	1	14
422.889	1	11
424.084	1	8
425.278	1	13
426.472	1	13
427.667	1	2
428.861	1	7
430.055	1	10
431.250	1	11
432.444	1	10
433.638	1	16
434.832	1	3
436.026	1	10
437.220	1	22
438.414	1	21
439.608	1	2
440.802	1	10
441.996	1	16
443.190	1	18
444.384	1	10
445.578	1	6
446.771	1	11
447.965	1	2
449.159	1	8
450.352	1	4
451.546	1	11
452.739	1	5
453.933	1	5
455.126	1	6
456.320	1	15
457.513	1	1
458.706	1	6
459.899	1	1
461.093	1	11
462.286	1	7
463.479	1	0
464.672	1	10
465.865	1	7
467.058	1	10
468.251	1	-2
469.444	1	13
470.637	1	9
471.830	1	0
473.023	1	11
474.215	1	7
475.408	1	2
476.601	1	11
477.793	1	2
478.986	1	11
480.179	1	1
481.371	1	-5
482.564	1	16
483.756	1	4
484.948	1	13
486.141	1	6
487.333	1	-1
488.525	1	3
489.718	1	-1
490.910	1	6
492.102	1	12
493.294	1	-1
494.486	1	0
495.678	1	5
496.870	1	13
498.062	1	3
499.254	1	2
500.446	1	-2
501.638	1	17
502.829	1	1
504.021	1	5
505.213	1	3
506.404	1	11
507.596	1	17
508.788	1	10
509.979	1	3
511.171	1	11
512.362	1	11
513.553	1	11
514.745	1	5
515.936	1	7
517.127	1	16
518.319	1	11
519.510	1	1
520.701	1	13
521.892	1	3
523.083	1	5
524.274	1	7
525.465	1	24
526.656	1	15
527.847	1	4
529.038	1	7
530.229	1	1
531.419	1	12
532.610	1	20
533.801	1	20
534.991	1	8
536.182	1	16
537.373	1	9
538.563	1	7
539.754	1	7
540.944	1	5
542.134	1	10
543.325	1	15
544.515	1	15
545.705	1	8
546.896	1	13
548.086	1	6
549.276	1	18
550.466	1	9
551.656	1	13
552.846	1	15
554.036	1	14
555.226	1	8
556.416	1	8
557.606	1	0
558.796	1	12
559.986	1	16
561.175	1	-5
562.365	1	5
563.555	1	7
564.744	1	11
565.934	1	16
567.123	1	11
568.313	1	9
569.502	1	22
570.692	1	10
571.881	1	6
573.070	1	8
574.260	1	8
575.449	1	1
576.638	1	7
577.827	1	-1
579.016	1	13
580.205	1	-7
581.394	1	1
582.583	1	8
583.772	1	10
584.961	1	4
586.150	1	14
587.339	1	7
588.528	1	7
589.717	1	4
590.905	1	6
592.094	1	10
593.283	1	8
594.471	1	0
595.660	1	5
596.848	1	5
598.037	1	5
599.225	1	0
600.413	1	2
601.602	1	8
602.790	1	10
603.978	1	2
605.166	1	3
606.355	1	-9
607.543	1	8
608.731	1	-9
609.919	1	-4
611.107	1	15
612.295	1	12
613.483	1	9
614.671	1	2
615.858	1	-5
617.046	1	-3
618.234	1	-6
619.422	1	9
620.609	1	4
621.797	1	-1
622.985	1	-8
624.172	1	7
625.360	1	4
626.547	1	-1
627.735	1	5
628.922	1	3
630.109	1	-1
631.297	1	6
632.484	1	11
633.671	1	4
634.858	1	4
636.045	1	0
637.232	1	3
638.419	1	2
639.606	1	3
640.793	1	-5
641.980	1	10
643.167	1	11
644.354	1	7
645.541	1	6
646.728	1	3
647.914	1	6
649.101	1	3
650.288	1	17
651.474	1	6
652.661	1	5
653.847	1	0
655.034	1	2
656.220	1	17
657.406	1	-8
658.593	1	13
659.779	1	9
660.965	1	-4
662.152	1	7
663.338	1	-3
664.524	1	14
665.710	1	0
666.896	1	8
668.082	1	-2
669.268	1	-7
670.454	1	12
671.640	1	1
672.826	1	3
674.011	1	2
675.197	1	7
676.383	1	-5
677.569	1	6
678.754	1	2
679.940	1	-4
681.125	1	4
682.311	1	6
683.496	1	-3
684.682	1	9
685.867	1	6
687.053	1	22
688.238	1	14
688.746	1	2