File: Data/GaN_150K_450ms/GaN_sample D_spot15_UVVIS_150 K_200um_450 ms 2x2mm1_249.txt
340.368	1	5
341.565	1	8
342.763	1	5
343.960	1	6
345.157	1	9
346.354	1	7
347.552	1	15
348.749	1	5
349.946	1	-1
351.143	1	15
352.340	1	3
353.537	1	-5
354.734	1	-1
355.931	1	9
357.127	1	2
358.324	1	8
359.521	1	16
360.718	1	8
361.914	1	3
363.111	1	-2
364.308	1	9
365.504	1	4
366.701	1	16
367.897	1	18
369.093	1	13
370.290	1	16
371.486	1	14
372.682	1	13
373.879	1	-2
375.075	1	10
376.271	1	4
377.467	1	11
378.663	1	11
379.859	1	5
381.055	1	5
382.251	1	-12
383.447	1	8
384.643	1	1
385.839	1	3
387.035	1	11
388.230	1	2
389.426	1	0
390.622	1	-2
391.817	1	-4
393.013	1	6
394.208	1	4
395.404	1	6
396.599	1	6
397.795	1	4
398.990	1	8
400.186	1	4
401.381	1	6
402.576	1	9
403.771	1	-7
404.967	1	3
406.162	1	2
407.357	1	6
408.552	1	-7
409.747	1	-5
410.942	1	10
412.137	1	-4
413.332	1	0
414.526	1	1
415.721	1	4
416.916	1	0
418.111	1	9
419.305	1	8
420.500	1	6
421.695	1	6
422.889	1	4
424.084	1	1
425.278	1	8
426.472	1	13
427.667	1	-1
428.861	1	7
430.055	1	11
431.250	1	8
432.444	1	-5
433.638	1	9
434.832	1	7
436.026	1	-5
437.220	1	11
438.414	1	8
439.608	1	-8
440.802	1	-2
441.996	1	0
443.190	1	6
444.384	1	1
445.578	1	4
446.771	1	4
447.965	1	-3
449.159	1	5
450.352	1	5
451.546	1	5
452.739	1	6
453.933	1	-5
455.126	1	-4
456.320	1	8
457.513	1	5
458.706	1	16
459.899	1	4
461.093	1	1
462.286	1	5
463.479	1	-3
464.672	1	6
465.865	1	1
467.058	1	10
468.251	1	0
469.444	1	-6
470.637	1	-3
471.830	1	5
473.023	1	12
474.215	1	3
475.408	1	1
476.601	1	3
477.793	1	2
478.986	1	-2
480.179	1	1
481.371	1	-1
482.564	1	-1
483.756	1	12
484.948	1	5
486.141	1	-1
487.333	1	-5
488.525	1	-9
489.718	1	0
490.910	1	-1
492.102	1	7
493.294	1	-3
494.486	1	-3
495.678	1	0
496.870	1	2
498.062	1	-1
499.254	1	0
500.446	1	-2
501.638	1	6
502.829	1	-4
504.021	1	-3
505.213	1	-4
506.404	1	9
507.596	1	10
508.788	1	12
509.979	1	2
511.171	1	3
512.362	1	14
513.553	1	2
514.745	1	6
515.936	1	5
517.127	1	14
518.319	1	-3
519.510	1	-6
520.701	1	13
521.892	1	7
523.083	1	-4
524.274	1	10
525.465	1	5
526.656	1	7
527.847	1	0
529.038	1	5
530.229	1	5
531.419	1	-3
532.610	1	6
533.801	1	7
534.991	1	-2
536.182	1	-1
537.373	1	1
538.563	1	-2
539.754	1	11
540.944	1	7
542.134	1	-1
543.325	1	13
544.515	1	2
545.705	1	-2
546.896	1	3
548.086	1	7
549.276	1	4
550.466	1	4
551.656	1	8
552.846	1	8
554.036	1	6
555.226	1	6
556.416	1	1
557.606	1	-2
558.796	1	2
559.986	1	10
561.175	1	6
562.365	1	0
563.555	1	5
564.744	1	8
565.934	1	12
567.123	1	9
568.313	1	2
569.502	1	5
570.692	1	12
571.881	1	5
573.070	1	10
574.260	1	6
575.449	1	0
576.638	1	15
577.827	1	-3
579.016	1	3
580.205	1	4
581.394	1	0
582.583	1	2
583.772	1	13
584.961	1	-6
586.150	1	2
587.339	1	1
588.528	1	-4
589.717	1	7
590.905	1	0
592.094	1	11
593.283	1	11
594.471	1	-4
595.660	1	7
596.848	1	5
598.037	1	2
599.225	1	-2
600.413	1	-2
601.602	1	7
602.790	1	4
603.978	1	-5
605.166	1	-2
606.355	1	-14
607.543	1	13
608.731	1	-10
609.919	1	-7
611.107	1	9
612.295	1	9
613.483	1	-4
614.671	1	3
615.858	1	-6
617.046	1	3
618.234	1	-5
619.422	1	11
620.609	1	-1
621.797	1	8
622.985	1	0
624.172	1	2
625.360	1	2
626.547	1	2
627.735	1	6
628.922	1	2
630.109	1	1
631.297	1	14
632.484	1	8
633.671	1	13
634.858	1	5
636.045	1	-2
637.232	1	-3
638.419	1	-3
639.606	1	5
640.793	1	3
641.980	1	4
643.167	1	3
644.354	1	6
645.541	1	0
646.728	1	8
647.914	1	-2
649.101	1	-6
650.288	1	3
651.474	1	5
652.661	1	10
653.847	1	1
655.034	1	1
656.220	1	-2
657.406	1	6
658.593	1	11
659.779	1	9
660.965	1	1
662.152	1	-2
663.338	1	0
664.524	1	8
665.710	1	1
666.896	1	2
668.082	1	0
669.268	1	-1
670.454	1	5
671.640	1	6
672.826	1	5
674.011	1	11
675.197	1	15
676.383	1	-1
677.569	1	10
678.754	1	3
679.940	1	-3
681.125	1	-1
682.311	1	8
683.496	1	-13
684.682	1	8
685.867	1	-2
687.053	1	12
688.238	1	9
688.746	1	0