File: Data/GaN_150K_450ms/GaN_sample D_spot15_UVVIS_150 K_200um_450 ms 2x2mm1_115.txt
340.368	1	1
341.565	1	9
342.763	1	-3
343.960	1	10
345.157	1	8
346.354	1	7
347.552	1	26
348.749	1	17
349.946	1	14
351.143	1	11
352.340	1	12
353.537	1	-1
354.734	1	7
355.931	1	12
357.127	1	10
358.324	1	10
359.521	1	19
360.718	1	18
361.914	1	19
363.111	1	23
364.308	1	41
365.504	1	45
366.701	1	56
367.897	1	74
369.093	1	74
370.290	1	75
371.486	1	63
372.682	1	37
373.879	1	40
375.075	1	25
376.271	1	18
377.467	1	43
378.663	1	24
379.859	1	17
381.055	1	14
382.251	1	3
383.447	1	5
384.643	1	9
385.839	1	13
387.035	1	20
388.230	1	24
389.426	1	12
390.622	1	13
391.817	1	2
393.013	1	8
394.208	1	11
395.404	1	16
396.599	1	6
397.795	1	8
398.990	1	16
400.186	1	16
401.381	1	7
402.576	1	9
403.771	1	-4
404.967	1	-4
406.162	1	0
407.357	1	9
408.552	1	9
409.747	1	0
410.942	1	23
412.137	1	-1
413.332	1	15
414.526	1	2
415.721	1	10
416.916	1	6
418.111	1	15
419.305	1	14
420.500	1	8
421.695	1	8
422.889	1	11
424.084	1	13
425.278	1	25
426.472	1	8
427.667	1	10
428.861	1	12
430.055	1	20
431.250	1	14
432.444	1	13
433.638	1	20
434.832	1	16
436.026	1	2
437.220	1	27
438.414	1	16
439.608	1	10
440.802	1	13
441.996	1	9
443.190	1	11
444.384	1	15
445.578	1	0
446.771	1	12
447.965	1	17
449.159	1	4
450.352	1	13
451.546	1	-4
452.739	1	8
453.933	1	9
455.126	1	13
456.320	1	15
457.513	1	9
458.706	1	20
459.899	1	6
461.093	1	9
462.286	1	4
463.479	1	3
464.672	1	9
465.865	1	1
467.058	1	6
468.251	1	-2
469.444	1	7
470.637	1	8
471.830	1	7
473.023	1	15
474.215	1	-1
475.408	1	9
476.601	1	3
477.793	1	10
478.986	1	6
480.179	1	6
481.371	1	-5
482.564	1	16
483.756	1	14
484.948	1	7
486.141	1	9
487.333	1	3
488.525	1	0
489.718	1	8
490.910	1	13
492.102	1	9
493.294	1	-1
494.486	1	11
495.678	1	9
496.870	1	11
498.062	1	16
499.254	1	-3
500.446	1	10
501.638	1	9
502.829	1	8
504.021	1	18
505.213	1	12
506.404	1	6
507.596	1	14
508.788	1	14
509.979	1	10
511.171	1	16
512.362	1	17
513.553	1	9
514.745	1	15
515.936	1	17
517.127	1	32
518.319	1	9
519.510	1	17
520.701	1	18
521.892	1	12
523.083	1	15
524.274	1	26
525.465	1	22
526.656	1	25
527.847	1	11
529.038	1	17
530.229	1	30
531.419	1	24
532.610	1	21
533.801	1	22
534.991	1	11
536.182	1	19
537.373	1	13
538.563	1	4
539.754	1	19
540.944	1	11
542.134	1	21
543.325	1	16
544.515	1	15
545.705	1	14
546.896	1	15
548.086	1	25
549.276	1	23
550.466	1	12
551.656	1	5
552.846	1	17
554.036	1	15
555.226	1	15
556.416	1	18
557.606	1	3
558.796	1	24
559.986	1	17
561.175	1	11
562.365	1	14
563.555	1	20
564.744	1	14
565.934	1	18
567.123	1	3
568.313	1	17
569.502	1	12
570.692	1	13
571.881	1	9
573.070	1	11
574.260	1	12
575.449	1	7
576.638	1	11
577.827	1	6
579.016	1	4
580.205	1	11
581.394	1	16
582.583	1	10
583.772	1	8
584.961	1	-3
586.150	1	16
587.339	1	-4
588.528	1	5
589.717	1	2
590.905	1	0
592.094	1	18
593.283	1	6
594.471	1	-6
595.660	1	8
596.848	1	12
598.037	1	3
599.225	1	4
600.413	1	12
601.602	1	6
602.790	1	12
603.978	1	2
605.166	1	12
606.355	1	-8
607.543	1	4
608.731	1	-2
609.919	1	5
611.107	1	13
612.295	1	11
613.483	1	-8
614.671	1	6
615.858	1	0
617.046	1	3
618.234	1	7
619.422	1	20
620.609	1	-7
621.797	1	9
622.985	1	0
624.172	1	11
625.360	1	7
626.547	1	9
627.735	1	5
628.922	1	12
630.109	1	-3
631.297	1	8
632.484	1	12
633.671	1	14
634.858	1	5
636.045	1	3
637.232	1	1
638.419	1	3
639.606	1	9
640.793	1	5
641.980	1	12
643.167	1	-3
644.354	1	8
645.541	1	11
646.728	1	2
647.914	1	4
649.101	1	2
650.288	1	7
651.474	1	16
652.661	1	9
653.847	1	9
655.034	1	3
656.220	1	9
657.406	1	-4
658.593	1	9
659.779	1	10
660.965	1	8
662.152	1	11
663.338	1	8
664.524	1	20
665.710	1	8
666.896	1	9
668.082	1	8
669.268	1	6
670.454	1	12
671.640	1	5
672.826	1	5
674.011	1	1
675.197	1	16
676.383	1	0
677.569	1	17
678.754	1	4
679.940	1	-6
681.125	1	2
682.311	1	5
683.496	1	6
684.682	1	6
685.867	1	5
687.053	1	12
688.238	1	14
688.746	1	1