File: Data/GaN_150K_450ms/GaN_sample D_spot15_UVVIS_150 K_200um_450 ms 2x2mm1_338.txt
340.368	1	5
341.565	1	2
342.763	1	2
343.960	1	3
345.157	1	12
346.354	1	5
347.552	1	17
348.749	1	7
349.946	1	1
351.143	1	-3
352.340	1	12
353.537	1	-5
354.734	1	5
355.931	1	1
357.127	1	0
358.324	1	7
359.521	1	4
360.718	1	-2
361.914	1	0
363.111	1	2
364.308	1	6
365.504	1	6
366.701	1	3
367.897	1	5
369.093	1	16
370.290	1	11
371.486	1	13
372.682	1	5
373.879	1	7
375.075	1	0
376.271	1	-3
377.467	1	14
378.663	1	9
379.859	1	-1
381.055	1	-3
382.251	1	-14
383.447	1	-4
384.643	1	-1
385.839	1	5
387.035	1	17
388.230	1	-1
389.426	1	-6
390.622	1	-7
391.817	1	-8
393.013	1	6
394.208	1	7
395.404	1	14
396.599	1	-3
397.795	1	-4
398.990	1	2
400.186	1	7
401.381	1	-1
402.576	1	6
403.771	1	-7
404.967	1	8
406.162	1	1
407.357	1	-4
408.552	1	-11
409.747	1	-4
410.942	1	8
412.137	1	-9
413.332	1	3
414.526	1	-1
415.721	1	5
416.916	1	5
418.111	1	3
419.305	1	12
420.500	1	6
421.695	1	5
422.889	1	-2
424.084	1	6
425.278	1	-2
426.472	1	17
427.667	1	-2
428.861	1	8
430.055	1	8
431.250	1	8
432.444	1	6
433.638	1	7
434.832	1	3
436.026	1	-9
437.220	1	4
438.414	1	7
439.608	1	-4
440.802	1	-4
441.996	1	5
443.190	1	2
444.384	1	14
445.578	1	2
446.771	1	2
447.965	1	3
449.159	1	-5
450.352	1	-5
451.546	1	1
452.739	1	7
453.933	1	-2
455.126	1	2
456.320	1	1
457.513	1	-8
458.706	1	7
459.899	1	2
461.093	1	-2
462.286	1	-3
463.479	1	-1
464.672	1	1
465.865	1	-7
467.058	1	2
468.251	1	-3
469.444	1	-1
470.637	1	-1
471.830	1	-2
473.023	1	5
474.215	1	-4
475.408	1	1
476.601	1	-3
477.793	1	-3
478.986	1	7
480.179	1	15
481.371	1	-6
482.564	1	3
483.756	1	1
484.948	1	-1
486.141	1	4
487.333	1	1
488.525	1	-3
489.718	1	-4
490.910	1	3
492.102	1	5
493.294	1	-11
494.486	1	6
495.678	1	0
496.870	1	2
498.062	1	1
499.254	1	-9
500.446	1	-3
501.638	1	0
502.829	1	0
504.021	1	3
505.213	1	0
506.404	1	4
507.596	1	3
508.788	1	9
509.979	1	-5
511.171	1	0
512.362	1	8
513.553	1	4
514.745	1	-3
515.936	1	4
517.127	1	9
518.319	1	0
519.510	1	-19
520.701	1	5
521.892	1	7
523.083	1	1
524.274	1	0
525.465	1	15
526.656	1	-2
527.847	1	-9
529.038	1	2
530.229	1	4
531.419	1	-1
532.610	1	17
533.801	1	-1
534.991	1	-3
536.182	1	0
537.373	1	11
538.563	1	-7
539.754	1	-7
540.944	1	6
542.134	1	-6
543.325	1	4
544.515	1	7
545.705	1	-4
546.896	1	-1
548.086	1	4
549.276	1	5
550.466	1	-1
551.656	1	4
552.846	1	-2
554.036	1	7
555.226	1	-1
556.416	1	13
557.606	1	-8
558.796	1	10
559.986	1	4
561.175	1	-3
562.365	1	-2
563.555	1	5
564.744	1	4
565.934	1	6
567.123	1	4
568.313	1	10
569.502	1	-3
570.692	1	-1
571.881	1	0
573.070	1	3
574.260	1	-1
575.449	1	-2
576.638	1	4
577.827	1	-5
579.016	1	0
580.205	1	-4
581.394	1	2
582.583	1	-6
583.772	1	5
584.961	1	-7
586.150	1	5
587.339	1	0
588.528	1	-4
589.717	1	-2
590.905	1	-7
592.094	1	4
593.283	1	2
594.471	1	-2
595.660	1	6
596.848	1	8
598.037	1	-5
599.225	1	4
600.413	1	0
601.602	1	4
602.790	1	-7
603.978	1	-2
605.166	1	-1
606.355	1	-12
607.543	1	5
608.731	1	-7
609.919	1	-13
611.107	1	-1
612.295	1	1
613.483	1	0
614.671	1	2
615.858	1	-6
617.046	1	-9
618.234	1	-4
619.422	1	4
620.609	1	-3
621.797	1	4
622.985	1	2
624.172	1	-3
625.360	1	4
626.547	1	0
627.735	1	7
628.922	1	3
630.109	1	-5
631.297	1	-3
632.484	1	10
633.671	1	0
634.858	1	7
636.045	1	7
637.232	1	10
638.419	1	1
639.606	1	8
640.793	1	1
641.980	1	1
643.167	1	-5
644.354	1	10
645.541	1	2
646.728	1	10
647.914	1	-1
649.101	1	0
650.288	1	-1
651.474	1	9
652.661	1	8
653.847	1	-2
655.034	1	-8
656.220	1	10
657.406	1	-4
658.593	1	-4
659.779	1	12
660.965	1	-1
662.152	1	6
663.338	1	-5
664.524	1	16
665.710	1	1
666.896	1	-2
668.082	1	1
669.268	1	-9
670.454	1	3
671.640	1	3
672.826	1	-7
674.011	1	2
675.197	1	1
676.383	1	-4
677.569	1	12
678.754	1	4
679.940	1	1
681.125	1	2
682.311	1	9
683.496	1	-3
684.682	1	-3
685.867	1	5
687.053	1	12
688.238	1	-1
688.746	1	-4