File: Data/GaN_150K_450ms/GaN_sample D_spot15_UVVIS_150 K_200um_450 ms 2x2mm1_180.txt
340.368	1	6
341.565	1	3
342.763	1	-2
343.960	1	6
345.157	1	10
346.354	1	0
347.552	1	13
348.749	1	15
349.946	1	5
351.143	1	7
352.340	1	15
353.537	1	1
354.734	1	5
355.931	1	0
357.127	1	7
358.324	1	7
359.521	1	14
360.718	1	5
361.914	1	8
363.111	1	12
364.308	1	15
365.504	1	15
366.701	1	21
367.897	1	30
369.093	1	28
370.290	1	32
371.486	1	28
372.682	1	18
373.879	1	11
375.075	1	5
376.271	1	13
377.467	1	22
378.663	1	14
379.859	1	4
381.055	1	-1
382.251	1	1
383.447	1	8
384.643	1	1
385.839	1	4
387.035	1	6
388.230	1	9
389.426	1	2
390.622	1	3
391.817	1	0
393.013	1	6
394.208	1	-1
395.404	1	4
396.599	1	4
397.795	1	1
398.990	1	13
400.186	1	1
401.381	1	-1
402.576	1	0
403.771	1	5
404.967	1	10
406.162	1	1
407.357	1	4
408.552	1	5
409.747	1	3
410.942	1	24
412.137	1	0
413.332	1	3
414.526	1	-10
415.721	1	8
416.916	1	-2
418.111	1	9
419.305	1	11
420.500	1	3
421.695	1	9
422.889	1	4
424.084	1	8
425.278	1	9
426.472	1	14
427.667	1	4
428.861	1	16
430.055	1	10
431.250	1	14
432.444	1	13
433.638	1	17
434.832	1	5
436.026	1	2
437.220	1	10
438.414	1	8
439.608	1	9
440.802	1	10
441.996	1	4
443.190	1	4
444.384	1	11
445.578	1	-2
446.771	1	0
447.965	1	9
449.159	1	2
450.352	1	-6
451.546	1	5
452.739	1	6
453.933	1	0
455.126	1	-2
456.320	1	7
457.513	1	12
458.706	1	12
459.899	1	1
461.093	1	3
462.286	1	-2
463.479	1	3
464.672	1	3
465.865	1	1
467.058	1	4
468.251	1	-4
469.444	1	6
470.637	1	1
471.830	1	2
473.023	1	1
474.215	1	9
475.408	1	8
476.601	1	5
477.793	1	0
478.986	1	9
480.179	1	10
481.371	1	-4
482.564	1	9
483.756	1	17
484.948	1	9
486.141	1	7
487.333	1	0
488.525	1	4
489.718	1	0
490.910	1	8
492.102	1	3
493.294	1	2
494.486	1	0
495.678	1	-1
496.870	1	6
498.062	1	5
499.254	1	6
500.446	1	0
501.638	1	5
502.829	1	3
504.021	1	6
505.213	1	-3
506.404	1	11
507.596	1	9
508.788	1	4
509.979	1	6
511.171	1	10
512.362	1	9
513.553	1	6
514.745	1	6
515.936	1	-3
517.127	1	13
518.319	1	3
519.510	1	7
520.701	1	16
521.892	1	3
523.083	1	3
524.274	1	13
525.465	1	17
526.656	1	13
527.847	1	-1
529.038	1	13
530.229	1	12
531.419	1	1
532.610	1	13
533.801	1	9
534.991	1	2
536.182	1	5
537.373	1	10
538.563	1	6
539.754	1	0
540.944	1	4
542.134	1	7
543.325	1	15
544.515	1	12
545.705	1	6
546.896	1	8
548.086	1	11
549.276	1	15
550.466	1	-1
551.656	1	6
552.846	1	8
554.036	1	6
555.226	1	12
556.416	1	18
557.606	1	-5
558.796	1	17
559.986	1	12
561.175	1	-5
562.365	1	12
563.555	1	8
564.744	1	11
565.934	1	11
567.123	1	11
568.313	1	10
569.502	1	11
570.692	1	11
571.881	1	2
573.070	1	7
574.260	1	8
575.449	1	-2
576.638	1	17
577.827	1	2
579.016	1	3
580.205	1	0
581.394	1	4
582.583	1	7
583.772	1	11
584.961	1	-9
586.150	1	14
587.339	1	2
588.528	1	5
589.717	1	-1
590.905	1	11
592.094	1	9
593.283	1	12
594.471	1	1
595.660	1	5
596.848	1	13
598.037	1	-2
599.225	1	1
600.413	1	8
601.602	1	8
602.790	1	4
603.978	1	-4
605.166	1	10
606.355	1	-8
607.543	1	5
608.731	1	-7
609.919	1	-12
611.107	1	9
612.295	1	15
613.483	1	-2
614.671	1	6
615.858	1	-11
617.046	1	3
618.234	1	1
619.422	1	16
620.609	1	-4
621.797	1	14
622.985	1	-7
624.172	1	3
625.360	1	-6
626.547	1	-3
627.735	1	8
628.922	1	16
630.109	1	0
631.297	1	10
632.484	1	9
633.671	1	15
634.858	1	19
636.045	1	2
637.232	1	-1
638.419	1	-3
639.606	1	14
640.793	1	4
641.980	1	9
643.167	1	5
644.354	1	8
645.541	1	3
646.728	1	4
647.914	1	8
649.101	1	-7
650.288	1	5
651.474	1	3
652.661	1	11
653.847	1	2
655.034	1	3
656.220	1	3
657.406	1	-2
658.593	1	7
659.779	1	2
660.965	1	6
662.152	1	8
663.338	1	-4
664.524	1	6
665.710	1	8
666.896	1	6
668.082	1	5
669.268	1	6
670.454	1	4
671.640	1	6
672.826	1	6
674.011	1	14
675.197	1	15
676.383	1	0
677.569	1	13
678.754	1	7
679.940	1	-7
681.125	1	3
682.311	1	6
683.496	1	2
684.682	1	9
685.867	1	0
687.053	1	20
688.238	1	11
688.746	1	-6