File: Data/GaN_150K_450ms/GaN_sample D_spot15_UVVIS_150 K_200um_450 ms 2x2mm1_216.txt
340.368	1	5
341.565	1	9
342.763	1	-8
343.960	1	1
345.157	1	11
346.354	1	14
347.552	1	12
348.749	1	13
349.946	1	5
351.143	1	8
352.340	1	13
353.537	1	-3
354.734	1	0
355.931	1	-2
357.127	1	7
358.324	1	4
359.521	1	6
360.718	1	7
361.914	1	8
363.111	1	2
364.308	1	12
365.504	1	14
366.701	1	10
367.897	1	25
369.093	1	25
370.290	1	18
371.486	1	28
372.682	1	9
373.879	1	9
375.075	1	8
376.271	1	2
377.467	1	16
378.663	1	11
379.859	1	-2
381.055	1	-3
382.251	1	-5
383.447	1	7
384.643	1	-1
385.839	1	10
387.035	1	7
388.230	1	-1
389.426	1	0
390.622	1	-5
391.817	1	-6
393.013	1	-2
394.208	1	4
395.404	1	3
396.599	1	6
397.795	1	3
398.990	1	18
400.186	1	6
401.381	1	6
402.576	1	14
403.771	1	0
404.967	1	12
406.162	1	-2
407.357	1	6
408.552	1	3
409.747	1	11
410.942	1	7
412.137	1	7
413.332	1	6
414.526	1	-3
415.721	1	2
416.916	1	-7
418.111	1	15
419.305	1	8
420.500	1	2
421.695	1	15
422.889	1	10
424.084	1	1
425.278	1	-1
426.472	1	11
427.667	1	-3
428.861	1	14
430.055	1	19
431.250	1	8
432.444	1	12
433.638	1	1
434.832	1	1
436.026	1	3
437.220	1	15
438.414	1	6
439.608	1	-4
440.802	1	13
441.996	1	-3
443.190	1	6
444.384	1	5
445.578	1	-6
446.771	1	-1
447.965	1	7
449.159	1	-4
450.352	1	-5
451.546	1	5
452.739	1	10
453.933	1	-5
455.126	1	0
456.320	1	13
457.513	1	3
458.706	1	3
459.899	1	5
461.093	1	6
462.286	1	2
463.479	1	3
464.672	1	8
465.865	1	0
467.058	1	-2
468.251	1	-13
469.444	1	10
470.637	1	1
471.830	1	8
473.023	1	4
474.215	1	3
475.408	1	0
476.601	1	7
477.793	1	3
478.986	1	4
480.179	1	8
481.371	1	-5
482.564	1	-3
483.756	1	10
484.948	1	5
486.141	1	3
487.333	1	5
488.525	1	-6
489.718	1	-7
490.910	1	5
492.102	1	14
493.294	1	0
494.486	1	-4
495.678	1	0
496.870	1	4
498.062	1	-7
499.254	1	-1
500.446	1	1
501.638	1	8
502.829	1	-3
504.021	1	2
505.213	1	0
506.404	1	7
507.596	1	5
508.788	1	0
509.979	1	1
511.171	1	9
512.362	1	9
513.553	1	7
514.745	1	4
515.936	1	1
517.127	1	7
518.319	1	-3
519.510	1	1
520.701	1	17
521.892	1	11
523.083	1	4
524.274	1	10
525.465	1	9
526.656	1	12
527.847	1	-3
529.038	1	0
530.229	1	10
531.419	1	5
532.610	1	12
533.801	1	6
534.991	1	-4
536.182	1	14
537.373	1	8
538.563	1	5
539.754	1	-1
540.944	1	7
542.134	1	-1
543.325	1	9
544.515	1	0
545.705	1	8
546.896	1	5
548.086	1	6
549.276	1	11
550.466	1	3
551.656	1	6
552.846	1	3
554.036	1	13
555.226	1	9
556.416	1	7
557.606	1	-6
558.796	1	6
559.986	1	-1
561.175	1	1
562.365	1	0
563.555	1	8
564.744	1	11
565.934	1	17
567.123	1	-5
568.313	1	8
569.502	1	10
570.692	1	10
571.881	1	3
573.070	1	7
574.260	1	7
575.449	1	3
576.638	1	15
577.827	1	2
579.016	1	5
580.205	1	1
581.394	1	5
582.583	1	6
583.772	1	12
584.961	1	-3
586.150	1	-1
587.339	1	5
588.528	1	-9
589.717	1	7
590.905	1	-3
592.094	1	1
593.283	1	4
594.471	1	-2
595.660	1	11
596.848	1	8
598.037	1	3
599.225	1	1
600.413	1	-11
601.602	1	6
602.790	1	8
603.978	1	-1
605.166	1	7
606.355	1	-8
607.543	1	6
608.731	1	-4
609.919	1	-8
611.107	1	5
612.295	1	8
613.483	1	2
614.671	1	-3
615.858	1	-5
617.046	1	-6
618.234	1	-2
619.422	1	16
620.609	1	-1
621.797	1	-3
622.985	1	3
624.172	1	-1
625.360	1	2
626.547	1	-3
627.735	1	1
628.922	1	-1
630.109	1	-6
631.297	1	3
632.484	1	6
633.671	1	12
634.858	1	5
636.045	1	0
637.232	1	9
638.419	1	-6
639.606	1	10
640.793	1	3
641.980	1	20
643.167	1	5
644.354	1	7
645.541	1	7
646.728	1	0
647.914	1	-1
649.101	1	8
650.288	1	4
651.474	1	10
652.661	1	4
653.847	1	7
655.034	1	-1
656.220	1	9
657.406	1	1
658.593	1	7
659.779	1	9
660.965	1	-1
662.152	1	4
663.338	1	-3
664.524	1	10
665.710	1	-2
666.896	1	3
668.082	1	-6
669.268	1	-4
670.454	1	3
671.640	1	6
672.826	1	1
674.011	1	5
675.197	1	4
676.383	1	-6
677.569	1	13
678.754	1	1
679.940	1	-3
681.125	1	-3
682.311	1	13
683.496	1	5
684.682	1	9
685.867	1	-5
687.053	1	11
688.238	1	14
688.746	1	-5