File: Data/GaN_150K_450ms/GaN_sample D_spot15_UVVIS_150 K_200um_450 ms 2x2mm1_306.txt
340.368	1	6
341.565	1	6
342.763	1	0
343.960	1	10
345.157	1	6
346.354	1	-2
347.552	1	15
348.749	1	4
349.946	1	0
351.143	1	4
352.340	1	10
353.537	1	-7
354.734	1	9
355.931	1	-1
357.127	1	12
358.324	1	-3
359.521	1	6
360.718	1	0
361.914	1	5
363.111	1	-1
364.308	1	11
365.504	1	-1
366.701	1	-5
367.897	1	7
369.093	1	13
370.290	1	7
371.486	1	2
372.682	1	16
373.879	1	5
375.075	1	-13
376.271	1	-7
377.467	1	17
378.663	1	5
379.859	1	-1
381.055	1	-6
382.251	1	2
383.447	1	-2
384.643	1	2
385.839	1	2
387.035	1	3
388.230	1	1
389.426	1	1
390.622	1	3
391.817	1	-11
393.013	1	8
394.208	1	8
395.404	1	0
396.599	1	-2
397.795	1	-3
398.990	1	8
400.186	1	-3
401.381	1	1
402.576	1	4
403.771	1	-3
404.967	1	4
406.162	1	-12
407.357	1	1
408.552	1	-3
409.747	1	-1
410.942	1	12
412.137	1	-8
413.332	1	16
414.526	1	0
415.721	1	-2
416.916	1	0
418.111	1	0
419.305	1	-5
420.500	1	1
421.695	1	13
422.889	1	0
424.084	1	7
425.278	1	2
426.472	1	12
427.667	1	4
428.861	1	-5
430.055	1	10
431.250	1	3
432.444	1	2
433.638	1	3
434.832	1	-4
436.026	1	0
437.220	1	11
438.414	1	0
439.608	1	-3
440.802	1	3
441.996	1	1
443.190	1	3
444.384	1	7
445.578	1	-2
446.771	1	1
447.965	1	2
449.159	1	-10
450.352	1	-4
451.546	1	3
452.739	1	-1
453.933	1	-1
455.126	1	-2
456.320	1	5
457.513	1	6
458.706	1	10
459.899	1	-3
461.093	1	3
462.286	1	1
463.479	1	-9
464.672	1	4
465.865	1	7
467.058	1	-6
468.251	1	-6
469.444	1	-1
470.637	1	0
471.830	1	-3
473.023	1	0
474.215	1	4
475.408	1	4
476.601	1	3
477.793	1	5
478.986	1	12
480.179	1	2
481.371	1	-19
482.564	1	3
483.756	1	-3
484.948	1	4
486.141	1	10
487.333	1	-5
488.525	1	-11
489.718	1	-6
490.910	1	11
492.102	1	2
493.294	1	-2
494.486	1	-2
495.678	1	-1
496.870	1	2
498.062	1	0
499.254	1	-7
500.446	1	1
501.638	1	2
502.829	1	3
504.021	1	1
505.213	1	-1
506.404	1	3
507.596	1	7
508.788	1	0
509.979	1	8
511.171	1	-3
512.362	1	8
513.553	1	-2
514.745	1	2
515.936	1	0
517.127	1	9
518.319	1	6
519.510	1	-10
520.701	1	3
521.892	1	-3
523.083	1	-3
524.274	1	-3
525.465	1	9
526.656	1	1
527.847	1	1
529.038	1	8
530.229	1	8
531.419	1	5
532.610	1	14
533.801	1	2
534.991	1	-6
536.182	1	12
537.373	1	-7
538.563	1	2
539.754	1	0
540.944	1	13
542.134	1	1
543.325	1	11
544.515	1	1
545.705	1	0
546.896	1	1
548.086	1	9
549.276	1	6
550.466	1	0
551.656	1	2
552.846	1	6
554.036	1	9
555.226	1	-5
556.416	1	7
557.606	1	-14
558.796	1	3
559.986	1	9
561.175	1	5
562.365	1	4
563.555	1	11
564.744	1	10
565.934	1	10
567.123	1	-3
568.313	1	3
569.502	1	0
570.692	1	7
571.881	1	-1
573.070	1	-8
574.260	1	4
575.449	1	-2
576.638	1	7
577.827	1	-3
579.016	1	0
580.205	1	-3
581.394	1	-2
582.583	1	12
583.772	1	3
584.961	1	-7
586.150	1	11
587.339	1	-2
588.528	1	2
589.717	1	2
590.905	1	-9
592.094	1	4
593.283	1	0
594.471	1	-3
595.660	1	12
596.848	1	-3
598.037	1	-3
599.225	1	2
600.413	1	1
601.602	1	1
602.790	1	9
603.978	1	1
605.166	1	10
606.355	1	-15
607.543	1	10
608.731	1	-14
609.919	1	-10
611.107	1	14
612.295	1	1
613.483	1	-1
614.671	1	9
615.858	1	-2
617.046	1	1
618.234	1	-7
619.422	1	6
620.609	1	-5
621.797	1	1
622.985	1	2
624.172	1	7
625.360	1	3
626.547	1	5
627.735	1	3
628.922	1	-1
630.109	1	-5
631.297	1	-3
632.484	1	7
633.671	1	13
634.858	1	10
636.045	1	-3
637.232	1	9
638.419	1	2
639.606	1	5
640.793	1	10
641.980	1	7
643.167	1	0
644.354	1	10
645.541	1	4
646.728	1	8
647.914	1	-2
649.101	1	-8
650.288	1	0
651.474	1	6
652.661	1	2
653.847	1	6
655.034	1	-9
656.220	1	5
657.406	1	-7
658.593	1	6
659.779	1	5
660.965	1	8
662.152	1	-2
663.338	1	5
664.524	1	15
665.710	1	-1
666.896	1	0
668.082	1	7
669.268	1	-15
670.454	1	4
671.640	1	8
672.826	1	-1
674.011	1	3
675.197	1	3
676.383	1	3
677.569	1	4
678.754	1	0
679.940	1	-11
681.125	1	0
682.311	1	2
683.496	1	10
684.682	1	9
685.867	1	1
687.053	1	10
688.238	1	10
688.746	1	-1