File: Data/GaN_150K_450ms/GaN_sample D_spot15_UVVIS_150 K_200um_450 ms 2x2mm1_48.txt
340.368	1	-2
341.565	1	0
342.763	1	1
343.960	1	2
345.157	1	8
346.354	1	4
347.552	1	13
348.749	1	14
349.946	1	-4
351.143	1	10
352.340	1	12
353.537	1	3
354.734	1	0
355.931	1	15
357.127	1	11
358.324	1	14
359.521	1	22
360.718	1	13
361.914	1	16
363.111	1	40
364.308	1	70
365.504	1	107
366.701	1	177
367.897	1	260
369.093	1	247
370.290	1	210
371.486	1	140
372.682	1	107
373.879	1	93
375.075	1	62
376.271	1	63
377.467	1	67
378.663	1	46
379.859	1	52
381.055	1	64
382.251	1	89
383.447	1	113
384.643	1	142
385.839	1	162
387.035	1	162
388.230	1	146
389.426	1	123
390.622	1	135
391.817	1	130
393.013	1	119
394.208	1	114
395.404	1	118
396.599	1	121
397.795	1	135
398.990	1	136
400.186	1	121
401.381	1	104
402.576	1	96
403.771	1	84
404.967	1	97
406.162	1	77
407.357	1	78
408.552	1	73
409.747	1	70
410.942	1	79
412.137	1	67
413.332	1	58
414.526	1	54
415.721	1	50
416.916	1	54
418.111	1	55
419.305	1	54
420.500	1	40
421.695	1	42
422.889	1	30
424.084	1	37
425.278	1	37
426.472	1	44
427.667	1	36
428.861	1	48
430.055	1	25
431.250	1	31
432.444	1	30
433.638	1	24
434.832	1	16
436.026	1	11
437.220	1	34
438.414	1	22
439.608	1	6
440.802	1	17
441.996	1	6
443.190	1	21
444.384	1	11
445.578	1	10
446.771	1	17
447.965	1	9
449.159	1	7
450.352	1	0
451.546	1	11
452.739	1	26
453.933	1	3
455.126	1	12
456.320	1	18
457.513	1	7
458.706	1	23
459.899	1	9
461.093	1	19
462.286	1	1
463.479	1	9
464.672	1	16
465.865	1	9
467.058	1	10
468.251	1	9
469.444	1	9
470.637	1	9
471.830	1	13
473.023	1	17
474.215	1	14
475.408	1	4
476.601	1	11
477.793	1	14
478.986	1	10
480.179	1	9
481.371	1	4
482.564	1	14
483.756	1	18
484.948	1	10
486.141	1	9
487.333	1	5
488.525	1	11
489.718	1	2
490.910	1	14
492.102	1	10
493.294	1	12
494.486	1	9
495.678	1	14
496.870	1	11
498.062	1	26
499.254	1	16
500.446	1	17
501.638	1	31
502.829	1	24
504.021	1	35
505.213	1	28
506.404	1	15
507.596	1	41
508.788	1	33
509.979	1	33
511.171	1	34
512.362	1	49
513.553	1	37
514.745	1	41
515.936	1	43
517.127	1	47
518.319	1	45
519.510	1	39
520.701	1	55
521.892	1	56
523.083	1	56
524.274	1	61
525.465	1	71
526.656	1	53
527.847	1	52
529.038	1	70
530.229	1	70
531.419	1	64
532.610	1	73
533.801	1	77
534.991	1	66
536.182	1	70
537.373	1	73
538.563	1	63
539.754	1	79
540.944	1	75
542.134	1	77
543.325	1	84
544.515	1	69
545.705	1	81
546.896	1	80
548.086	1	82
549.276	1	85
550.466	1	79
551.656	1	102
552.846	1	97
554.036	1	93
555.226	1	101
556.416	1	88
557.606	1	81
558.796	1	95
559.986	1	87
561.175	1	78
562.365	1	84
563.555	1	89
564.744	1	88
565.934	1	106
567.123	1	90
568.313	1	85
569.502	1	102
570.692	1	90
571.881	1	94
573.070	1	93
574.260	1	83
575.449	1	84
576.638	1	86
577.827	1	89
579.016	1	91
580.205	1	97
581.394	1	100
582.583	1	87
583.772	1	96
584.961	1	76
586.150	1	99
587.339	1	91
588.528	1	78
589.717	1	93
590.905	1	83
592.094	1	85
593.283	1	79
594.471	1	66
595.660	1	79
596.848	1	78
598.037	1	75
599.225	1	75
600.413	1	84
601.602	1	85
602.790	1	81
603.978	1	73
605.166	1	84
606.355	1	72
607.543	1	89
608.731	1	58
609.919	1	61
611.107	1	77
612.295	1	65
613.483	1	78
614.671	1	71
615.858	1	58
617.046	1	60
618.234	1	53
619.422	1	67
620.609	1	51
621.797	1	57
622.985	1	64
624.172	1	60
625.360	1	54
626.547	1	48
627.735	1	51
628.922	1	55
630.109	1	43
631.297	1	52
632.484	1	56
633.671	1	55
634.858	1	59
636.045	1	32
637.232	1	49
638.419	1	39
639.606	1	43
640.793	1	38
641.980	1	60
643.167	1	49
644.354	1	56
645.541	1	40
646.728	1	48
647.914	1	41
649.101	1	33
650.288	1	38
651.474	1	42
652.661	1	36
653.847	1	44
655.034	1	33
656.220	1	44
657.406	1	28
658.593	1	44
659.779	1	35
660.965	1	32
662.152	1	29
663.338	1	26
664.524	1	41
665.710	1	32
666.896	1	28
668.082	1	30
669.268	1	26
670.454	1	34
671.640	1	31
672.826	1	34
674.011	1	30
675.197	1	35
676.383	1	23
677.569	1	44
678.754	1	29
679.940	1	18
681.125	1	28
682.311	1	35
683.496	1	31
684.682	1	27
685.867	1	26
687.053	1	31
688.238	1	40
688.746	1	30