File: Data/GaN_150K_450ms/GaN_sample D_spot15_UVVIS_150 K_200um_450 ms 2x2mm1_265.txt
340.368	1	0
341.565	1	5
342.763	1	2
343.960	1	5
345.157	1	11
346.354	1	2
347.552	1	19
348.749	1	10
349.946	1	6
351.143	1	0
352.340	1	3
353.537	1	-3
354.734	1	10
355.931	1	13
357.127	1	11
358.324	1	2
359.521	1	5
360.718	1	5
361.914	1	2
363.111	1	9
364.308	1	17
365.504	1	-2
366.701	1	7
367.897	1	16
369.093	1	19
370.290	1	15
371.486	1	16
372.682	1	13
373.879	1	12
375.075	1	-5
376.271	1	7
377.467	1	10
378.663	1	11
379.859	1	4
381.055	1	9
382.251	1	-6
383.447	1	2
384.643	1	3
385.839	1	-1
387.035	1	3
388.230	1	4
389.426	1	-5
390.622	1	-5
391.817	1	1
393.013	1	3
394.208	1	6
395.404	1	3
396.599	1	14
397.795	1	-6
398.990	1	5
400.186	1	6
401.381	1	1
402.576	1	3
403.771	1	2
404.967	1	2
406.162	1	3
407.357	1	10
408.552	1	-13
409.747	1	-5
410.942	1	5
412.137	1	0
413.332	1	9
414.526	1	1
415.721	1	10
416.916	1	1
418.111	1	1
419.305	1	9
420.500	1	3
421.695	1	3
422.889	1	6
424.084	1	6
425.278	1	-3
426.472	1	16
427.667	1	4
428.861	1	9
430.055	1	13
431.250	1	7
432.444	1	2
433.638	1	5
434.832	1	-1
436.026	1	-7
437.220	1	9
438.414	1	8
439.608	1	-1
440.802	1	5
441.996	1	5
443.190	1	3
444.384	1	7
445.578	1	1
446.771	1	-6
447.965	1	4
449.159	1	1
450.352	1	1
451.546	1	11
452.739	1	5
453.933	1	-5
455.126	1	0
456.320	1	5
457.513	1	2
458.706	1	17
459.899	1	6
461.093	1	-3
462.286	1	-4
463.479	1	-2
464.672	1	0
465.865	1	6
467.058	1	5
468.251	1	-5
469.444	1	5
470.637	1	2
471.830	1	3
473.023	1	1
474.215	1	-5
475.408	1	-5
476.601	1	-3
477.793	1	1
478.986	1	13
480.179	1	9
481.371	1	-12
482.564	1	14
483.756	1	6
484.948	1	5
486.141	1	9
487.333	1	-2
488.525	1	-2
489.718	1	-10
490.910	1	8
492.102	1	1
493.294	1	-10
494.486	1	3
495.678	1	1
496.870	1	5
498.062	1	-5
499.254	1	-7
500.446	1	0
501.638	1	2
502.829	1	-7
504.021	1	2
505.213	1	-3
506.404	1	7
507.596	1	5
508.788	1	-6
509.979	1	1
511.171	1	5
512.362	1	6
513.553	1	8
514.745	1	-6
515.936	1	1
517.127	1	10
518.319	1	-1
519.510	1	-5
520.701	1	-1
521.892	1	1
523.083	1	-3
524.274	1	1
525.465	1	11
526.656	1	4
527.847	1	-9
529.038	1	2
530.229	1	3
531.419	1	12
532.610	1	7
533.801	1	2
534.991	1	0
536.182	1	12
537.373	1	10
538.563	1	-1
539.754	1	-3
540.944	1	13
542.134	1	12
543.325	1	10
544.515	1	5
545.705	1	3
546.896	1	1
548.086	1	-1
549.276	1	3
550.466	1	3
551.656	1	-2
552.846	1	-1
554.036	1	7
555.226	1	6
556.416	1	7
557.606	1	0
558.796	1	20
559.986	1	10
561.175	1	1
562.365	1	11
563.555	1	3
564.744	1	8
565.934	1	10
567.123	1	-3
568.313	1	6
569.502	1	14
570.692	1	5
571.881	1	3
573.070	1	-2
574.260	1	9
575.449	1	-3
576.638	1	5
577.827	1	5
579.016	1	3
580.205	1	-1
581.394	1	1
582.583	1	3
583.772	1	9
584.961	1	-5
586.150	1	6
587.339	1	2
588.528	1	-2
589.717	1	0
590.905	1	-1
592.094	1	2
593.283	1	4
594.471	1	-8
595.660	1	4
596.848	1	4
598.037	1	1
599.225	1	1
600.413	1	1
601.602	1	6
602.790	1	4
603.978	1	3
605.166	1	2
606.355	1	-16
607.543	1	10
608.731	1	-10
609.919	1	-10
611.107	1	18
612.295	1	16
613.483	1	8
614.671	1	1
615.858	1	-2
617.046	1	-1
618.234	1	-5
619.422	1	16
620.609	1	2
621.797	1	1
622.985	1	1
624.172	1	3
625.360	1	-3
626.547	1	-2
627.735	1	-1
628.922	1	2
630.109	1	-12
631.297	1	11
632.484	1	7
633.671	1	2
634.858	1	2
636.045	1	-4
637.232	1	3
638.419	1	6
639.606	1	11
640.793	1	-7
641.980	1	9
643.167	1	13
644.354	1	10
645.541	1	0
646.728	1	10
647.914	1	4
649.101	1	-3
650.288	1	8
651.474	1	6
652.661	1	5
653.847	1	8
655.034	1	-6
656.220	1	3
657.406	1	-7
658.593	1	-1
659.779	1	6
660.965	1	2
662.152	1	4
663.338	1	-4
664.524	1	11
665.710	1	3
666.896	1	-1
668.082	1	5
669.268	1	8
670.454	1	5
671.640	1	4
672.826	1	-6
674.011	1	12
675.197	1	9
676.383	1	5
677.569	1	10
678.754	1	-4
679.940	1	-2
681.125	1	-9
682.311	1	5
683.496	1	-9
684.682	1	7
685.867	1	1
687.053	1	19
688.238	1	6
688.746	1	-6