File: Data/GaN_150K_450ms/GaN_sample D_spot15_UVVIS_150 K_200um_450 ms 2x2mm1_170.txt
340.368	1	1
341.565	1	7
342.763	1	5
343.960	1	5
345.157	1	12
346.354	1	7
347.552	1	20
348.749	1	9
349.946	1	-9
351.143	1	11
352.340	1	10
353.537	1	6
354.734	1	-1
355.931	1	14
357.127	1	13
358.324	1	0
359.521	1	14
360.718	1	8
361.914	1	8
363.111	1	11
364.308	1	17
365.504	1	9
366.701	1	18
367.897	1	21
369.093	1	38
370.290	1	34
371.486	1	28
372.682	1	12
373.879	1	25
375.075	1	10
376.271	1	10
377.467	1	18
378.663	1	13
379.859	1	4
381.055	1	-1
382.251	1	0
383.447	1	4
384.643	1	13
385.839	1	13
387.035	1	7
388.230	1	6
389.426	1	-4
390.622	1	-3
391.817	1	-1
393.013	1	3
394.208	1	6
395.404	1	1
396.599	1	6
397.795	1	4
398.990	1	12
400.186	1	4
401.381	1	4
402.576	1	2
403.771	1	-1
404.967	1	9
406.162	1	7
407.357	1	15
408.552	1	5
409.747	1	0
410.942	1	6
412.137	1	7
413.332	1	3
414.526	1	1
415.721	1	3
416.916	1	11
418.111	1	6
419.305	1	15
420.500	1	4
421.695	1	17
422.889	1	0
424.084	1	10
425.278	1	1
426.472	1	12
427.667	1	6
428.861	1	17
430.055	1	9
431.250	1	15
432.444	1	7
433.638	1	13
434.832	1	-2
436.026	1	5
437.220	1	16
438.414	1	3
439.608	1	-2
440.802	1	1
441.996	1	6
443.190	1	16
444.384	1	8
445.578	1	0
446.771	1	10
447.965	1	7
449.159	1	1
450.352	1	0
451.546	1	5
452.739	1	1
453.933	1	2
455.126	1	1
456.320	1	17
457.513	1	0
458.706	1	19
459.899	1	4
461.093	1	8
462.286	1	-1
463.479	1	0
464.672	1	8
465.865	1	-7
467.058	1	9
468.251	1	2
469.444	1	2
470.637	1	3
471.830	1	-3
473.023	1	7
474.215	1	10
475.408	1	7
476.601	1	-1
477.793	1	-6
478.986	1	11
480.179	1	10
481.371	1	-4
482.564	1	16
483.756	1	11
484.948	1	11
486.141	1	8
487.333	1	5
488.525	1	-1
489.718	1	-6
490.910	1	10
492.102	1	3
493.294	1	-1
494.486	1	-4
495.678	1	9
496.870	1	-3
498.062	1	0
499.254	1	4
500.446	1	1
501.638	1	5
502.829	1	-2
504.021	1	11
505.213	1	0
506.404	1	3
507.596	1	15
508.788	1	10
509.979	1	4
511.171	1	6
512.362	1	9
513.553	1	10
514.745	1	5
515.936	1	-1
517.127	1	19
518.319	1	4
519.510	1	-3
520.701	1	11
521.892	1	3
523.083	1	1
524.274	1	10
525.465	1	5
526.656	1	13
527.847	1	2
529.038	1	3
530.229	1	18
531.419	1	7
532.610	1	22
533.801	1	7
534.991	1	2
536.182	1	8
537.373	1	7
538.563	1	0
539.754	1	10
540.944	1	12
542.134	1	7
543.325	1	7
544.515	1	9
545.705	1	3
546.896	1	14
548.086	1	7
549.276	1	14
550.466	1	10
551.656	1	11
552.846	1	12
554.036	1	13
555.226	1	7
556.416	1	9
557.606	1	-6
558.796	1	21
559.986	1	5
561.175	1	3
562.365	1	6
563.555	1	12
564.744	1	15
565.934	1	15
567.123	1	-1
568.313	1	5
569.502	1	12
570.692	1	15
571.881	1	2
573.070	1	4
574.260	1	14
575.449	1	3
576.638	1	10
577.827	1	4
579.016	1	3
580.205	1	-3
581.394	1	3
582.583	1	2
583.772	1	15
584.961	1	2
586.150	1	6
587.339	1	7
588.528	1	6
589.717	1	0
590.905	1	-1
592.094	1	2
593.283	1	4
594.471	1	-10
595.660	1	7
596.848	1	12
598.037	1	-3
599.225	1	2
600.413	1	6
601.602	1	12
602.790	1	-2
603.978	1	7
605.166	1	4
606.355	1	-5
607.543	1	5
608.731	1	-4
609.919	1	-2
611.107	1	12
612.295	1	12
613.483	1	-1
614.671	1	6
615.858	1	-16
617.046	1	5
618.234	1	9
619.422	1	10
620.609	1	-6
621.797	1	5
622.985	1	7
624.172	1	5
625.360	1	-1
626.547	1	5
627.735	1	7
628.922	1	5
630.109	1	-3
631.297	1	5
632.484	1	9
633.671	1	3
634.858	1	2
636.045	1	-1
637.232	1	4
638.419	1	3
639.606	1	16
640.793	1	7
641.980	1	15
643.167	1	3
644.354	1	15
645.541	1	9
646.728	1	4
647.914	1	9
649.101	1	1
650.288	1	9
651.474	1	2
652.661	1	10
653.847	1	0
655.034	1	-5
656.220	1	8
657.406	1	-2
658.593	1	2
659.779	1	21
660.965	1	7
662.152	1	-1
663.338	1	-3
664.524	1	9
665.710	1	-4
666.896	1	12
668.082	1	4
669.268	1	0
670.454	1	14
671.640	1	11
672.826	1	8
674.011	1	11
675.197	1	1
676.383	1	6
677.569	1	16
678.754	1	6
679.940	1	-1
681.125	1	-3
682.311	1	10
683.496	1	1
684.682	1	10
685.867	1	6
687.053	1	14
688.238	1	7
688.746	1	-10