File: Data/GaN_150K_450ms/GaN_sample D_spot15_UVVIS_150 K_200um_450 ms 2x2mm1_105.txt
340.368	1	8
341.565	1	6
342.763	1	5
343.960	1	8
345.157	1	14
346.354	1	1
347.552	1	14
348.749	1	12
349.946	1	10
351.143	1	13
352.340	1	2
353.537	1	0
354.734	1	12
355.931	1	7
357.127	1	14
358.324	1	14
359.521	1	23
360.718	1	24
361.914	1	27
363.111	1	35
364.308	1	45
365.504	1	65
366.701	1	70
367.897	1	84
369.093	1	76
370.290	1	84
371.486	1	71
372.682	1	59
373.879	1	45
375.075	1	31
376.271	1	38
377.467	1	40
378.663	1	39
379.859	1	20
381.055	1	15
382.251	1	6
383.447	1	15
384.643	1	6
385.839	1	23
387.035	1	5
388.230	1	16
389.426	1	6
390.622	1	8
391.817	1	3
393.013	1	10
394.208	1	21
395.404	1	11
396.599	1	11
397.795	1	7
398.990	1	14
400.186	1	7
401.381	1	10
402.576	1	2
403.771	1	-4
404.967	1	18
406.162	1	2
407.357	1	14
408.552	1	7
409.747	1	5
410.942	1	18
412.137	1	8
413.332	1	22
414.526	1	6
415.721	1	15
416.916	1	10
418.111	1	15
419.305	1	21
420.500	1	14
421.695	1	15
422.889	1	18
424.084	1	10
425.278	1	15
426.472	1	23
427.667	1	14
428.861	1	20
430.055	1	17
431.250	1	19
432.444	1	13
433.638	1	16
434.832	1	9
436.026	1	10
437.220	1	14
438.414	1	17
439.608	1	7
440.802	1	13
441.996	1	8
443.190	1	18
444.384	1	9
445.578	1	2
446.771	1	5
447.965	1	4
449.159	1	6
450.352	1	-4
451.546	1	7
452.739	1	7
453.933	1	9
455.126	1	4
456.320	1	12
457.513	1	2
458.706	1	17
459.899	1	4
461.093	1	18
462.286	1	7
463.479	1	13
464.672	1	13
465.865	1	8
467.058	1	16
468.251	1	-1
469.444	1	10
470.637	1	6
471.830	1	8
473.023	1	3
474.215	1	16
475.408	1	7
476.601	1	0
477.793	1	7
478.986	1	17
480.179	1	10
481.371	1	-8
482.564	1	8
483.756	1	16
484.948	1	7
486.141	1	14
487.333	1	6
488.525	1	0
489.718	1	4
490.910	1	21
492.102	1	16
493.294	1	-5
494.486	1	6
495.678	1	10
496.870	1	16
498.062	1	5
499.254	1	9
500.446	1	0
501.638	1	21
502.829	1	7
504.021	1	20
505.213	1	6
506.404	1	10
507.596	1	18
508.788	1	14
509.979	1	17
511.171	1	17
512.362	1	21
513.553	1	20
514.745	1	10
515.936	1	14
517.127	1	26
518.319	1	18
519.510	1	3
520.701	1	23
521.892	1	27
523.083	1	17
524.274	1	21
525.465	1	39
526.656	1	19
527.847	1	21
529.038	1	23
530.229	1	27
531.419	1	18
532.610	1	31
533.801	1	22
534.991	1	22
536.182	1	14
537.373	1	14
538.563	1	14
539.754	1	21
540.944	1	28
542.134	1	20
543.325	1	24
544.515	1	23
545.705	1	21
546.896	1	17
548.086	1	22
549.276	1	16
550.466	1	16
551.656	1	21
552.846	1	24
554.036	1	27
555.226	1	16
556.416	1	24
557.606	1	7
558.796	1	16
559.986	1	13
561.175	1	3
562.365	1	8
563.555	1	25
564.744	1	11
565.934	1	20
567.123	1	7
568.313	1	15
569.502	1	11
570.692	1	19
571.881	1	11
573.070	1	13
574.260	1	10
575.449	1	6
576.638	1	10
577.827	1	7
579.016	1	7
580.205	1	1
581.394	1	11
582.583	1	17
583.772	1	17
584.961	1	4
586.150	1	16
587.339	1	6
588.528	1	2
589.717	1	11
590.905	1	8
592.094	1	9
593.283	1	12
594.471	1	7
595.660	1	13
596.848	1	10
598.037	1	6
599.225	1	10
600.413	1	12
601.602	1	12
602.790	1	7
603.978	1	9
605.166	1	7
606.355	1	-4
607.543	1	12
608.731	1	4
609.919	1	2
611.107	1	19
612.295	1	7
613.483	1	9
614.671	1	13
615.858	1	-5
617.046	1	3
618.234	1	-1
619.422	1	22
620.609	1	7
621.797	1	15
622.985	1	-3
624.172	1	4
625.360	1	6
626.547	1	0
627.735	1	9
628.922	1	24
630.109	1	-4
631.297	1	2
632.484	1	10
633.671	1	15
634.858	1	11
636.045	1	-9
637.232	1	10
638.419	1	3
639.606	1	8
640.793	1	2
641.980	1	17
643.167	1	11
644.354	1	10
645.541	1	9
646.728	1	8
647.914	1	4
649.101	1	6
650.288	1	8
651.474	1	13
652.661	1	15
653.847	1	13
655.034	1	-1
656.220	1	2
657.406	1	5
658.593	1	8
659.779	1	6
660.965	1	1
662.152	1	4
663.338	1	0
664.524	1	15
665.710	1	10
666.896	1	5
668.082	1	7
669.268	1	-2
670.454	1	15
671.640	1	6
672.826	1	6
674.011	1	7
675.197	1	-2
676.383	1	1
677.569	1	13
678.754	1	6
679.940	1	-3
681.125	1	-3
682.311	1	8
683.496	1	0
684.682	1	6
685.867	1	5
687.053	1	14
688.238	1	8
688.746	1	9