File: Data/GaN_150K_450ms/GaN_sample D_spot15_UVVIS_150 K_200um_450 ms 2x2mm1_159.txt
340.368	1	7
341.565	1	10
342.763	1	2
343.960	1	7
345.157	1	17
346.354	1	2
347.552	1	12
348.749	1	10
349.946	1	-2
351.143	1	8
352.340	1	4
353.537	1	-1
354.734	1	9
355.931	1	16
357.127	1	8
358.324	1	12
359.521	1	12
360.718	1	2
361.914	1	21
363.111	1	15
364.308	1	31
365.504	1	21
366.701	1	29
367.897	1	40
369.093	1	32
370.290	1	34
371.486	1	35
372.682	1	19
373.879	1	16
375.075	1	7
376.271	1	11
377.467	1	24
378.663	1	13
379.859	1	12
381.055	1	0
382.251	1	2
383.447	1	11
384.643	1	12
385.839	1	10
387.035	1	10
388.230	1	13
389.426	1	1
390.622	1	-1
391.817	1	0
393.013	1	10
394.208	1	6
395.404	1	10
396.599	1	1
397.795	1	-2
398.990	1	20
400.186	1	8
401.381	1	13
402.576	1	5
403.771	1	-8
404.967	1	10
406.162	1	2
407.357	1	19
408.552	1	-3
409.747	1	0
410.942	1	14
412.137	1	2
413.332	1	18
414.526	1	6
415.721	1	5
416.916	1	7
418.111	1	12
419.305	1	7
420.500	1	11
421.695	1	16
422.889	1	8
424.084	1	11
425.278	1	3
426.472	1	22
427.667	1	9
428.861	1	21
430.055	1	13
431.250	1	9
432.444	1	9
433.638	1	17
434.832	1	3
436.026	1	3
437.220	1	19
438.414	1	16
439.608	1	10
440.802	1	12
441.996	1	0
443.190	1	11
444.384	1	9
445.578	1	-4
446.771	1	2
447.965	1	11
449.159	1	-6
450.352	1	-1
451.546	1	12
452.739	1	15
453.933	1	-1
455.126	1	9
456.320	1	5
457.513	1	8
458.706	1	10
459.899	1	-5
461.093	1	3
462.286	1	8
463.479	1	0
464.672	1	4
465.865	1	4
467.058	1	-3
468.251	1	-3
469.444	1	3
470.637	1	1
471.830	1	-1
473.023	1	15
474.215	1	9
475.408	1	8
476.601	1	10
477.793	1	4
478.986	1	10
480.179	1	13
481.371	1	-2
482.564	1	5
483.756	1	-4
484.948	1	8
486.141	1	7
487.333	1	-4
488.525	1	-4
489.718	1	-7
490.910	1	10
492.102	1	13
493.294	1	-12
494.486	1	8
495.678	1	-4
496.870	1	2
498.062	1	3
499.254	1	-3
500.446	1	-1
501.638	1	4
502.829	1	3
504.021	1	15
505.213	1	9
506.404	1	9
507.596	1	21
508.788	1	15
509.979	1	5
511.171	1	13
512.362	1	20
513.553	1	10
514.745	1	9
515.936	1	17
517.127	1	15
518.319	1	0
519.510	1	0
520.701	1	10
521.892	1	4
523.083	1	0
524.274	1	15
525.465	1	13
526.656	1	7
527.847	1	-8
529.038	1	7
530.229	1	13
531.419	1	10
532.610	1	17
533.801	1	5
534.991	1	5
536.182	1	3
537.373	1	5
538.563	1	-10
539.754	1	6
540.944	1	11
542.134	1	11
543.325	1	8
544.515	1	16
545.705	1	5
546.896	1	8
548.086	1	6
549.276	1	8
550.466	1	5
551.656	1	8
552.846	1	13
554.036	1	14
555.226	1	5
556.416	1	6
557.606	1	-3
558.796	1	21
559.986	1	17
561.175	1	4
562.365	1	1
563.555	1	7
564.744	1	14
565.934	1	16
567.123	1	6
568.313	1	6
569.502	1	13
570.692	1	14
571.881	1	-2
573.070	1	15
574.260	1	9
575.449	1	1
576.638	1	2
577.827	1	-2
579.016	1	6
580.205	1	-2
581.394	1	12
582.583	1	6
583.772	1	12
584.961	1	-2
586.150	1	8
587.339	1	1
588.528	1	6
589.717	1	1
590.905	1	-3
592.094	1	7
593.283	1	5
594.471	1	-7
595.660	1	7
596.848	1	5
598.037	1	3
599.225	1	2
600.413	1	2
601.602	1	12
602.790	1	10
603.978	1	3
605.166	1	5
606.355	1	-9
607.543	1	3
608.731	1	-9
609.919	1	1
611.107	1	8
612.295	1	5
613.483	1	6
614.671	1	2
615.858	1	-6
617.046	1	-1
618.234	1	2
619.422	1	17
620.609	1	4
621.797	1	-2
622.985	1	12
624.172	1	4
625.360	1	-1
626.547	1	1
627.735	1	3
628.922	1	9
630.109	1	2
631.297	1	5
632.484	1	8
633.671	1	13
634.858	1	10
636.045	1	10
637.232	1	3
638.419	1	-2
639.606	1	4
640.793	1	2
641.980	1	13
643.167	1	8
644.354	1	19
645.541	1	1
646.728	1	9
647.914	1	6
649.101	1	0
650.288	1	0
651.474	1	8
652.661	1	7
653.847	1	3
655.034	1	-8
656.220	1	5
657.406	1	-4
658.593	1	12
659.779	1	5
660.965	1	12
662.152	1	3
663.338	1	-3
664.524	1	10
665.710	1	4
666.896	1	8
668.082	1	1
669.268	1	2
670.454	1	-1
671.640	1	11
672.826	1	4
674.011	1	4
675.197	1	4
676.383	1	5
677.569	1	11
678.754	1	2
679.940	1	1
681.125	1	5
682.311	1	6
683.496	1	-3
684.682	1	12
685.867	1	0
687.053	1	21
688.238	1	10
688.746	1	-2