File: Data/GaN_150K_450ms/GaN_sample D_spot15_UVVIS_150 K_200um_450 ms 2x2mm1_181.txt
340.368	1	-4
341.565	1	8
342.763	1	-2
343.960	1	4
345.157	1	4
346.354	1	4
347.552	1	12
348.749	1	2
349.946	1	4
351.143	1	2
352.340	1	5
353.537	1	-3
354.734	1	3
355.931	1	3
357.127	1	14
358.324	1	13
359.521	1	13
360.718	1	10
361.914	1	14
363.111	1	8
364.308	1	23
365.504	1	12
366.701	1	30
367.897	1	38
369.093	1	43
370.290	1	21
371.486	1	27
372.682	1	18
373.879	1	12
375.075	1	13
376.271	1	14
377.467	1	21
378.663	1	4
379.859	1	9
381.055	1	8
382.251	1	3
383.447	1	-4
384.643	1	9
385.839	1	6
387.035	1	15
388.230	1	11
389.426	1	-3
390.622	1	-3
391.817	1	-6
393.013	1	2
394.208	1	6
395.404	1	7
396.599	1	17
397.795	1	9
398.990	1	14
400.186	1	9
401.381	1	8
402.576	1	4
403.771	1	-6
404.967	1	14
406.162	1	3
407.357	1	8
408.552	1	-1
409.747	1	4
410.942	1	13
412.137	1	5
413.332	1	10
414.526	1	-4
415.721	1	11
416.916	1	-5
418.111	1	8
419.305	1	18
420.500	1	4
421.695	1	1
422.889	1	5
424.084	1	-2
425.278	1	3
426.472	1	19
427.667	1	9
428.861	1	15
430.055	1	15
431.250	1	14
432.444	1	3
433.638	1	9
434.832	1	3
436.026	1	8
437.220	1	9
438.414	1	13
439.608	1	3
440.802	1	10
441.996	1	3
443.190	1	17
444.384	1	17
445.578	1	-1
446.771	1	7
447.965	1	7
449.159	1	2
450.352	1	1
451.546	1	1
452.739	1	6
453.933	1	7
455.126	1	8
456.320	1	8
457.513	1	3
458.706	1	17
459.899	1	5
461.093	1	4
462.286	1	0
463.479	1	4
464.672	1	1
465.865	1	10
467.058	1	0
468.251	1	-4
469.444	1	4
470.637	1	7
471.830	1	6
473.023	1	12
474.215	1	7
475.408	1	9
476.601	1	5
477.793	1	1
478.986	1	8
480.179	1	8
481.371	1	-5
482.564	1	10
483.756	1	8
484.948	1	7
486.141	1	1
487.333	1	-5
488.525	1	-9
489.718	1	-6
490.910	1	7
492.102	1	3
493.294	1	1
494.486	1	-4
495.678	1	5
496.870	1	8
498.062	1	2
499.254	1	5
500.446	1	-5
501.638	1	7
502.829	1	-2
504.021	1	2
505.213	1	3
506.404	1	4
507.596	1	17
508.788	1	7
509.979	1	1
511.171	1	3
512.362	1	21
513.553	1	9
514.745	1	5
515.936	1	10
517.127	1	9
518.319	1	3
519.510	1	-3
520.701	1	12
521.892	1	12
523.083	1	3
524.274	1	-2
525.465	1	11
526.656	1	4
527.847	1	-3
529.038	1	10
530.229	1	8
531.419	1	10
532.610	1	15
533.801	1	16
534.991	1	6
536.182	1	8
537.373	1	5
538.563	1	3
539.754	1	13
540.944	1	3
542.134	1	10
543.325	1	6
544.515	1	5
545.705	1	1
546.896	1	15
548.086	1	14
549.276	1	11
550.466	1	0
551.656	1	7
552.846	1	4
554.036	1	13
555.226	1	4
556.416	1	18
557.606	1	-9
558.796	1	14
559.986	1	5
561.175	1	7
562.365	1	-4
563.555	1	13
564.744	1	11
565.934	1	11
567.123	1	8
568.313	1	5
569.502	1	8
570.692	1	4
571.881	1	-6
573.070	1	7
574.260	1	0
575.449	1	-3
576.638	1	21
577.827	1	7
579.016	1	1
580.205	1	14
581.394	1	2
582.583	1	-1
583.772	1	8
584.961	1	-6
586.150	1	4
587.339	1	2
588.528	1	-3
589.717	1	5
590.905	1	4
592.094	1	5
593.283	1	6
594.471	1	2
595.660	1	8
596.848	1	7
598.037	1	7
599.225	1	0
600.413	1	5
601.602	1	7
602.790	1	3
603.978	1	6
605.166	1	-1
606.355	1	-9
607.543	1	5
608.731	1	-4
609.919	1	-4
611.107	1	12
612.295	1	4
613.483	1	3
614.671	1	0
615.858	1	-4
617.046	1	-1
618.234	1	-7
619.422	1	11
620.609	1	-3
621.797	1	6
622.985	1	2
624.172	1	-1
625.360	1	3
626.547	1	3
627.735	1	-1
628.922	1	13
630.109	1	-4
631.297	1	-2
632.484	1	4
633.671	1	9
634.858	1	10
636.045	1	2
637.232	1	10
638.419	1	2
639.606	1	10
640.793	1	4
641.980	1	12
643.167	1	0
644.354	1	7
645.541	1	5
646.728	1	7
647.914	1	6
649.101	1	-1
650.288	1	5
651.474	1	5
652.661	1	14
653.847	1	7
655.034	1	4
656.220	1	5
657.406	1	5
658.593	1	9
659.779	1	4
660.965	1	-3
662.152	1	12
663.338	1	8
664.524	1	11
665.710	1	0
666.896	1	-1
668.082	1	13
669.268	1	2
670.454	1	12
671.640	1	0
672.826	1	2
674.011	1	8
675.197	1	2
676.383	1	7
677.569	1	12
678.754	1	9
679.940	1	-1
681.125	1	6
682.311	1	6
683.496	1	-1
684.682	1	10
685.867	1	9
687.053	1	16
688.238	1	8
688.746	1	-2