File: Data/GaN_150K_450ms/GaN_sample D_spot15_UVVIS_150 K_200um_450 ms 2x2mm1_90.txt
340.368	1	14
341.565	1	6
342.763	1	0
343.960	1	7
345.157	1	18
346.354	1	8
347.552	1	17
348.749	1	7
349.946	1	3
351.143	1	14
352.340	1	17
353.537	1	1
354.734	1	17
355.931	1	12
357.127	1	23
358.324	1	17
359.521	1	22
360.718	1	30
361.914	1	44
363.111	1	50
364.308	1	73
365.504	1	79
366.701	1	112
367.897	1	111
369.093	1	125
370.290	1	113
371.486	1	91
372.682	1	77
373.879	1	59
375.075	1	51
376.271	1	45
377.467	1	46
378.663	1	38
379.859	1	27
381.055	1	18
382.251	1	22
383.447	1	19
384.643	1	21
385.839	1	10
387.035	1	21
388.230	1	22
389.426	1	11
390.622	1	-1
391.817	1	10
393.013	1	20
394.208	1	15
395.404	1	15
396.599	1	4
397.795	1	13
398.990	1	23
400.186	1	20
401.381	1	13
402.576	1	13
403.771	1	5
404.967	1	13
406.162	1	4
407.357	1	13
408.552	1	11
409.747	1	11
410.942	1	15
412.137	1	4
413.332	1	16
414.526	1	10
415.721	1	14
416.916	1	16
418.111	1	18
419.305	1	10
420.500	1	11
421.695	1	24
422.889	1	17
424.084	1	14
425.278	1	9
426.472	1	9
427.667	1	5
428.861	1	25
430.055	1	23
431.250	1	15
432.444	1	15
433.638	1	22
434.832	1	4
436.026	1	4
437.220	1	19
438.414	1	22
439.608	1	9
440.802	1	6
441.996	1	9
443.190	1	12
444.384	1	10
445.578	1	5
446.771	1	8
447.965	1	15
449.159	1	17
450.352	1	12
451.546	1	8
452.739	1	5
453.933	1	5
455.126	1	9
456.320	1	15
457.513	1	14
458.706	1	15
459.899	1	8
461.093	1	19
462.286	1	3
463.479	1	0
464.672	1	14
465.865	1	5
467.058	1	13
468.251	1	9
469.444	1	17
470.637	1	8
471.830	1	12
473.023	1	11
474.215	1	16
475.408	1	4
476.601	1	2
477.793	1	9
478.986	1	13
480.179	1	20
481.371	1	3
482.564	1	8
483.756	1	7
484.948	1	9
486.141	1	13
487.333	1	3
488.525	1	7
489.718	1	7
490.910	1	15
492.102	1	18
493.294	1	6
494.486	1	15
495.678	1	9
496.870	1	13
498.062	1	11
499.254	1	13
500.446	1	10
501.638	1	27
502.829	1	23
504.021	1	21
505.213	1	15
506.404	1	22
507.596	1	25
508.788	1	27
509.979	1	18
511.171	1	29
512.362	1	27
513.553	1	30
514.745	1	18
515.936	1	27
517.127	1	43
518.319	1	30
519.510	1	26
520.701	1	40
521.892	1	21
523.083	1	24
524.274	1	44
525.465	1	39
526.656	1	36
527.847	1	24
529.038	1	38
530.229	1	38
531.419	1	37
532.610	1	42
533.801	1	28
534.991	1	25
536.182	1	30
537.373	1	37
538.563	1	31
539.754	1	23
540.944	1	43
542.134	1	23
543.325	1	27
544.515	1	33
545.705	1	30
546.896	1	33
548.086	1	31
549.276	1	36
550.466	1	20
551.656	1	34
552.846	1	35
554.036	1	39
555.226	1	28
556.416	1	23
557.606	1	18
558.796	1	28
559.986	1	22
561.175	1	19
562.365	1	21
563.555	1	24
564.744	1	24
565.934	1	23
567.123	1	13
568.313	1	17
569.502	1	15
570.692	1	18
571.881	1	16
573.070	1	21
574.260	1	10
575.449	1	10
576.638	1	11
577.827	1	17
579.016	1	17
580.205	1	20
581.394	1	19
582.583	1	19
583.772	1	13
584.961	1	3
586.150	1	17
587.339	1	3
588.528	1	8
589.717	1	21
590.905	1	10
592.094	1	19
593.283	1	16
594.471	1	7
595.660	1	13
596.848	1	14
598.037	1	6
599.225	1	0
600.413	1	12
601.602	1	16
602.790	1	13
603.978	1	12
605.166	1	4
606.355	1	-8
607.543	1	17
608.731	1	-1
609.919	1	1
611.107	1	18
612.295	1	-1
613.483	1	8
614.671	1	9
615.858	1	-1
617.046	1	4
618.234	1	3
619.422	1	16
620.609	1	6
621.797	1	8
622.985	1	8
624.172	1	10
625.360	1	13
626.547	1	4
627.735	1	3
628.922	1	11
630.109	1	2
631.297	1	9
632.484	1	11
633.671	1	17
634.858	1	10
636.045	1	10
637.232	1	10
638.419	1	10
639.606	1	9
640.793	1	7
641.980	1	11
643.167	1	10
644.354	1	16
645.541	1	5
646.728	1	6
647.914	1	11
649.101	1	3
650.288	1	10
651.474	1	13
652.661	1	16
653.847	1	9
655.034	1	-1
656.220	1	18
657.406	1	3
658.593	1	9
659.779	1	16
660.965	1	10
662.152	1	6
663.338	1	3
664.524	1	20
665.710	1	9
666.896	1	4
668.082	1	9
669.268	1	-2
670.454	1	7
671.640	1	4
672.826	1	8
674.011	1	12
675.197	1	18
676.383	1	10
677.569	1	16
678.754	1	3
679.940	1	-2
681.125	1	5
682.311	1	15
683.496	1	-1
684.682	1	9
685.867	1	9
687.053	1	27
688.238	1	14
688.746	1	4