File: Data/GaN_150K_450ms/GaN_sample D_spot15_UVVIS_150 K_200um_450 ms 2x2mm1_72.txt
340.368	1	5
341.565	1	15
342.763	1	3
343.960	1	6
345.157	1	19
346.354	1	2
347.552	1	23
348.749	1	11
349.946	1	5
351.143	1	14
352.340	1	16
353.537	1	11
354.734	1	13
355.931	1	15
357.127	1	25
358.324	1	26
359.521	1	40
360.718	1	41
361.914	1	50
363.111	1	87
364.308	1	107
365.504	1	153
366.701	1	209
367.897	1	240
369.093	1	227
370.290	1	200
371.486	1	168
372.682	1	135
373.879	1	111
375.075	1	91
376.271	1	84
377.467	1	69
378.663	1	42
379.859	1	55
381.055	1	37
382.251	1	31
383.447	1	37
384.643	1	41
385.839	1	39
387.035	1	37
388.230	1	26
389.426	1	12
390.622	1	22
391.817	1	17
393.013	1	22
394.208	1	18
395.404	1	24
396.599	1	18
397.795	1	13
398.990	1	19
400.186	1	11
401.381	1	10
402.576	1	18
403.771	1	4
404.967	1	16
406.162	1	10
407.357	1	27
408.552	1	19
409.747	1	13
410.942	1	27
412.137	1	18
413.332	1	18
414.526	1	13
415.721	1	20
416.916	1	13
418.111	1	17
419.305	1	23
420.500	1	9
421.695	1	19
422.889	1	18
424.084	1	13
425.278	1	24
426.472	1	27
427.667	1	13
428.861	1	25
430.055	1	17
431.250	1	22
432.444	1	16
433.638	1	21
434.832	1	18
436.026	1	7
437.220	1	24
438.414	1	16
439.608	1	9
440.802	1	14
441.996	1	12
443.190	1	19
444.384	1	19
445.578	1	5
446.771	1	17
447.965	1	14
449.159	1	5
450.352	1	7
451.546	1	9
452.739	1	14
453.933	1	5
455.126	1	15
456.320	1	20
457.513	1	7
458.706	1	14
459.899	1	4
461.093	1	11
462.286	1	13
463.479	1	11
464.672	1	11
465.865	1	2
467.058	1	18
468.251	1	2
469.444	1	17
470.637	1	10
471.830	1	13
473.023	1	15
474.215	1	14
475.408	1	18
476.601	1	19
477.793	1	8
478.986	1	24
480.179	1	16
481.371	1	3
482.564	1	16
483.756	1	12
484.948	1	20
486.141	1	18
487.333	1	10
488.525	1	3
489.718	1	14
490.910	1	13
492.102	1	18
493.294	1	27
494.486	1	21
495.678	1	21
496.870	1	25
498.062	1	24
499.254	1	24
500.446	1	28
501.638	1	30
502.829	1	32
504.021	1	31
505.213	1	28
506.404	1	46
507.596	1	48
508.788	1	39
509.979	1	45
511.171	1	41
512.362	1	48
513.553	1	43
514.745	1	41
515.936	1	43
517.127	1	62
518.319	1	52
519.510	1	50
520.701	1	64
521.892	1	52
523.083	1	51
524.274	1	53
525.465	1	66
526.656	1	54
527.847	1	40
529.038	1	60
530.229	1	73
531.419	1	55
532.610	1	66
533.801	1	50
534.991	1	49
536.182	1	46
537.373	1	51
538.563	1	38
539.754	1	46
540.944	1	51
542.134	1	50
543.325	1	50
544.515	1	45
545.705	1	42
546.896	1	54
548.086	1	49
549.276	1	58
550.466	1	42
551.656	1	48
552.846	1	43
554.036	1	45
555.226	1	42
556.416	1	49
557.606	1	29
558.796	1	58
559.986	1	35
561.175	1	40
562.365	1	43
563.555	1	44
564.744	1	44
565.934	1	39
567.123	1	36
568.313	1	30
569.502	1	34
570.692	1	31
571.881	1	28
573.070	1	28
574.260	1	24
575.449	1	25
576.638	1	32
577.827	1	22
579.016	1	26
580.205	1	18
581.394	1	26
582.583	1	28
583.772	1	18
584.961	1	10
586.150	1	19
587.339	1	16
588.528	1	17
589.717	1	15
590.905	1	16
592.094	1	18
593.283	1	17
594.471	1	0
595.660	1	19
596.848	1	21
598.037	1	9
599.225	1	24
600.413	1	7
601.602	1	12
602.790	1	13
603.978	1	13
605.166	1	19
606.355	1	2
607.543	1	20
608.731	1	13
609.919	1	15
611.107	1	15
612.295	1	13
613.483	1	11
614.671	1	8
615.858	1	6
617.046	1	7
618.234	1	9
619.422	1	25
620.609	1	9
621.797	1	19
622.985	1	9
624.172	1	13
625.360	1	14
626.547	1	14
627.735	1	6
628.922	1	14
630.109	1	-4
631.297	1	12
632.484	1	22
633.671	1	16
634.858	1	9
636.045	1	2
637.232	1	2
638.419	1	5
639.606	1	18
640.793	1	7
641.980	1	22
643.167	1	11
644.354	1	19
645.541	1	4
646.728	1	12
647.914	1	10
649.101	1	0
650.288	1	0
651.474	1	13
652.661	1	19
653.847	1	16
655.034	1	5
656.220	1	23
657.406	1	0
658.593	1	9
659.779	1	12
660.965	1	8
662.152	1	5
663.338	1	7
664.524	1	19
665.710	1	6
666.896	1	11
668.082	1	10
669.268	1	2
670.454	1	22
671.640	1	13
672.826	1	8
674.011	1	6
675.197	1	8
676.383	1	-1
677.569	1	14
678.754	1	13
679.940	1	-4
681.125	1	9
682.311	1	10
683.496	1	0
684.682	1	13
685.867	1	4
687.053	1	30
688.238	1	21
688.746	1	7