File: Data/GaN_150K_450ms/GaN_sample D_spot15_UVVIS_150 K_200um_450 ms 2x2mm1_252.txt
340.368	1	5
341.565	1	5
342.763	1	-2
343.960	1	14
345.157	1	3
346.354	1	-6
347.552	1	9
348.749	1	13
349.946	1	-1
351.143	1	9
352.340	1	8
353.537	1	-3
354.734	1	4
355.931	1	2
357.127	1	14
358.324	1	4
359.521	1	9
360.718	1	8
361.914	1	9
363.111	1	11
364.308	1	5
365.504	1	11
366.701	1	3
367.897	1	14
369.093	1	21
370.290	1	17
371.486	1	17
372.682	1	9
373.879	1	1
375.075	1	6
376.271	1	10
377.467	1	15
378.663	1	13
379.859	1	10
381.055	1	1
382.251	1	-3
383.447	1	0
384.643	1	3
385.839	1	-1
387.035	1	5
388.230	1	3
389.426	1	3
390.622	1	-5
391.817	1	-11
393.013	1	7
394.208	1	5
395.404	1	4
396.599	1	9
397.795	1	2
398.990	1	10
400.186	1	3
401.381	1	0
402.576	1	4
403.771	1	0
404.967	1	9
406.162	1	-2
407.357	1	-1
408.552	1	-4
409.747	1	4
410.942	1	9
412.137	1	2
413.332	1	5
414.526	1	-10
415.721	1	4
416.916	1	2
418.111	1	6
419.305	1	9
420.500	1	5
421.695	1	13
422.889	1	8
424.084	1	0
425.278	1	5
426.472	1	11
427.667	1	3
428.861	1	18
430.055	1	11
431.250	1	4
432.444	1	-1
433.638	1	13
434.832	1	-3
436.026	1	4
437.220	1	7
438.414	1	1
439.608	1	5
440.802	1	2
441.996	1	1
443.190	1	5
444.384	1	8
445.578	1	4
446.771	1	8
447.965	1	5
449.159	1	-8
450.352	1	-3
451.546	1	-2
452.739	1	3
453.933	1	4
455.126	1	1
456.320	1	7
457.513	1	5
458.706	1	17
459.899	1	-10
461.093	1	6
462.286	1	2
463.479	1	-3
464.672	1	7
465.865	1	0
467.058	1	0
468.251	1	-4
469.444	1	-2
470.637	1	1
471.830	1	11
473.023	1	1
474.215	1	6
475.408	1	2
476.601	1	0
477.793	1	5
478.986	1	3
480.179	1	6
481.371	1	-5
482.564	1	9
483.756	1	4
484.948	1	3
486.141	1	-6
487.333	1	-3
488.525	1	-1
489.718	1	-5
490.910	1	8
492.102	1	1
493.294	1	-4
494.486	1	9
495.678	1	-5
496.870	1	-6
498.062	1	2
499.254	1	-8
500.446	1	-11
501.638	1	4
502.829	1	-1
504.021	1	7
505.213	1	-1
506.404	1	-1
507.596	1	11
508.788	1	2
509.979	1	0
511.171	1	2
512.362	1	17
513.553	1	5
514.745	1	2
515.936	1	-2
517.127	1	19
518.319	1	10
519.510	1	-5
520.701	1	1
521.892	1	11
523.083	1	-1
524.274	1	-4
525.465	1	12
526.656	1	5
527.847	1	-11
529.038	1	-1
530.229	1	8
531.419	1	8
532.610	1	9
533.801	1	0
534.991	1	1
536.182	1	-5
537.373	1	-7
538.563	1	-6
539.754	1	-6
540.944	1	12
542.134	1	-4
543.325	1	7
544.515	1	7
545.705	1	-6
546.896	1	8
548.086	1	3
549.276	1	7
550.466	1	8
551.656	1	-1
552.846	1	4
554.036	1	8
555.226	1	5
556.416	1	5
557.606	1	-7
558.796	1	3
559.986	1	3
561.175	1	6
562.365	1	6
563.555	1	8
564.744	1	14
565.934	1	15
567.123	1	-1
568.313	1	-3
569.502	1	9
570.692	1	6
571.881	1	4
573.070	1	9
574.260	1	-2
575.449	1	-1
576.638	1	13
577.827	1	3
579.016	1	-4
580.205	1	1
581.394	1	2
582.583	1	2
583.772	1	10
584.961	1	2
586.150	1	9
587.339	1	3
588.528	1	-2
589.717	1	-5
590.905	1	2
592.094	1	6
593.283	1	-1
594.471	1	-14
595.660	1	3
596.848	1	6
598.037	1	-3
599.225	1	-2
600.413	1	1
601.602	1	7
602.790	1	1
603.978	1	5
605.166	1	8
606.355	1	-10
607.543	1	7
608.731	1	-1
609.919	1	-8
611.107	1	15
612.295	1	4
613.483	1	-4
614.671	1	2
615.858	1	-7
617.046	1	8
618.234	1	-3
619.422	1	13
620.609	1	1
621.797	1	0
622.985	1	-4
624.172	1	6
625.360	1	8
626.547	1	-2
627.735	1	-3
628.922	1	10
630.109	1	2
631.297	1	-1
632.484	1	8
633.671	1	5
634.858	1	-3
636.045	1	-3
637.232	1	0
638.419	1	6
639.606	1	8
640.793	1	3
641.980	1	9
643.167	1	-4
644.354	1	1
645.541	1	6
646.728	1	1
647.914	1	-1
649.101	1	-4
650.288	1	0
651.474	1	1
652.661	1	3
653.847	1	1
655.034	1	1
656.220	1	11
657.406	1	-1
658.593	1	18
659.779	1	5
660.965	1	-4
662.152	1	6
663.338	1	-2
664.524	1	11
665.710	1	-2
666.896	1	5
668.082	1	3
669.268	1	-5
670.454	1	1
671.640	1	7
672.826	1	1
674.011	1	2
675.197	1	2
676.383	1	-2
677.569	1	14
678.754	1	-7
679.940	1	-5
681.125	1	3
682.311	1	9
683.496	1	-2
684.682	1	1
685.867	1	3
687.053	1	20
688.238	1	9
688.746	1	-1