File: Data/GaN_150K_450ms/GaN_sample D_spot15_UVVIS_150 K_200um_450 ms 2x2mm1_119.txt
340.368	1	7
341.565	1	3
342.763	1	3
343.960	1	14
345.157	1	3
346.354	1	1
347.552	1	18
348.749	1	12
349.946	1	3
351.143	1	1
352.340	1	11
353.537	1	5
354.734	1	2
355.931	1	6
357.127	1	20
358.324	1	8
359.521	1	16
360.718	1	23
361.914	1	21
363.111	1	11
364.308	1	41
365.504	1	43
366.701	1	61
367.897	1	61
369.093	1	54
370.290	1	56
371.486	1	49
372.682	1	44
373.879	1	23
375.075	1	20
376.271	1	35
377.467	1	23
378.663	1	28
379.859	1	13
381.055	1	4
382.251	1	5
383.447	1	25
384.643	1	11
385.839	1	16
387.035	1	11
388.230	1	11
389.426	1	7
390.622	1	5
391.817	1	-4
393.013	1	9
394.208	1	15
395.404	1	18
396.599	1	5
397.795	1	7
398.990	1	23
400.186	1	13
401.381	1	11
402.576	1	4
403.771	1	-5
404.967	1	16
406.162	1	2
407.357	1	18
408.552	1	1
409.747	1	2
410.942	1	19
412.137	1	5
413.332	1	18
414.526	1	10
415.721	1	12
416.916	1	11
418.111	1	17
419.305	1	17
420.500	1	19
421.695	1	25
422.889	1	10
424.084	1	14
425.278	1	16
426.472	1	20
427.667	1	11
428.861	1	17
430.055	1	25
431.250	1	18
432.444	1	9
433.638	1	9
434.832	1	12
436.026	1	8
437.220	1	15
438.414	1	18
439.608	1	4
440.802	1	12
441.996	1	5
443.190	1	9
444.384	1	8
445.578	1	1
446.771	1	4
447.965	1	16
449.159	1	2
450.352	1	-6
451.546	1	9
452.739	1	6
453.933	1	-1
455.126	1	4
456.320	1	13
457.513	1	12
458.706	1	19
459.899	1	4
461.093	1	9
462.286	1	3
463.479	1	8
464.672	1	6
465.865	1	9
467.058	1	8
468.251	1	2
469.444	1	7
470.637	1	0
471.830	1	9
473.023	1	6
474.215	1	2
475.408	1	7
476.601	1	6
477.793	1	-4
478.986	1	21
480.179	1	5
481.371	1	-4
482.564	1	11
483.756	1	14
484.948	1	10
486.141	1	15
487.333	1	-2
488.525	1	1
489.718	1	4
490.910	1	10
492.102	1	14
493.294	1	-2
494.486	1	3
495.678	1	0
496.870	1	1
498.062	1	11
499.254	1	4
500.446	1	4
501.638	1	12
502.829	1	2
504.021	1	10
505.213	1	8
506.404	1	18
507.596	1	15
508.788	1	15
509.979	1	14
511.171	1	20
512.362	1	15
513.553	1	16
514.745	1	9
515.936	1	10
517.127	1	22
518.319	1	16
519.510	1	3
520.701	1	20
521.892	1	24
523.083	1	9
524.274	1	10
525.465	1	26
526.656	1	15
527.847	1	6
529.038	1	14
530.229	1	23
531.419	1	6
532.610	1	23
533.801	1	20
534.991	1	3
536.182	1	12
537.373	1	5
538.563	1	15
539.754	1	26
540.944	1	12
542.134	1	16
543.325	1	20
544.515	1	12
545.705	1	15
546.896	1	15
548.086	1	15
549.276	1	12
550.466	1	9
551.656	1	17
552.846	1	24
554.036	1	19
555.226	1	14
556.416	1	24
557.606	1	6
558.796	1	28
559.986	1	8
561.175	1	8
562.365	1	11
563.555	1	14
564.744	1	18
565.934	1	12
567.123	1	9
568.313	1	15
569.502	1	12
570.692	1	17
571.881	1	5
573.070	1	8
574.260	1	11
575.449	1	6
576.638	1	18
577.827	1	5
579.016	1	13
580.205	1	11
581.394	1	8
582.583	1	8
583.772	1	14
584.961	1	7
586.150	1	8
587.339	1	4
588.528	1	2
589.717	1	10
590.905	1	2
592.094	1	19
593.283	1	-1
594.471	1	-5
595.660	1	15
596.848	1	13
598.037	1	4
599.225	1	3
600.413	1	15
601.602	1	4
602.790	1	17
603.978	1	7
605.166	1	9
606.355	1	-11
607.543	1	13
608.731	1	-2
609.919	1	-3
611.107	1	8
612.295	1	5
613.483	1	-1
614.671	1	1
615.858	1	-5
617.046	1	3
618.234	1	3
619.422	1	16
620.609	1	6
621.797	1	11
622.985	1	1
624.172	1	10
625.360	1	-4
626.547	1	-3
627.735	1	9
628.922	1	6
630.109	1	2
631.297	1	5
632.484	1	17
633.671	1	13
634.858	1	8
636.045	1	0
637.232	1	12
638.419	1	-2
639.606	1	5
640.793	1	8
641.980	1	13
643.167	1	7
644.354	1	5
645.541	1	5
646.728	1	5
647.914	1	9
649.101	1	10
650.288	1	9
651.474	1	16
652.661	1	10
653.847	1	12
655.034	1	-1
656.220	1	10
657.406	1	-6
658.593	1	6
659.779	1	14
660.965	1	6
662.152	1	0
663.338	1	3
664.524	1	7
665.710	1	13
666.896	1	6
668.082	1	7
669.268	1	12
670.454	1	11
671.640	1	12
672.826	1	3
674.011	1	5
675.197	1	3
676.383	1	-5
677.569	1	19
678.754	1	12
679.940	1	1
681.125	1	11
682.311	1	5
683.496	1	-2
684.682	1	13
685.867	1	4
687.053	1	20
688.238	1	10
688.746	1	0