File: Data/GaN_150K_450ms/GaN_sample D_spot15_UVVIS_150 K_200um_450 ms 2x2mm1_145.txt
340.368	1	0
341.565	1	14
342.763	1	6
343.960	1	5
345.157	1	12
346.354	1	5
347.552	1	16
348.749	1	13
349.946	1	-1
351.143	1	6
352.340	1	16
353.537	1	4
354.734	1	5
355.931	1	8
357.127	1	14
358.324	1	20
359.521	1	23
360.718	1	8
361.914	1	10
363.111	1	19
364.308	1	25
365.504	1	26
366.701	1	37
367.897	1	44
369.093	1	44
370.290	1	37
371.486	1	48
372.682	1	35
373.879	1	22
375.075	1	6
376.271	1	15
377.467	1	17
378.663	1	18
379.859	1	8
381.055	1	15
382.251	1	8
383.447	1	3
384.643	1	8
385.839	1	7
387.035	1	7
388.230	1	11
389.426	1	2
390.622	1	6
391.817	1	2
393.013	1	12
394.208	1	7
395.404	1	16
396.599	1	14
397.795	1	11
398.990	1	21
400.186	1	7
401.381	1	3
402.576	1	7
403.771	1	-2
404.967	1	14
406.162	1	4
407.357	1	18
408.552	1	5
409.747	1	2
410.942	1	14
412.137	1	5
413.332	1	11
414.526	1	7
415.721	1	12
416.916	1	6
418.111	1	16
419.305	1	5
420.500	1	12
421.695	1	4
422.889	1	7
424.084	1	14
425.278	1	14
426.472	1	15
427.667	1	3
428.861	1	8
430.055	1	7
431.250	1	16
432.444	1	13
433.638	1	16
434.832	1	5
436.026	1	0
437.220	1	13
438.414	1	19
439.608	1	1
440.802	1	11
441.996	1	6
443.190	1	7
444.384	1	7
445.578	1	7
446.771	1	6
447.965	1	0
449.159	1	-1
450.352	1	1
451.546	1	0
452.739	1	10
453.933	1	-4
455.126	1	5
456.320	1	4
457.513	1	6
458.706	1	17
459.899	1	4
461.093	1	12
462.286	1	4
463.479	1	-4
464.672	1	6
465.865	1	5
467.058	1	11
468.251	1	-4
469.444	1	8
470.637	1	7
471.830	1	11
473.023	1	8
474.215	1	6
475.408	1	4
476.601	1	7
477.793	1	7
478.986	1	8
480.179	1	4
481.371	1	-10
482.564	1	13
483.756	1	11
484.948	1	7
486.141	1	9
487.333	1	-1
488.525	1	1
489.718	1	-6
490.910	1	6
492.102	1	13
493.294	1	-3
494.486	1	5
495.678	1	2
496.870	1	6
498.062	1	12
499.254	1	-4
500.446	1	2
501.638	1	14
502.829	1	3
504.021	1	6
505.213	1	7
506.404	1	8
507.596	1	14
508.788	1	7
509.979	1	16
511.171	1	12
512.362	1	15
513.553	1	16
514.745	1	10
515.936	1	8
517.127	1	17
518.319	1	8
519.510	1	-2
520.701	1	8
521.892	1	9
523.083	1	13
524.274	1	10
525.465	1	19
526.656	1	11
527.847	1	-6
529.038	1	12
530.229	1	12
531.419	1	13
532.610	1	8
533.801	1	7
534.991	1	6
536.182	1	9
537.373	1	10
538.563	1	2
539.754	1	8
540.944	1	9
542.134	1	13
543.325	1	16
544.515	1	8
545.705	1	0
546.896	1	11
548.086	1	11
549.276	1	11
550.466	1	4
551.656	1	13
552.846	1	13
554.036	1	20
555.226	1	13
556.416	1	18
557.606	1	-3
558.796	1	17
559.986	1	11
561.175	1	-1
562.365	1	3
563.555	1	8
564.744	1	19
565.934	1	22
567.123	1	9
568.313	1	8
569.502	1	9
570.692	1	12
571.881	1	9
573.070	1	8
574.260	1	0
575.449	1	6
576.638	1	14
577.827	1	-1
579.016	1	6
580.205	1	2
581.394	1	7
582.583	1	4
583.772	1	9
584.961	1	-2
586.150	1	6
587.339	1	0
588.528	1	5
589.717	1	14
590.905	1	4
592.094	1	14
593.283	1	10
594.471	1	1
595.660	1	17
596.848	1	4
598.037	1	-9
599.225	1	0
600.413	1	7
601.602	1	7
602.790	1	19
603.978	1	3
605.166	1	-6
606.355	1	-9
607.543	1	9
608.731	1	-10
609.919	1	-10
611.107	1	7
612.295	1	12
613.483	1	4
614.671	1	5
615.858	1	-3
617.046	1	7
618.234	1	-2
619.422	1	15
620.609	1	-1
621.797	1	13
622.985	1	8
624.172	1	5
625.360	1	5
626.547	1	6
627.735	1	13
628.922	1	16
630.109	1	-2
631.297	1	3
632.484	1	12
633.671	1	-1
634.858	1	11
636.045	1	7
637.232	1	8
638.419	1	6
639.606	1	16
640.793	1	8
641.980	1	11
643.167	1	4
644.354	1	8
645.541	1	-2
646.728	1	6
647.914	1	1
649.101	1	-2
650.288	1	12
651.474	1	9
652.661	1	4
653.847	1	5
655.034	1	4
656.220	1	14
657.406	1	-6
658.593	1	7
659.779	1	4
660.965	1	3
662.152	1	3
663.338	1	3
664.524	1	13
665.710	1	6
666.896	1	7
668.082	1	3
669.268	1	4
670.454	1	0
671.640	1	7
672.826	1	1
674.011	1	8
675.197	1	7
676.383	1	5
677.569	1	19
678.754	1	3
679.940	1	-3
681.125	1	-1
682.311	1	10
683.496	1	7
684.682	1	7
685.867	1	6
687.053	1	12
688.238	1	7
688.746	1	3