File: Data/GaN_150K_450ms/GaN_sample D_spot15_UVVIS_150 K_200um_450 ms 2x2mm1_164.txt
340.368	1	-5
341.565	1	8
342.763	1	0
343.960	1	7
345.157	1	10
346.354	1	3
347.552	1	13
348.749	1	11
349.946	1	5
351.143	1	8
352.340	1	7
353.537	1	1
354.734	1	1
355.931	1	5
357.127	1	9
358.324	1	7
359.521	1	9
360.718	1	2
361.914	1	14
363.111	1	19
364.308	1	14
365.504	1	13
366.701	1	24
367.897	1	25
369.093	1	29
370.290	1	34
371.486	1	35
372.682	1	31
373.879	1	17
375.075	1	2
376.271	1	9
377.467	1	19
378.663	1	16
379.859	1	6
381.055	1	10
382.251	1	5
383.447	1	3
384.643	1	12
385.839	1	6
387.035	1	13
388.230	1	3
389.426	1	-1
390.622	1	3
391.817	1	-3
393.013	1	12
394.208	1	13
395.404	1	10
396.599	1	9
397.795	1	2
398.990	1	15
400.186	1	9
401.381	1	5
402.576	1	10
403.771	1	2
404.967	1	11
406.162	1	-1
407.357	1	8
408.552	1	-8
409.747	1	-3
410.942	1	16
412.137	1	7
413.332	1	6
414.526	1	-5
415.721	1	8
416.916	1	0
418.111	1	9
419.305	1	11
420.500	1	13
421.695	1	8
422.889	1	11
424.084	1	3
425.278	1	9
426.472	1	17
427.667	1	9
428.861	1	10
430.055	1	13
431.250	1	9
432.444	1	8
433.638	1	14
434.832	1	4
436.026	1	3
437.220	1	11
438.414	1	9
439.608	1	9
440.802	1	1
441.996	1	2
443.190	1	16
444.384	1	11
445.578	1	-6
446.771	1	3
447.965	1	4
449.159	1	5
450.352	1	9
451.546	1	10
452.739	1	5
453.933	1	-3
455.126	1	7
456.320	1	8
457.513	1	3
458.706	1	11
459.899	1	4
461.093	1	3
462.286	1	-2
463.479	1	1
464.672	1	7
465.865	1	12
467.058	1	2
468.251	1	-4
469.444	1	9
470.637	1	10
471.830	1	4
473.023	1	5
474.215	1	8
475.408	1	9
476.601	1	-3
477.793	1	7
478.986	1	5
480.179	1	10
481.371	1	-1
482.564	1	12
483.756	1	7
484.948	1	9
486.141	1	5
487.333	1	-3
488.525	1	-4
489.718	1	-13
490.910	1	7
492.102	1	7
493.294	1	0
494.486	1	3
495.678	1	3
496.870	1	7
498.062	1	0
499.254	1	5
500.446	1	0
501.638	1	12
502.829	1	-2
504.021	1	15
505.213	1	4
506.404	1	5
507.596	1	10
508.788	1	5
509.979	1	2
511.171	1	10
512.362	1	10
513.553	1	7
514.745	1	5
515.936	1	5
517.127	1	18
518.319	1	11
519.510	1	5
520.701	1	7
521.892	1	10
523.083	1	10
524.274	1	4
525.465	1	22
526.656	1	4
527.847	1	-5
529.038	1	9
530.229	1	9
531.419	1	5
532.610	1	14
533.801	1	14
534.991	1	13
536.182	1	8
537.373	1	11
538.563	1	9
539.754	1	4
540.944	1	7
542.134	1	14
543.325	1	14
544.515	1	7
545.705	1	5
546.896	1	3
548.086	1	3
549.276	1	14
550.466	1	11
551.656	1	6
552.846	1	13
554.036	1	19
555.226	1	6
556.416	1	16
557.606	1	-2
558.796	1	10
559.986	1	13
561.175	1	-3
562.365	1	2
563.555	1	9
564.744	1	17
565.934	1	9
567.123	1	3
568.313	1	2
569.502	1	9
570.692	1	3
571.881	1	0
573.070	1	15
574.260	1	6
575.449	1	-4
576.638	1	14
577.827	1	-3
579.016	1	5
580.205	1	5
581.394	1	5
582.583	1	4
583.772	1	2
584.961	1	1
586.150	1	4
587.339	1	-1
588.528	1	6
589.717	1	8
590.905	1	-1
592.094	1	12
593.283	1	0
594.471	1	-3
595.660	1	11
596.848	1	2
598.037	1	-2
599.225	1	7
600.413	1	6
601.602	1	18
602.790	1	4
603.978	1	3
605.166	1	8
606.355	1	-11
607.543	1	3
608.731	1	-11
609.919	1	-6
611.107	1	15
612.295	1	7
613.483	1	3
614.671	1	7
615.858	1	-5
617.046	1	6
618.234	1	-2
619.422	1	13
620.609	1	3
621.797	1	-8
622.985	1	-3
624.172	1	7
625.360	1	8
626.547	1	-5
627.735	1	6
628.922	1	16
630.109	1	-3
631.297	1	0
632.484	1	8
633.671	1	4
634.858	1	8
636.045	1	-2
637.232	1	-3
638.419	1	3
639.606	1	14
640.793	1	4
641.980	1	14
643.167	1	11
644.354	1	9
645.541	1	6
646.728	1	4
647.914	1	4
649.101	1	-1
650.288	1	5
651.474	1	13
652.661	1	10
653.847	1	-1
655.034	1	-2
656.220	1	4
657.406	1	-1
658.593	1	6
659.779	1	4
660.965	1	3
662.152	1	4
663.338	1	-3
664.524	1	13
665.710	1	7
666.896	1	6
668.082	1	4
669.268	1	4
670.454	1	2
671.640	1	7
672.826	1	2
674.011	1	4
675.197	1	12
676.383	1	5
677.569	1	12
678.754	1	7
679.940	1	-6
681.125	1	-3
682.311	1	7
683.496	1	-1
684.682	1	2
685.867	1	1
687.053	1	19
688.238	1	5
688.746	1	3