File: Data/GaN_150K_450ms/GaN_sample D_spot15_UVVIS_150 K_200um_450 ms 2x2mm1_25.txt
340.368	1	-2
341.565	1	-2
342.763	1	-1
343.960	1	3
345.157	1	16
346.354	1	-3
347.552	1	12
348.749	1	14
349.946	1	-6
351.143	1	1
352.340	1	5
353.537	1	-11
354.734	1	5
355.931	1	9
357.127	1	12
358.324	1	5
359.521	1	11
360.718	1	4
361.914	1	6
363.111	1	-5
364.308	1	5
365.504	1	0
366.701	1	4
367.897	1	4
369.093	1	0
370.290	1	3
371.486	1	6
372.682	1	-1
373.879	1	-5
375.075	1	-2
376.271	1	-8
377.467	1	5
378.663	1	-1
379.859	1	1
381.055	1	5
382.251	1	-2
383.447	1	-3
384.643	1	5
385.839	1	5
387.035	1	1
388.230	1	2
389.426	1	-11
390.622	1	-8
391.817	1	0
393.013	1	0
394.208	1	-2
395.404	1	6
396.599	1	5
397.795	1	-1
398.990	1	8
400.186	1	-4
401.381	1	-2
402.576	1	-4
403.771	1	-11
404.967	1	1
406.162	1	-9
407.357	1	5
408.552	1	-4
409.747	1	-4
410.942	1	5
412.137	1	5
413.332	1	4
414.526	1	-16
415.721	1	-6
416.916	1	-4
418.111	1	1
419.305	1	2
420.500	1	7
421.695	1	6
422.889	1	0
424.084	1	1
425.278	1	-3
426.472	1	1
427.667	1	-4
428.861	1	5
430.055	1	5
431.250	1	5
432.444	1	11
433.638	1	13
434.832	1	-8
436.026	1	1
437.220	1	6
438.414	1	4
439.608	1	0
440.802	1	-1
441.996	1	-3
443.190	1	3
444.384	1	2
445.578	1	-7
446.771	1	1
447.965	1	1
449.159	1	0
450.352	1	-1
451.546	1	2
452.739	1	4
453.933	1	-10
455.126	1	0
456.320	1	2
457.513	1	2
458.706	1	10
459.899	1	-2
461.093	1	1
462.286	1	-2
463.479	1	-1
464.672	1	5
465.865	1	1
467.058	1	9
468.251	1	-2
469.444	1	2
470.637	1	-9
471.830	1	4
473.023	1	7
474.215	1	-1
475.408	1	3
476.601	1	2
477.793	1	5
478.986	1	10
480.179	1	9
481.371	1	-11
482.564	1	5
483.756	1	2
484.948	1	5
486.141	1	7
487.333	1	-5
488.525	1	-3
489.718	1	-6
490.910	1	-1
492.102	1	5
493.294	1	-16
494.486	1	4
495.678	1	-5
496.870	1	6
498.062	1	1
499.254	1	-6
500.446	1	-9
501.638	1	2
502.829	1	-2
504.021	1	2
505.213	1	-2
506.404	1	1
507.596	1	7
508.788	1	-1
509.979	1	-5
511.171	1	-3
512.362	1	3
513.553	1	-5
514.745	1	2
515.936	1	3
517.127	1	5
518.319	1	1
519.510	1	-3
520.701	1	4
521.892	1	1
523.083	1	0
524.274	1	2
525.465	1	8
526.656	1	0
527.847	1	-6
529.038	1	-3
530.229	1	9
531.419	1	1
532.610	1	5
533.801	1	1
534.991	1	3
536.182	1	0
537.373	1	4
538.563	1	-2
539.754	1	-9
540.944	1	5
542.134	1	-1
543.325	1	9
544.515	1	-12
545.705	1	8
546.896	1	-3
548.086	1	2
549.276	1	3
550.466	1	-2
551.656	1	-2
552.846	1	5
554.036	1	14
555.226	1	-2
556.416	1	5
557.606	1	-9
558.796	1	13
559.986	1	8
561.175	1	-8
562.365	1	-2
563.555	1	6
564.744	1	10
565.934	1	8
567.123	1	2
568.313	1	1
569.502	1	3
570.692	1	-3
571.881	1	-4
573.070	1	4
574.260	1	4
575.449	1	-10
576.638	1	3
577.827	1	5
579.016	1	0
580.205	1	-1
581.394	1	1
582.583	1	4
583.772	1	5
584.961	1	-5
586.150	1	-2
587.339	1	-1
588.528	1	2
589.717	1	-1
590.905	1	1
592.094	1	8
593.283	1	7
594.471	1	-15
595.660	1	12
596.848	1	0
598.037	1	0
599.225	1	4
600.413	1	2
601.602	1	13
602.790	1	5
603.978	1	4
605.166	1	3
606.355	1	-15
607.543	1	5
608.731	1	-8
609.919	1	-9
611.107	1	4
612.295	1	-4
613.483	1	3
614.671	1	6
615.858	1	-22
617.046	1	-1
618.234	1	-9
619.422	1	11
620.609	1	-2
621.797	1	2
622.985	1	-13
624.172	1	-4
625.360	1	-7
626.547	1	-6
627.735	1	-3
628.922	1	14
630.109	1	-2
631.297	1	12
632.484	1	4
633.671	1	7
634.858	1	-2
636.045	1	-1
637.232	1	-5
638.419	1	0
639.606	1	6
640.793	1	-1
641.980	1	7
643.167	1	-1
644.354	1	14
645.541	1	9
646.728	1	-5
647.914	1	1
649.101	1	1
650.288	1	3
651.474	1	3
652.661	1	6
653.847	1	-4
655.034	1	-1
656.220	1	3
657.406	1	1
658.593	1	15
659.779	1	10
660.965	1	-4
662.152	1	1
663.338	1	0
664.524	1	4
665.710	1	4
666.896	1	7
668.082	1	2
669.268	1	-5
670.454	1	5
671.640	1	8
672.826	1	4
674.011	1	1
675.197	1	13
676.383	1	-8
677.569	1	11
678.754	1	-5
679.940	1	-6
681.125	1	0
682.311	1	3
683.496	1	3
684.682	1	6
685.867	1	0
687.053	1	15
688.238	1	7
688.746	1	-4