File: Data/GaN_150K_450ms/GaN_sample D_spot15_UVVIS_150 K_200um_450 ms 2x2mm1_256.txt
340.368	1	7
341.565	1	7
342.763	1	8
343.960	1	-1
345.157	1	5
346.354	1	-4
347.552	1	12
348.749	1	10
349.946	1	1
351.143	1	6
352.340	1	3
353.537	1	7
354.734	1	0
355.931	1	5
357.127	1	12
358.324	1	-6
359.521	1	10
360.718	1	-1
361.914	1	16
363.111	1	1
364.308	1	18
365.504	1	3
366.701	1	14
367.897	1	14
369.093	1	17
370.290	1	12
371.486	1	14
372.682	1	17
373.879	1	5
375.075	1	4
376.271	1	7
377.467	1	6
378.663	1	-2
379.859	1	-1
381.055	1	-4
382.251	1	-3
383.447	1	2
384.643	1	4
385.839	1	4
387.035	1	11
388.230	1	7
389.426	1	-2
390.622	1	-9
391.817	1	-6
393.013	1	8
394.208	1	-1
395.404	1	2
396.599	1	5
397.795	1	-9
398.990	1	11
400.186	1	3
401.381	1	5
402.576	1	8
403.771	1	-7
404.967	1	8
406.162	1	3
407.357	1	9
408.552	1	-12
409.747	1	1
410.942	1	12
412.137	1	0
413.332	1	7
414.526	1	3
415.721	1	1
416.916	1	3
418.111	1	-4
419.305	1	2
420.500	1	13
421.695	1	10
422.889	1	7
424.084	1	3
425.278	1	0
426.472	1	12
427.667	1	1
428.861	1	-1
430.055	1	3
431.250	1	9
432.444	1	0
433.638	1	12
434.832	1	-4
436.026	1	0
437.220	1	8
438.414	1	1
439.608	1	-8
440.802	1	1
441.996	1	-2
443.190	1	8
444.384	1	5
445.578	1	-10
446.771	1	-1
447.965	1	-1
449.159	1	-2
450.352	1	4
451.546	1	6
452.739	1	3
453.933	1	-2
455.126	1	6
456.320	1	7
457.513	1	8
458.706	1	10
459.899	1	1
461.093	1	6
462.286	1	-2
463.479	1	-10
464.672	1	3
465.865	1	-5
467.058	1	6
468.251	1	-5
469.444	1	8
470.637	1	17
471.830	1	1
473.023	1	6
474.215	1	9
475.408	1	5
476.601	1	2
477.793	1	-5
478.986	1	9
480.179	1	10
481.371	1	-10
482.564	1	3
483.756	1	5
484.948	1	2
486.141	1	3
487.333	1	-2
488.525	1	-7
489.718	1	-8
490.910	1	-5
492.102	1	-1
493.294	1	-4
494.486	1	-2
495.678	1	8
496.870	1	7
498.062	1	2
499.254	1	-9
500.446	1	1
501.638	1	-2
502.829	1	-4
504.021	1	8
505.213	1	1
506.404	1	2
507.596	1	4
508.788	1	-2
509.979	1	-1
511.171	1	4
512.362	1	3
513.553	1	2
514.745	1	1
515.936	1	2
517.127	1	12
518.319	1	6
519.510	1	0
520.701	1	-2
521.892	1	7
523.083	1	5
524.274	1	2
525.465	1	10
526.656	1	3
527.847	1	-6
529.038	1	3
530.229	1	8
531.419	1	11
532.610	1	7
533.801	1	-8
534.991	1	5
536.182	1	-3
537.373	1	10
538.563	1	2
539.754	1	5
540.944	1	5
542.134	1	2
543.325	1	3
544.515	1	4
545.705	1	-2
546.896	1	-6
548.086	1	5
549.276	1	-3
550.466	1	1
551.656	1	-3
552.846	1	10
554.036	1	6
555.226	1	-3
556.416	1	5
557.606	1	-4
558.796	1	5
559.986	1	8
561.175	1	-8
562.365	1	4
563.555	1	7
564.744	1	6
565.934	1	10
567.123	1	-4
568.313	1	3
569.502	1	6
570.692	1	10
571.881	1	2
573.070	1	2
574.260	1	4
575.449	1	2
576.638	1	6
577.827	1	-5
579.016	1	8
580.205	1	0
581.394	1	13
582.583	1	1
583.772	1	9
584.961	1	-4
586.150	1	-4
587.339	1	3
588.528	1	0
589.717	1	8
590.905	1	0
592.094	1	4
593.283	1	6
594.471	1	-12
595.660	1	5
596.848	1	-3
598.037	1	0
599.225	1	0
600.413	1	2
601.602	1	8
602.790	1	5
603.978	1	1
605.166	1	14
606.355	1	-18
607.543	1	-5
608.731	1	-15
609.919	1	-5
611.107	1	14
612.295	1	2
613.483	1	-9
614.671	1	12
615.858	1	-14
617.046	1	6
618.234	1	-2
619.422	1	16
620.609	1	-8
621.797	1	0
622.985	1	-4
624.172	1	5
625.360	1	11
626.547	1	1
627.735	1	5
628.922	1	3
630.109	1	-5
631.297	1	10
632.484	1	7
633.671	1	7
634.858	1	1
636.045	1	-2
637.232	1	4
638.419	1	-3
639.606	1	5
640.793	1	0
641.980	1	12
643.167	1	-4
644.354	1	10
645.541	1	6
646.728	1	-4
647.914	1	-4
649.101	1	-2
650.288	1	6
651.474	1	2
652.661	1	3
653.847	1	2
655.034	1	-2
656.220	1	4
657.406	1	-5
658.593	1	2
659.779	1	2
660.965	1	2
662.152	1	7
663.338	1	-7
664.524	1	11
665.710	1	13
666.896	1	12
668.082	1	3
669.268	1	0
670.454	1	5
671.640	1	13
672.826	1	6
674.011	1	4
675.197	1	7
676.383	1	0
677.569	1	11
678.754	1	-1
679.940	1	0
681.125	1	-10
682.311	1	12
683.496	1	-5
684.682	1	21
685.867	1	16
687.053	1	21
688.238	1	14
688.746	1	-2