File: Data/GaN_150K_450ms/GaN_sample D_spot15_UVVIS_150 K_200um_450 ms 2x2mm1_139.txt
340.368	1	0
341.565	1	4
342.763	1	5
343.960	1	3
345.157	1	13
346.354	1	4
347.552	1	15
348.749	1	17
349.946	1	6
351.143	1	18
352.340	1	12
353.537	1	4
354.734	1	4
355.931	1	-1
357.127	1	10
358.324	1	15
359.521	1	12
360.718	1	10
361.914	1	15
363.111	1	15
364.308	1	29
365.504	1	36
366.701	1	44
367.897	1	49
369.093	1	51
370.290	1	43
371.486	1	35
372.682	1	35
373.879	1	35
375.075	1	10
376.271	1	23
377.467	1	21
378.663	1	21
379.859	1	13
381.055	1	13
382.251	1	-7
383.447	1	10
384.643	1	4
385.839	1	12
387.035	1	20
388.230	1	11
389.426	1	4
390.622	1	3
391.817	1	-2
393.013	1	24
394.208	1	5
395.404	1	15
396.599	1	9
397.795	1	1
398.990	1	21
400.186	1	13
401.381	1	2
402.576	1	9
403.771	1	-4
404.967	1	5
406.162	1	3
407.357	1	10
408.552	1	6
409.747	1	7
410.942	1	18
412.137	1	9
413.332	1	10
414.526	1	-2
415.721	1	13
416.916	1	14
418.111	1	6
419.305	1	14
420.500	1	11
421.695	1	12
422.889	1	13
424.084	1	17
425.278	1	9
426.472	1	25
427.667	1	12
428.861	1	13
430.055	1	14
431.250	1	11
432.444	1	10
433.638	1	17
434.832	1	4
436.026	1	1
437.220	1	18
438.414	1	20
439.608	1	-1
440.802	1	12
441.996	1	5
443.190	1	18
444.384	1	6
445.578	1	2
446.771	1	8
447.965	1	9
449.159	1	13
450.352	1	15
451.546	1	-2
452.739	1	2
453.933	1	6
455.126	1	6
456.320	1	14
457.513	1	9
458.706	1	12
459.899	1	7
461.093	1	8
462.286	1	8
463.479	1	-1
464.672	1	-2
465.865	1	5
467.058	1	-1
468.251	1	1
469.444	1	2
470.637	1	5
471.830	1	13
473.023	1	8
474.215	1	10
475.408	1	8
476.601	1	0
477.793	1	2
478.986	1	20
480.179	1	10
481.371	1	-3
482.564	1	9
483.756	1	12
484.948	1	16
486.141	1	16
487.333	1	8
488.525	1	-1
489.718	1	-10
490.910	1	11
492.102	1	7
493.294	1	-12
494.486	1	-6
495.678	1	1
496.870	1	7
498.062	1	2
499.254	1	-4
500.446	1	-6
501.638	1	3
502.829	1	7
504.021	1	8
505.213	1	-6
506.404	1	9
507.596	1	12
508.788	1	5
509.979	1	9
511.171	1	7
512.362	1	17
513.553	1	14
514.745	1	7
515.936	1	21
517.127	1	22
518.319	1	14
519.510	1	5
520.701	1	10
521.892	1	12
523.083	1	4
524.274	1	6
525.465	1	21
526.656	1	7
527.847	1	0
529.038	1	14
530.229	1	18
531.419	1	3
532.610	1	14
533.801	1	18
534.991	1	9
536.182	1	7
537.373	1	15
538.563	1	17
539.754	1	5
540.944	1	6
542.134	1	16
543.325	1	21
544.515	1	4
545.705	1	10
546.896	1	9
548.086	1	13
549.276	1	14
550.466	1	7
551.656	1	8
552.846	1	5
554.036	1	18
555.226	1	4
556.416	1	13
557.606	1	2
558.796	1	18
559.986	1	11
561.175	1	2
562.365	1	13
563.555	1	9
564.744	1	18
565.934	1	20
567.123	1	2
568.313	1	7
569.502	1	18
570.692	1	10
571.881	1	7
573.070	1	17
574.260	1	2
575.449	1	2
576.638	1	12
577.827	1	5
579.016	1	-1
580.205	1	14
581.394	1	6
582.583	1	7
583.772	1	14
584.961	1	8
586.150	1	7
587.339	1	3
588.528	1	0
589.717	1	4
590.905	1	7
592.094	1	5
593.283	1	7
594.471	1	5
595.660	1	11
596.848	1	15
598.037	1	8
599.225	1	4
600.413	1	0
601.602	1	12
602.790	1	-6
603.978	1	-2
605.166	1	5
606.355	1	-5
607.543	1	6
608.731	1	5
609.919	1	1
611.107	1	21
612.295	1	3
613.483	1	3
614.671	1	16
615.858	1	-2
617.046	1	-1
618.234	1	-3
619.422	1	12
620.609	1	6
621.797	1	1
622.985	1	3
624.172	1	9
625.360	1	7
626.547	1	2
627.735	1	6
628.922	1	6
630.109	1	1
631.297	1	11
632.484	1	11
633.671	1	7
634.858	1	5
636.045	1	0
637.232	1	0
638.419	1	2
639.606	1	7
640.793	1	-1
641.980	1	13
643.167	1	4
644.354	1	11
645.541	1	6
646.728	1	8
647.914	1	4
649.101	1	-3
650.288	1	10
651.474	1	7
652.661	1	14
653.847	1	4
655.034	1	7
656.220	1	10
657.406	1	4
658.593	1	2
659.779	1	8
660.965	1	9
662.152	1	4
663.338	1	1
664.524	1	11
665.710	1	14
666.896	1	6
668.082	1	3
669.268	1	6
670.454	1	7
671.640	1	7
672.826	1	5
674.011	1	8
675.197	1	13
676.383	1	7
677.569	1	14
678.754	1	0
679.940	1	-5
681.125	1	6
682.311	1	15
683.496	1	0
684.682	1	10
685.867	1	4
687.053	1	16
688.238	1	24
688.746	1	5