File: Data/GaN_150K_450ms/GaN_sample D_spot15_UVVIS_150 K_200um_450 ms 2x2mm1_183.txt
340.368	1	-1
341.565	1	10
342.763	1	9
343.960	1	10
345.157	1	12
346.354	1	2
347.552	1	9
348.749	1	9
349.946	1	-2
351.143	1	8
352.340	1	11
353.537	1	2
354.734	1	5
355.931	1	12
357.127	1	18
358.324	1	5
359.521	1	16
360.718	1	11
361.914	1	14
363.111	1	12
364.308	1	11
365.504	1	17
366.701	1	19
367.897	1	31
369.093	1	26
370.290	1	30
371.486	1	27
372.682	1	17
373.879	1	11
375.075	1	6
376.271	1	12
377.467	1	22
378.663	1	11
379.859	1	7
381.055	1	4
382.251	1	5
383.447	1	11
384.643	1	3
385.839	1	10
387.035	1	9
388.230	1	9
389.426	1	-6
390.622	1	0
391.817	1	-5
393.013	1	-1
394.208	1	2
395.404	1	8
396.599	1	10
397.795	1	6
398.990	1	9
400.186	1	6
401.381	1	3
402.576	1	0
403.771	1	-2
404.967	1	10
406.162	1	1
407.357	1	13
408.552	1	5
409.747	1	2
410.942	1	7
412.137	1	15
413.332	1	16
414.526	1	2
415.721	1	7
416.916	1	-2
418.111	1	18
419.305	1	12
420.500	1	8
421.695	1	7
422.889	1	11
424.084	1	12
425.278	1	0
426.472	1	13
427.667	1	0
428.861	1	8
430.055	1	12
431.250	1	7
432.444	1	0
433.638	1	21
434.832	1	2
436.026	1	-1
437.220	1	1
438.414	1	7
439.608	1	6
440.802	1	12
441.996	1	2
443.190	1	8
444.384	1	14
445.578	1	-9
446.771	1	2
447.965	1	0
449.159	1	-1
450.352	1	3
451.546	1	4
452.739	1	3
453.933	1	-3
455.126	1	12
456.320	1	12
457.513	1	0
458.706	1	10
459.899	1	2
461.093	1	5
462.286	1	-3
463.479	1	7
464.672	1	3
465.865	1	8
467.058	1	7
468.251	1	-1
469.444	1	9
470.637	1	5
471.830	1	3
473.023	1	2
474.215	1	6
475.408	1	5
476.601	1	-2
477.793	1	3
478.986	1	10
480.179	1	13
481.371	1	-4
482.564	1	10
483.756	1	9
484.948	1	13
486.141	1	9
487.333	1	-9
488.525	1	-3
489.718	1	-1
490.910	1	4
492.102	1	8
493.294	1	-13
494.486	1	4
495.678	1	1
496.870	1	7
498.062	1	0
499.254	1	-1
500.446	1	3
501.638	1	5
502.829	1	-1
504.021	1	11
505.213	1	3
506.404	1	7
507.596	1	16
508.788	1	5
509.979	1	0
511.171	1	13
512.362	1	4
513.553	1	12
514.745	1	-4
515.936	1	9
517.127	1	13
518.319	1	6
519.510	1	-1
520.701	1	8
521.892	1	8
523.083	1	8
524.274	1	13
525.465	1	20
526.656	1	20
527.847	1	-9
529.038	1	3
530.229	1	22
531.419	1	5
532.610	1	18
533.801	1	12
534.991	1	1
536.182	1	-5
537.373	1	7
538.563	1	8
539.754	1	8
540.944	1	5
542.134	1	4
543.325	1	15
544.515	1	2
545.705	1	4
546.896	1	16
548.086	1	6
549.276	1	7
550.466	1	4
551.656	1	5
552.846	1	3
554.036	1	20
555.226	1	4
556.416	1	11
557.606	1	-9
558.796	1	4
559.986	1	10
561.175	1	2
562.365	1	2
563.555	1	13
564.744	1	18
565.934	1	19
567.123	1	10
568.313	1	11
569.502	1	4
570.692	1	3
571.881	1	2
573.070	1	13
574.260	1	2
575.449	1	0
576.638	1	18
577.827	1	-1
579.016	1	9
580.205	1	5
581.394	1	4
582.583	1	8
583.772	1	3
584.961	1	4
586.150	1	-4
587.339	1	-1
588.528	1	1
589.717	1	2
590.905	1	2
592.094	1	17
593.283	1	3
594.471	1	2
595.660	1	9
596.848	1	13
598.037	1	-1
599.225	1	7
600.413	1	-5
601.602	1	3
602.790	1	7
603.978	1	1
605.166	1	5
606.355	1	-10
607.543	1	10
608.731	1	-6
609.919	1	-10
611.107	1	5
612.295	1	8
613.483	1	4
614.671	1	3
615.858	1	-5
617.046	1	2
618.234	1	-5
619.422	1	18
620.609	1	2
621.797	1	11
622.985	1	-5
624.172	1	6
625.360	1	-2
626.547	1	-4
627.735	1	7
628.922	1	7
630.109	1	-7
631.297	1	7
632.484	1	14
633.671	1	2
634.858	1	8
636.045	1	-4
637.232	1	13
638.419	1	-6
639.606	1	11
640.793	1	0
641.980	1	16
643.167	1	6
644.354	1	0
645.541	1	0
646.728	1	-3
647.914	1	-4
649.101	1	2
650.288	1	0
651.474	1	8
652.661	1	11
653.847	1	7
655.034	1	4
656.220	1	2
657.406	1	1
658.593	1	9
659.779	1	8
660.965	1	3
662.152	1	-2
663.338	1	-3
664.524	1	2
665.710	1	2
666.896	1	4
668.082	1	9
669.268	1	-1
670.454	1	2
671.640	1	7
672.826	1	5
674.011	1	8
675.197	1	2
676.383	1	-1
677.569	1	14
678.754	1	5
679.940	1	1
681.125	1	2
682.311	1	8
683.496	1	10
684.682	1	4
685.867	1	1
687.053	1	11
688.238	1	7
688.746	1	-2