File: Data/GaN_150K_450ms/GaN_sample D_spot15_UVVIS_150 K_200um_450 ms 2x2mm1_142.txt
340.368	1	11
341.565	1	7
342.763	1	2
343.960	1	5
345.157	1	16
346.354	1	5
347.552	1	9
348.749	1	12
349.946	1	-2
351.143	1	7
352.340	1	11
353.537	1	4
354.734	1	3
355.931	1	14
357.127	1	13
358.324	1	9
359.521	1	10
360.718	1	12
361.914	1	19
363.111	1	12
364.308	1	29
365.504	1	31
366.701	1	51
367.897	1	36
369.093	1	46
370.290	1	51
371.486	1	42
372.682	1	32
373.879	1	36
375.075	1	19
376.271	1	20
377.467	1	27
378.663	1	3
379.859	1	14
381.055	1	10
382.251	1	-3
383.447	1	11
384.643	1	12
385.839	1	5
387.035	1	13
388.230	1	8
389.426	1	2
390.622	1	-2
391.817	1	-2
393.013	1	12
394.208	1	7
395.404	1	11
396.599	1	2
397.795	1	0
398.990	1	21
400.186	1	4
401.381	1	9
402.576	1	-2
403.771	1	-5
404.967	1	2
406.162	1	4
407.357	1	10
408.552	1	14
409.747	1	8
410.942	1	4
412.137	1	15
413.332	1	6
414.526	1	1
415.721	1	1
416.916	1	12
418.111	1	5
419.305	1	14
420.500	1	-2
421.695	1	18
422.889	1	16
424.084	1	7
425.278	1	-1
426.472	1	18
427.667	1	11
428.861	1	19
430.055	1	15
431.250	1	15
432.444	1	8
433.638	1	14
434.832	1	5
436.026	1	0
437.220	1	18
438.414	1	7
439.608	1	6
440.802	1	12
441.996	1	9
443.190	1	11
444.384	1	23
445.578	1	1
446.771	1	4
447.965	1	7
449.159	1	2
450.352	1	-1
451.546	1	5
452.739	1	12
453.933	1	-4
455.126	1	7
456.320	1	7
457.513	1	4
458.706	1	15
459.899	1	12
461.093	1	2
462.286	1	5
463.479	1	3
464.672	1	4
465.865	1	6
467.058	1	-1
468.251	1	-2
469.444	1	15
470.637	1	3
471.830	1	18
473.023	1	6
474.215	1	6
475.408	1	3
476.601	1	5
477.793	1	7
478.986	1	12
480.179	1	10
481.371	1	-2
482.564	1	9
483.756	1	4
484.948	1	10
486.141	1	13
487.333	1	-6
488.525	1	-1
489.718	1	-5
490.910	1	11
492.102	1	3
493.294	1	-4
494.486	1	7
495.678	1	3
496.870	1	-3
498.062	1	3
499.254	1	3
500.446	1	5
501.638	1	13
502.829	1	6
504.021	1	9
505.213	1	4
506.404	1	14
507.596	1	12
508.788	1	9
509.979	1	0
511.171	1	7
512.362	1	18
513.553	1	19
514.745	1	3
515.936	1	15
517.127	1	15
518.319	1	9
519.510	1	-1
520.701	1	22
521.892	1	16
523.083	1	7
524.274	1	9
525.465	1	24
526.656	1	3
527.847	1	-4
529.038	1	13
530.229	1	10
531.419	1	10
532.610	1	16
533.801	1	11
534.991	1	11
536.182	1	10
537.373	1	3
538.563	1	10
539.754	1	14
540.944	1	11
542.134	1	9
543.325	1	24
544.515	1	5
545.705	1	13
546.896	1	3
548.086	1	11
549.276	1	4
550.466	1	8
551.656	1	12
552.846	1	12
554.036	1	9
555.226	1	15
556.416	1	14
557.606	1	1
558.796	1	18
559.986	1	6
561.175	1	3
562.365	1	4
563.555	1	16
564.744	1	22
565.934	1	15
567.123	1	-4
568.313	1	8
569.502	1	8
570.692	1	12
571.881	1	7
573.070	1	6
574.260	1	10
575.449	1	-2
576.638	1	9
577.827	1	7
579.016	1	7
580.205	1	13
581.394	1	-3
582.583	1	12
583.772	1	13
584.961	1	-2
586.150	1	14
587.339	1	8
588.528	1	5
589.717	1	6
590.905	1	7
592.094	1	15
593.283	1	6
594.471	1	-1
595.660	1	8
596.848	1	1
598.037	1	4
599.225	1	5
600.413	1	8
601.602	1	12
602.790	1	4
603.978	1	2
605.166	1	15
606.355	1	-6
607.543	1	12
608.731	1	-2
609.919	1	-7
611.107	1	19
612.295	1	3
613.483	1	1
614.671	1	-7
615.858	1	3
617.046	1	3
618.234	1	-8
619.422	1	16
620.609	1	-11
621.797	1	9
622.985	1	-4
624.172	1	-2
625.360	1	0
626.547	1	0
627.735	1	5
628.922	1	11
630.109	1	-2
631.297	1	9
632.484	1	9
633.671	1	3
634.858	1	10
636.045	1	-3
637.232	1	5
638.419	1	-9
639.606	1	8
640.793	1	2
641.980	1	7
643.167	1	4
644.354	1	13
645.541	1	8
646.728	1	5
647.914	1	4
649.101	1	8
650.288	1	0
651.474	1	13
652.661	1	17
653.847	1	10
655.034	1	-4
656.220	1	0
657.406	1	-2
658.593	1	11
659.779	1	10
660.965	1	1
662.152	1	-5
663.338	1	-2
664.524	1	7
665.710	1	12
666.896	1	6
668.082	1	3
669.268	1	6
670.454	1	1
671.640	1	6
672.826	1	10
674.011	1	9
675.197	1	0
676.383	1	2
677.569	1	6
678.754	1	-3
679.940	1	5
681.125	1	2
682.311	1	6
683.496	1	-7
684.682	1	10
685.867	1	6
687.053	1	16
688.238	1	8
688.746	1	7