File: Data/GaN_150K_450ms/GaN_sample D_spot15_UVVIS_150 K_200um_450 ms 2x2mm1_61.txt
340.368	1	2
341.565	1	9
342.763	1	10
343.960	1	11
345.157	1	8
346.354	1	6
347.552	1	22
348.749	1	23
349.946	1	4
351.143	1	19
352.340	1	9
353.537	1	16
354.734	1	15
355.931	1	24
357.127	1	36
358.324	1	27
359.521	1	48
360.718	1	60
361.914	1	91
363.111	1	125
364.308	1	184
365.504	1	280
366.701	1	370
367.897	1	435
369.093	1	417
370.290	1	351
371.486	1	279
372.682	1	228
373.879	1	193
375.075	1	148
376.271	1	125
377.467	1	117
378.663	1	95
379.859	1	86
381.055	1	66
382.251	1	57
383.447	1	48
384.643	1	52
385.839	1	59
387.035	1	54
388.230	1	42
389.426	1	32
390.622	1	35
391.817	1	30
393.013	1	35
394.208	1	35
395.404	1	34
396.599	1	30
397.795	1	32
398.990	1	34
400.186	1	30
401.381	1	20
402.576	1	23
403.771	1	13
404.967	1	19
406.162	1	14
407.357	1	25
408.552	1	21
409.747	1	17
410.942	1	28
412.137	1	16
413.332	1	20
414.526	1	13
415.721	1	19
416.916	1	20
418.111	1	24
419.305	1	16
420.500	1	16
421.695	1	21
422.889	1	23
424.084	1	19
425.278	1	16
426.472	1	23
427.667	1	23
428.861	1	23
430.055	1	18
431.250	1	20
432.444	1	24
433.638	1	28
434.832	1	8
436.026	1	14
437.220	1	18
438.414	1	20
439.608	1	11
440.802	1	20
441.996	1	13
443.190	1	12
444.384	1	16
445.578	1	9
446.771	1	18
447.965	1	17
449.159	1	11
450.352	1	9
451.546	1	7
452.739	1	19
453.933	1	3
455.126	1	11
456.320	1	22
457.513	1	4
458.706	1	19
459.899	1	6
461.093	1	18
462.286	1	9
463.479	1	22
464.672	1	4
465.865	1	13
467.058	1	14
468.251	1	10
469.444	1	14
470.637	1	15
471.830	1	15
473.023	1	18
474.215	1	20
475.408	1	19
476.601	1	19
477.793	1	15
478.986	1	31
480.179	1	16
481.371	1	11
482.564	1	10
483.756	1	20
484.948	1	23
486.141	1	36
487.333	1	18
488.525	1	27
489.718	1	23
490.910	1	35
492.102	1	35
493.294	1	26
494.486	1	33
495.678	1	38
496.870	1	42
498.062	1	47
499.254	1	47
500.446	1	43
501.638	1	59
502.829	1	53
504.021	1	53
505.213	1	69
506.404	1	78
507.596	1	70
508.788	1	64
509.979	1	71
511.171	1	77
512.362	1	87
513.553	1	70
514.745	1	68
515.936	1	90
517.127	1	87
518.319	1	85
519.510	1	91
520.701	1	94
521.892	1	104
523.083	1	85
524.274	1	93
525.465	1	100
526.656	1	87
527.847	1	92
529.038	1	99
530.229	1	100
531.419	1	102
532.610	1	97
533.801	1	92
534.991	1	101
536.182	1	98
537.373	1	86
538.563	1	78
539.754	1	83
540.944	1	82
542.134	1	84
543.325	1	83
544.515	1	88
545.705	1	80
546.896	1	82
548.086	1	84
549.276	1	84
550.466	1	83
551.656	1	78
552.846	1	78
554.036	1	87
555.226	1	73
556.416	1	81
557.606	1	55
558.796	1	73
559.986	1	74
561.175	1	59
562.365	1	62
563.555	1	72
564.744	1	57
565.934	1	60
567.123	1	59
568.313	1	59
569.502	1	49
570.692	1	52
571.881	1	43
573.070	1	61
574.260	1	51
575.449	1	50
576.638	1	44
577.827	1	36
579.016	1	50
580.205	1	30
581.394	1	40
582.583	1	43
583.772	1	50
584.961	1	31
586.150	1	41
587.339	1	39
588.528	1	31
589.717	1	24
590.905	1	34
592.094	1	31
593.283	1	41
594.471	1	17
595.660	1	42
596.848	1	25
598.037	1	30
599.225	1	35
600.413	1	14
601.602	1	23
602.790	1	31
603.978	1	26
605.166	1	17
606.355	1	16
607.543	1	19
608.731	1	12
609.919	1	20
611.107	1	29
612.295	1	30
613.483	1	16
614.671	1	22
615.858	1	10
617.046	1	16
618.234	1	9
619.422	1	31
620.609	1	12
621.797	1	16
622.985	1	13
624.172	1	27
625.360	1	8
626.547	1	5
627.735	1	14
628.922	1	22
630.109	1	15
631.297	1	18
632.484	1	16
633.671	1	16
634.858	1	18
636.045	1	10
637.232	1	13
638.419	1	16
639.606	1	14
640.793	1	17
641.980	1	19
643.167	1	15
644.354	1	21
645.541	1	8
646.728	1	10
647.914	1	15
649.101	1	9
650.288	1	18
651.474	1	22
652.661	1	18
653.847	1	22
655.034	1	9
656.220	1	19
657.406	1	6
658.593	1	12
659.779	1	13
660.965	1	13
662.152	1	13
663.338	1	8
664.524	1	18
665.710	1	14
666.896	1	14
668.082	1	10
669.268	1	11
670.454	1	13
671.640	1	18
672.826	1	9
674.011	1	14
675.197	1	15
676.383	1	11
677.569	1	24
678.754	1	15
679.940	1	11
681.125	1	15
682.311	1	17
683.496	1	13
684.682	1	26
685.867	1	13
687.053	1	32
688.238	1	17
688.746	1	17