File: Data/GaN_150K_450ms/GaN_sample D_spot15_UVVIS_150 K_200um_450 ms 2x2mm1_41.txt
340.368	1	6
341.565	1	-1
342.763	1	4
343.960	1	2
345.157	1	14
346.354	1	0
347.552	1	12
348.749	1	14
349.946	1	-5
351.143	1	10
352.340	1	7
353.537	1	-7
354.734	1	-1
355.931	1	7
357.127	1	12
358.324	1	10
359.521	1	9
360.718	1	2
361.914	1	12
363.111	1	0
364.308	1	-8
365.504	1	-6
366.701	1	-2
367.897	1	-1
369.093	1	6
370.290	1	1
371.486	1	6
372.682	1	0
373.879	1	-1
375.075	1	-13
376.271	1	-4
377.467	1	3
378.663	1	4
379.859	1	-3
381.055	1	0
382.251	1	-12
383.447	1	-12
384.643	1	6
385.839	1	4
387.035	1	4
388.230	1	2
389.426	1	-2
390.622	1	-4
391.817	1	-5
393.013	1	4
394.208	1	2
395.404	1	6
396.599	1	12
397.795	1	3
398.990	1	3
400.186	1	1
401.381	1	-2
402.576	1	-10
403.771	1	-9
404.967	1	-2
406.162	1	-3
407.357	1	11
408.552	1	-4
409.747	1	0
410.942	1	6
412.137	1	7
413.332	1	11
414.526	1	-3
415.721	1	6
416.916	1	-2
418.111	1	4
419.305	1	9
420.500	1	6
421.695	1	7
422.889	1	3
424.084	1	5
425.278	1	0
426.472	1	17
427.667	1	1
428.861	1	6
430.055	1	2
431.250	1	3
432.444	1	-1
433.638	1	6
434.832	1	-3
436.026	1	-11
437.220	1	13
438.414	1	-3
439.608	1	-4
440.802	1	0
441.996	1	-1
443.190	1	0
444.384	1	2
445.578	1	-9
446.771	1	4
447.965	1	-3
449.159	1	-10
450.352	1	-1
451.546	1	3
452.739	1	4
453.933	1	-9
455.126	1	-5
456.320	1	5
457.513	1	-1
458.706	1	6
459.899	1	-5
461.093	1	11
462.286	1	-11
463.479	1	8
464.672	1	-1
465.865	1	2
467.058	1	6
468.251	1	-7
469.444	1	3
470.637	1	6
471.830	1	-4
473.023	1	6
474.215	1	-3
475.408	1	3
476.601	1	3
477.793	1	6
478.986	1	-1
480.179	1	9
481.371	1	-5
482.564	1	11
483.756	1	7
484.948	1	4
486.141	1	-1
487.333	1	-7
488.525	1	-4
489.718	1	-8
490.910	1	9
492.102	1	7
493.294	1	-8
494.486	1	0
495.678	1	3
496.870	1	-1
498.062	1	2
499.254	1	3
500.446	1	-6
501.638	1	4
502.829	1	0
504.021	1	9
505.213	1	-5
506.404	1	5
507.596	1	6
508.788	1	4
509.979	1	2
511.171	1	-1
512.362	1	6
513.553	1	4
514.745	1	-3
515.936	1	2
517.127	1	7
518.319	1	0
519.510	1	-3
520.701	1	3
521.892	1	-3
523.083	1	4
524.274	1	4
525.465	1	5
526.656	1	4
527.847	1	-9
529.038	1	6
530.229	1	12
531.419	1	5
532.610	1	5
533.801	1	3
534.991	1	3
536.182	1	-3
537.373	1	-4
538.563	1	-2
539.754	1	2
540.944	1	5
542.134	1	3
543.325	1	11
544.515	1	-4
545.705	1	2
546.896	1	5
548.086	1	11
549.276	1	6
550.466	1	-5
551.656	1	-4
552.846	1	6
554.036	1	2
555.226	1	-4
556.416	1	6
557.606	1	-6
558.796	1	6
559.986	1	-1
561.175	1	9
562.365	1	5
563.555	1	2
564.744	1	10
565.934	1	8
567.123	1	1
568.313	1	3
569.502	1	11
570.692	1	-2
571.881	1	5
573.070	1	3
574.260	1	0
575.449	1	-3
576.638	1	10
577.827	1	-4
579.016	1	3
580.205	1	-1
581.394	1	2
582.583	1	5
583.772	1	10
584.961	1	-13
586.150	1	12
587.339	1	-1
588.528	1	0
589.717	1	-4
590.905	1	2
592.094	1	11
593.283	1	1
594.471	1	-7
595.660	1	7
596.848	1	6
598.037	1	5
599.225	1	-8
600.413	1	0
601.602	1	-5
602.790	1	-1
603.978	1	1
605.166	1	0
606.355	1	-4
607.543	1	1
608.731	1	-10
609.919	1	-9
611.107	1	13
612.295	1	3
613.483	1	-6
614.671	1	-1
615.858	1	-6
617.046	1	0
618.234	1	1
619.422	1	8
620.609	1	0
621.797	1	2
622.985	1	-2
624.172	1	4
625.360	1	-3
626.547	1	-7
627.735	1	1
628.922	1	2
630.109	1	3
631.297	1	5
632.484	1	17
633.671	1	2
634.858	1	1
636.045	1	-5
637.232	1	-2
638.419	1	1
639.606	1	11
640.793	1	0
641.980	1	9
643.167	1	0
644.354	1	6
645.541	1	7
646.728	1	7
647.914	1	3
649.101	1	-9
650.288	1	9
651.474	1	4
652.661	1	-3
653.847	1	11
655.034	1	-10
656.220	1	6
657.406	1	-7
658.593	1	-1
659.779	1	8
660.965	1	1
662.152	1	-3
663.338	1	0
664.524	1	9
665.710	1	-4
666.896	1	2
668.082	1	-2
669.268	1	-12
670.454	1	4
671.640	1	2
672.826	1	-1
674.011	1	13
675.197	1	7
676.383	1	-4
677.569	1	12
678.754	1	0
679.940	1	-7
681.125	1	-4
682.311	1	5
683.496	1	-5
684.682	1	11
685.867	1	4
687.053	1	11
688.238	1	2
688.746	1	-4