File: Data/GaN_150K_450ms/GaN_sample D_spot15_UVVIS_150 K_200um_450 ms 2x2mm1_88.txt
340.368	1	7
341.565	1	8
342.763	1	-6
343.960	1	8
345.157	1	18
346.354	1	9
347.552	1	19
348.749	1	12
349.946	1	3
351.143	1	5
352.340	1	16
353.537	1	7
354.734	1	17
355.931	1	14
357.127	1	14
358.324	1	16
359.521	1	22
360.718	1	35
361.914	1	33
363.111	1	47
364.308	1	78
365.504	1	88
366.701	1	103
367.897	1	123
369.093	1	128
370.290	1	101
371.486	1	95
372.682	1	84
373.879	1	71
375.075	1	56
376.271	1	48
377.467	1	44
378.663	1	31
379.859	1	36
381.055	1	29
382.251	1	23
383.447	1	23
384.643	1	20
385.839	1	19
387.035	1	13
388.230	1	14
389.426	1	3
390.622	1	10
391.817	1	5
393.013	1	10
394.208	1	17
395.404	1	21
396.599	1	11
397.795	1	12
398.990	1	22
400.186	1	14
401.381	1	17
402.576	1	17
403.771	1	3
404.967	1	13
406.162	1	7
407.357	1	17
408.552	1	16
409.747	1	14
410.942	1	14
412.137	1	6
413.332	1	21
414.526	1	6
415.721	1	7
416.916	1	19
418.111	1	6
419.305	1	21
420.500	1	19
421.695	1	22
422.889	1	12
424.084	1	20
425.278	1	23
426.472	1	16
427.667	1	14
428.861	1	17
430.055	1	26
431.250	1	16
432.444	1	20
433.638	1	19
434.832	1	14
436.026	1	9
437.220	1	17
438.414	1	21
439.608	1	8
440.802	1	16
441.996	1	7
443.190	1	15
444.384	1	15
445.578	1	3
446.771	1	9
447.965	1	14
449.159	1	8
450.352	1	9
451.546	1	9
452.739	1	4
453.933	1	1
455.126	1	6
456.320	1	14
457.513	1	12
458.706	1	14
459.899	1	11
461.093	1	17
462.286	1	8
463.479	1	5
464.672	1	15
465.865	1	4
467.058	1	20
468.251	1	5
469.444	1	10
470.637	1	6
471.830	1	12
473.023	1	6
474.215	1	8
475.408	1	10
476.601	1	18
477.793	1	8
478.986	1	12
480.179	1	6
481.371	1	1
482.564	1	12
483.756	1	8
484.948	1	14
486.141	1	4
487.333	1	5
488.525	1	8
489.718	1	-1
490.910	1	19
492.102	1	7
493.294	1	3
494.486	1	11
495.678	1	12
496.870	1	20
498.062	1	9
499.254	1	22
500.446	1	13
501.638	1	22
502.829	1	9
504.021	1	27
505.213	1	12
506.404	1	34
507.596	1	33
508.788	1	25
509.979	1	18
511.171	1	35
512.362	1	29
513.553	1	35
514.745	1	34
515.936	1	34
517.127	1	38
518.319	1	32
519.510	1	28
520.701	1	40
521.892	1	29
523.083	1	34
524.274	1	38
525.465	1	45
526.656	1	44
527.847	1	27
529.038	1	45
530.229	1	42
531.419	1	35
532.610	1	48
533.801	1	26
534.991	1	32
536.182	1	32
537.373	1	27
538.563	1	31
539.754	1	26
540.944	1	37
542.134	1	38
543.325	1	39
544.515	1	33
545.705	1	36
546.896	1	31
548.086	1	31
549.276	1	33
550.466	1	30
551.656	1	24
552.846	1	38
554.036	1	28
555.226	1	27
556.416	1	35
557.606	1	19
558.796	1	33
559.986	1	28
561.175	1	21
562.365	1	24
563.555	1	22
564.744	1	25
565.934	1	25
567.123	1	19
568.313	1	24
569.502	1	26
570.692	1	20
571.881	1	20
573.070	1	19
574.260	1	10
575.449	1	14
576.638	1	25
577.827	1	11
579.016	1	14
580.205	1	20
581.394	1	18
582.583	1	13
583.772	1	12
584.961	1	4
586.150	1	22
587.339	1	1
588.528	1	4
589.717	1	9
590.905	1	13
592.094	1	13
593.283	1	16
594.471	1	-4
595.660	1	14
596.848	1	15
598.037	1	13
599.225	1	10
600.413	1	18
601.602	1	14
602.790	1	6
603.978	1	5
605.166	1	4
606.355	1	-6
607.543	1	18
608.731	1	-3
609.919	1	1
611.107	1	12
612.295	1	14
613.483	1	2
614.671	1	5
615.858	1	-6
617.046	1	3
618.234	1	6
619.422	1	17
620.609	1	10
621.797	1	9
622.985	1	-3
624.172	1	13
625.360	1	9
626.547	1	6
627.735	1	16
628.922	1	16
630.109	1	5
631.297	1	3
632.484	1	12
633.671	1	7
634.858	1	11
636.045	1	1
637.232	1	8
638.419	1	6
639.606	1	16
640.793	1	2
641.980	1	11
643.167	1	12
644.354	1	12
645.541	1	3
646.728	1	3
647.914	1	3
649.101	1	4
650.288	1	9
651.474	1	6
652.661	1	2
653.847	1	7
655.034	1	6
656.220	1	9
657.406	1	-2
658.593	1	12
659.779	1	12
660.965	1	4
662.152	1	6
663.338	1	-2
664.524	1	15
665.710	1	5
666.896	1	5
668.082	1	11
669.268	1	3
670.454	1	7
671.640	1	12
672.826	1	8
674.011	1	9
675.197	1	9
676.383	1	11
677.569	1	18
678.754	1	9
679.940	1	2
681.125	1	3
682.311	1	1
683.496	1	5
684.682	1	11
685.867	1	0
687.053	1	27
688.238	1	16
688.746	1	9