File: Data/GaN_150K_450ms/GaN_sample D_spot15_UVVIS_150 K_200um_450 ms 2x2mm1_224.txt
340.368	1	1
341.565	1	3
342.763	1	7
343.960	1	8
345.157	1	13
346.354	1	0
347.552	1	11
348.749	1	12
349.946	1	1
351.143	1	14
352.340	1	1
353.537	1	2
354.734	1	7
355.931	1	3
357.127	1	12
358.324	1	3
359.521	1	8
360.718	1	9
361.914	1	7
363.111	1	5
364.308	1	7
365.504	1	6
366.701	1	20
367.897	1	28
369.093	1	17
370.290	1	25
371.486	1	23
372.682	1	16
373.879	1	10
375.075	1	-2
376.271	1	0
377.467	1	19
378.663	1	6
379.859	1	1
381.055	1	3
382.251	1	-2
383.447	1	2
384.643	1	3
385.839	1	2
387.035	1	10
388.230	1	12
389.426	1	6
390.622	1	-1
391.817	1	-1
393.013	1	5
394.208	1	4
395.404	1	1
396.599	1	1
397.795	1	-1
398.990	1	5
400.186	1	6
401.381	1	-4
402.576	1	5
403.771	1	-10
404.967	1	9
406.162	1	4
407.357	1	4
408.552	1	1
409.747	1	6
410.942	1	7
412.137	1	-5
413.332	1	9
414.526	1	-3
415.721	1	4
416.916	1	4
418.111	1	12
419.305	1	6
420.500	1	8
421.695	1	9
422.889	1	14
424.084	1	3
425.278	1	1
426.472	1	6
427.667	1	-2
428.861	1	4
430.055	1	6
431.250	1	2
432.444	1	-3
433.638	1	1
434.832	1	-6
436.026	1	-1
437.220	1	7
438.414	1	2
439.608	1	-2
440.802	1	5
441.996	1	6
443.190	1	2
444.384	1	4
445.578	1	-6
446.771	1	0
447.965	1	7
449.159	1	-2
450.352	1	0
451.546	1	9
452.739	1	-3
453.933	1	-6
455.126	1	2
456.320	1	7
457.513	1	2
458.706	1	4
459.899	1	-4
461.093	1	5
462.286	1	-5
463.479	1	-7
464.672	1	-2
465.865	1	4
467.058	1	0
468.251	1	-3
469.444	1	6
470.637	1	5
471.830	1	2
473.023	1	3
474.215	1	7
475.408	1	6
476.601	1	-7
477.793	1	1
478.986	1	12
480.179	1	5
481.371	1	-5
482.564	1	14
483.756	1	-1
484.948	1	4
486.141	1	13
487.333	1	-5
488.525	1	-7
489.718	1	-10
490.910	1	3
492.102	1	13
493.294	1	-9
494.486	1	0
495.678	1	6
496.870	1	-2
498.062	1	-5
499.254	1	-5
500.446	1	1
501.638	1	-3
502.829	1	0
504.021	1	-5
505.213	1	-2
506.404	1	4
507.596	1	11
508.788	1	-2
509.979	1	3
511.171	1	2
512.362	1	7
513.553	1	9
514.745	1	1
515.936	1	0
517.127	1	13
518.319	1	-3
519.510	1	-2
520.701	1	7
521.892	1	3
523.083	1	-5
524.274	1	4
525.465	1	20
526.656	1	1
527.847	1	1
529.038	1	3
530.229	1	12
531.419	1	5
532.610	1	10
533.801	1	0
534.991	1	5
536.182	1	-3
537.373	1	9
538.563	1	3
539.754	1	6
540.944	1	5
542.134	1	1
543.325	1	9
544.515	1	5
545.705	1	10
546.896	1	8
548.086	1	5
549.276	1	4
550.466	1	1
551.656	1	6
552.846	1	2
554.036	1	13
555.226	1	4
556.416	1	12
557.606	1	-15
558.796	1	9
559.986	1	12
561.175	1	-5
562.365	1	1
563.555	1	8
564.744	1	13
565.934	1	4
567.123	1	5
568.313	1	6
569.502	1	4
570.692	1	10
571.881	1	-1
573.070	1	4
574.260	1	9
575.449	1	-12
576.638	1	11
577.827	1	3
579.016	1	-5
580.205	1	7
581.394	1	2
582.583	1	2
583.772	1	2
584.961	1	-4
586.150	1	8
587.339	1	2
588.528	1	-2
589.717	1	8
590.905	1	5
592.094	1	13
593.283	1	5
594.471	1	-7
595.660	1	5
596.848	1	-2
598.037	1	4
599.225	1	1
600.413	1	2
601.602	1	1
602.790	1	2
603.978	1	-4
605.166	1	3
606.355	1	-6
607.543	1	4
608.731	1	-12
609.919	1	-12
611.107	1	7
612.295	1	2
613.483	1	0
614.671	1	4
615.858	1	-7
617.046	1	7
618.234	1	-4
619.422	1	13
620.609	1	4
621.797	1	-3
622.985	1	-6
624.172	1	4
625.360	1	5
626.547	1	-7
627.735	1	-1
628.922	1	13
630.109	1	-2
631.297	1	2
632.484	1	13
633.671	1	9
634.858	1	6
636.045	1	-2
637.232	1	-2
638.419	1	-2
639.606	1	6
640.793	1	-1
641.980	1	7
643.167	1	-2
644.354	1	9
645.541	1	2
646.728	1	2
647.914	1	9
649.101	1	4
650.288	1	-5
651.474	1	2
652.661	1	15
653.847	1	8
655.034	1	-6
656.220	1	6
657.406	1	2
658.593	1	9
659.779	1	10
660.965	1	6
662.152	1	4
663.338	1	0
664.524	1	11
665.710	1	7
666.896	1	3
668.082	1	2
669.268	1	-4
670.454	1	8
671.640	1	7
672.826	1	-4
674.011	1	13
675.197	1	8
676.383	1	0
677.569	1	12
678.754	1	1
679.940	1	-4
681.125	1	5
682.311	1	9
683.496	1	-6
684.682	1	11
685.867	1	-6
687.053	1	21
688.238	1	5
688.746	1	-2