File: Data/GaN_150K_450ms/GaN_sample D_spot15_UVVIS_150 K_200um_450 ms 2x2mm1_94.txt
340.368	1	10
341.565	1	4
342.763	1	9
343.960	1	8
345.157	1	8
346.354	1	7
347.552	1	21
348.749	1	8
349.946	1	4
351.143	1	16
352.340	1	11
353.537	1	6
354.734	1	9
355.931	1	13
357.127	1	17
358.324	1	20
359.521	1	18
360.718	1	24
361.914	1	36
363.111	1	44
364.308	1	65
365.504	1	72
366.701	1	89
367.897	1	105
369.093	1	105
370.290	1	115
371.486	1	91
372.682	1	58
373.879	1	63
375.075	1	46
376.271	1	36
377.467	1	45
378.663	1	28
379.859	1	27
381.055	1	24
382.251	1	13
383.447	1	16
384.643	1	14
385.839	1	21
387.035	1	13
388.230	1	17
389.426	1	14
390.622	1	14
391.817	1	7
393.013	1	14
394.208	1	15
395.404	1	16
396.599	1	16
397.795	1	5
398.990	1	22
400.186	1	13
401.381	1	14
402.576	1	12
403.771	1	5
404.967	1	22
406.162	1	9
407.357	1	9
408.552	1	5
409.747	1	11
410.942	1	17
412.137	1	7
413.332	1	19
414.526	1	5
415.721	1	17
416.916	1	12
418.111	1	18
419.305	1	17
420.500	1	12
421.695	1	18
422.889	1	13
424.084	1	20
425.278	1	11
426.472	1	19
427.667	1	10
428.861	1	20
430.055	1	16
431.250	1	17
432.444	1	15
433.638	1	18
434.832	1	10
436.026	1	11
437.220	1	21
438.414	1	15
439.608	1	11
440.802	1	24
441.996	1	11
443.190	1	16
444.384	1	17
445.578	1	7
446.771	1	6
447.965	1	10
449.159	1	8
450.352	1	5
451.546	1	13
452.739	1	12
453.933	1	0
455.126	1	12
456.320	1	15
457.513	1	12
458.706	1	13
459.899	1	3
461.093	1	18
462.286	1	-5
463.479	1	9
464.672	1	13
465.865	1	8
467.058	1	4
468.251	1	1
469.444	1	6
470.637	1	1
471.830	1	11
473.023	1	14
474.215	1	15
475.408	1	7
476.601	1	7
477.793	1	9
478.986	1	16
480.179	1	16
481.371	1	0
482.564	1	5
483.756	1	4
484.948	1	12
486.141	1	14
487.333	1	4
488.525	1	8
489.718	1	7
490.910	1	14
492.102	1	15
493.294	1	-1
494.486	1	6
495.678	1	4
496.870	1	7
498.062	1	16
499.254	1	12
500.446	1	16
501.638	1	19
502.829	1	9
504.021	1	23
505.213	1	13
506.404	1	18
507.596	1	23
508.788	1	19
509.979	1	22
511.171	1	24
512.362	1	34
513.553	1	22
514.745	1	28
515.936	1	24
517.127	1	24
518.319	1	26
519.510	1	15
520.701	1	31
521.892	1	30
523.083	1	27
524.274	1	37
525.465	1	33
526.656	1	26
527.847	1	24
529.038	1	34
530.229	1	43
531.419	1	37
532.610	1	38
533.801	1	37
534.991	1	28
536.182	1	30
537.373	1	23
538.563	1	30
539.754	1	25
540.944	1	26
542.134	1	26
543.325	1	32
544.515	1	24
545.705	1	27
546.896	1	24
548.086	1	24
549.276	1	26
550.466	1	22
551.656	1	34
552.846	1	28
554.036	1	38
555.226	1	20
556.416	1	31
557.606	1	13
558.796	1	22
559.986	1	15
561.175	1	18
562.365	1	15
563.555	1	19
564.744	1	23
565.934	1	31
567.123	1	19
568.313	1	21
569.502	1	18
570.692	1	16
571.881	1	10
573.070	1	19
574.260	1	15
575.449	1	8
576.638	1	16
577.827	1	5
579.016	1	13
580.205	1	10
581.394	1	20
582.583	1	13
583.772	1	22
584.961	1	3
586.150	1	14
587.339	1	17
588.528	1	7
589.717	1	9
590.905	1	9
592.094	1	10
593.283	1	7
594.471	1	3
595.660	1	19
596.848	1	13
598.037	1	10
599.225	1	11
600.413	1	8
601.602	1	12
602.790	1	12
603.978	1	4
605.166	1	11
606.355	1	-2
607.543	1	11
608.731	1	2
609.919	1	3
611.107	1	17
612.295	1	5
613.483	1	-1
614.671	1	8
615.858	1	6
617.046	1	2
618.234	1	9
619.422	1	23
620.609	1	12
621.797	1	11
622.985	1	5
624.172	1	12
625.360	1	6
626.547	1	10
627.735	1	-1
628.922	1	3
630.109	1	-6
631.297	1	8
632.484	1	21
633.671	1	11
634.858	1	9
636.045	1	-2
637.232	1	11
638.419	1	-2
639.606	1	8
640.793	1	6
641.980	1	2
643.167	1	4
644.354	1	12
645.541	1	9
646.728	1	7
647.914	1	12
649.101	1	15
650.288	1	6
651.474	1	11
652.661	1	16
653.847	1	11
655.034	1	3
656.220	1	10
657.406	1	-5
658.593	1	12
659.779	1	12
660.965	1	-1
662.152	1	6
663.338	1	-3
664.524	1	13
665.710	1	19
666.896	1	2
668.082	1	3
669.268	1	1
670.454	1	11
671.640	1	11
672.826	1	10
674.011	1	9
675.197	1	8
676.383	1	2
677.569	1	18
678.754	1	4
679.940	1	4
681.125	1	-2
682.311	1	11
683.496	1	4
684.682	1	12
685.867	1	5
687.053	1	13
688.238	1	13
688.746	1	3