File: Data/GaN_150K_450ms/GaN_sample D_spot15_UVVIS_150 K_200um_450 ms 2x2mm1_118.txt
340.368	1	8
341.565	1	13
342.763	1	4
343.960	1	7
345.157	1	10
346.354	1	2
347.552	1	11
348.749	1	16
349.946	1	-2
351.143	1	-1
352.340	1	11
353.537	1	5
354.734	1	10
355.931	1	11
357.127	1	13
358.324	1	17
359.521	1	16
360.718	1	10
361.914	1	28
363.111	1	22
364.308	1	47
365.504	1	53
366.701	1	59
367.897	1	63
369.093	1	71
370.290	1	61
371.486	1	60
372.682	1	47
373.879	1	34
375.075	1	22
376.271	1	18
377.467	1	34
378.663	1	27
379.859	1	21
381.055	1	5
382.251	1	8
383.447	1	14
384.643	1	11
385.839	1	7
387.035	1	18
388.230	1	7
389.426	1	3
390.622	1	11
391.817	1	5
393.013	1	15
394.208	1	5
395.404	1	8
396.599	1	19
397.795	1	10
398.990	1	21
400.186	1	9
401.381	1	5
402.576	1	15
403.771	1	6
404.967	1	9
406.162	1	3
407.357	1	12
408.552	1	8
409.747	1	5
410.942	1	24
412.137	1	7
413.332	1	5
414.526	1	20
415.721	1	14
416.916	1	8
418.111	1	17
419.305	1	14
420.500	1	12
421.695	1	15
422.889	1	17
424.084	1	13
425.278	1	11
426.472	1	27
427.667	1	10
428.861	1	24
430.055	1	24
431.250	1	20
432.444	1	12
433.638	1	18
434.832	1	1
436.026	1	8
437.220	1	12
438.414	1	4
439.608	1	5
440.802	1	17
441.996	1	16
443.190	1	13
444.384	1	10
445.578	1	8
446.771	1	20
447.965	1	10
449.159	1	1
450.352	1	-5
451.546	1	15
452.739	1	6
453.933	1	2
455.126	1	8
456.320	1	11
457.513	1	10
458.706	1	19
459.899	1	2
461.093	1	16
462.286	1	8
463.479	1	0
464.672	1	18
465.865	1	2
467.058	1	8
468.251	1	7
469.444	1	3
470.637	1	10
471.830	1	9
473.023	1	12
474.215	1	8
475.408	1	8
476.601	1	6
477.793	1	6
478.986	1	15
480.179	1	21
481.371	1	-5
482.564	1	12
483.756	1	9
484.948	1	12
486.141	1	10
487.333	1	8
488.525	1	6
489.718	1	-1
490.910	1	19
492.102	1	10
493.294	1	-2
494.486	1	14
495.678	1	13
496.870	1	9
498.062	1	4
499.254	1	8
500.446	1	5
501.638	1	14
502.829	1	8
504.021	1	16
505.213	1	11
506.404	1	16
507.596	1	22
508.788	1	13
509.979	1	14
511.171	1	14
512.362	1	9
513.553	1	13
514.745	1	13
515.936	1	17
517.127	1	25
518.319	1	18
519.510	1	8
520.701	1	18
521.892	1	18
523.083	1	12
524.274	1	21
525.465	1	18
526.656	1	26
527.847	1	12
529.038	1	25
530.229	1	26
531.419	1	17
532.610	1	19
533.801	1	20
534.991	1	12
536.182	1	18
537.373	1	13
538.563	1	3
539.754	1	23
540.944	1	16
542.134	1	18
543.325	1	13
544.515	1	11
545.705	1	11
546.896	1	15
548.086	1	17
549.276	1	25
550.466	1	13
551.656	1	13
552.846	1	10
554.036	1	17
555.226	1	15
556.416	1	20
557.606	1	0
558.796	1	15
559.986	1	21
561.175	1	5
562.365	1	1
563.555	1	14
564.744	1	21
565.934	1	22
567.123	1	10
568.313	1	14
569.502	1	18
570.692	1	15
571.881	1	5
573.070	1	14
574.260	1	9
575.449	1	8
576.638	1	7
577.827	1	4
579.016	1	10
580.205	1	8
581.394	1	8
582.583	1	8
583.772	1	15
584.961	1	7
586.150	1	10
587.339	1	16
588.528	1	4
589.717	1	7
590.905	1	5
592.094	1	7
593.283	1	4
594.471	1	-2
595.660	1	14
596.848	1	12
598.037	1	3
599.225	1	0
600.413	1	14
601.602	1	6
602.790	1	5
603.978	1	8
605.166	1	1
606.355	1	-12
607.543	1	12
608.731	1	4
609.919	1	-8
611.107	1	10
612.295	1	11
613.483	1	10
614.671	1	7
615.858	1	-1
617.046	1	-3
618.234	1	6
619.422	1	13
620.609	1	5
621.797	1	0
622.985	1	8
624.172	1	1
625.360	1	10
626.547	1	4
627.735	1	9
628.922	1	14
630.109	1	-3
631.297	1	7
632.484	1	10
633.671	1	11
634.858	1	5
636.045	1	-3
637.232	1	10
638.419	1	5
639.606	1	11
640.793	1	-6
641.980	1	15
643.167	1	0
644.354	1	18
645.541	1	10
646.728	1	12
647.914	1	3
649.101	1	0
650.288	1	9
651.474	1	14
652.661	1	6
653.847	1	13
655.034	1	-1
656.220	1	0
657.406	1	-1
658.593	1	11
659.779	1	5
660.965	1	2
662.152	1	19
663.338	1	0
664.524	1	11
665.710	1	-3
666.896	1	7
668.082	1	3
669.268	1	3
670.454	1	10
671.640	1	11
672.826	1	-2
674.011	1	16
675.197	1	6
676.383	1	4
677.569	1	14
678.754	1	-1
679.940	1	0
681.125	1	4
682.311	1	7
683.496	1	-5
684.682	1	14
685.867	1	-2
687.053	1	20
688.238	1	5
688.746	1	1