File: Data/GaN_150K_450ms/GaN_sample D_spot15_UVVIS_150 K_200um_450 ms 2x2mm1_278.txt
340.368	1	5
341.565	1	4
342.763	1	2
343.960	1	10
345.157	1	10
346.354	1	6
347.552	1	16
348.749	1	12
349.946	1	2
351.143	1	15
352.340	1	1
353.537	1	-9
354.734	1	6
355.931	1	2
357.127	1	12
358.324	1	-1
359.521	1	17
360.718	1	8
361.914	1	10
363.111	1	7
364.308	1	7
365.504	1	-4
366.701	1	2
367.897	1	12
369.093	1	17
370.290	1	15
371.486	1	15
372.682	1	10
373.879	1	11
375.075	1	-5
376.271	1	4
377.467	1	7
378.663	1	5
379.859	1	7
381.055	1	3
382.251	1	-11
383.447	1	7
384.643	1	5
385.839	1	2
387.035	1	4
388.230	1	8
389.426	1	0
390.622	1	-3
391.817	1	-8
393.013	1	0
394.208	1	0
395.404	1	0
396.599	1	7
397.795	1	-3
398.990	1	5
400.186	1	9
401.381	1	-6
402.576	1	3
403.771	1	-5
404.967	1	1
406.162	1	-4
407.357	1	5
408.552	1	-5
409.747	1	-6
410.942	1	9
412.137	1	-7
413.332	1	3
414.526	1	-14
415.721	1	7
416.916	1	-1
418.111	1	-1
419.305	1	2
420.500	1	3
421.695	1	11
422.889	1	8
424.084	1	11
425.278	1	4
426.472	1	9
427.667	1	-10
428.861	1	17
430.055	1	6
431.250	1	5
432.444	1	-3
433.638	1	6
434.832	1	-3
436.026	1	-10
437.220	1	11
438.414	1	1
439.608	1	-5
440.802	1	5
441.996	1	-1
443.190	1	0
444.384	1	6
445.578	1	-6
446.771	1	6
447.965	1	-1
449.159	1	-5
450.352	1	-4
451.546	1	4
452.739	1	8
453.933	1	3
455.126	1	-3
456.320	1	8
457.513	1	1
458.706	1	5
459.899	1	2
461.093	1	-1
462.286	1	-2
463.479	1	-4
464.672	1	0
465.865	1	6
467.058	1	13
468.251	1	-4
469.444	1	13
470.637	1	-4
471.830	1	1
473.023	1	7
474.215	1	-1
475.408	1	1
476.601	1	8
477.793	1	5
478.986	1	15
480.179	1	6
481.371	1	3
482.564	1	1
483.756	1	10
484.948	1	9
486.141	1	17
487.333	1	1
488.525	1	-6
489.718	1	-11
490.910	1	10
492.102	1	10
493.294	1	-6
494.486	1	-4
495.678	1	0
496.870	1	4
498.062	1	-5
499.254	1	0
500.446	1	6
501.638	1	-1
502.829	1	2
504.021	1	-2
505.213	1	-1
506.404	1	-2
507.596	1	10
508.788	1	4
509.979	1	2
511.171	1	13
512.362	1	11
513.553	1	8
514.745	1	-4
515.936	1	-7
517.127	1	6
518.319	1	-5
519.510	1	-4
520.701	1	9
521.892	1	-3
523.083	1	2
524.274	1	7
525.465	1	7
526.656	1	11
527.847	1	-1
529.038	1	3
530.229	1	-2
531.419	1	8
532.610	1	3
533.801	1	4
534.991	1	-5
536.182	1	4
537.373	1	11
538.563	1	-5
539.754	1	3
540.944	1	2
542.134	1	5
543.325	1	10
544.515	1	1
545.705	1	7
546.896	1	4
548.086	1	3
549.276	1	6
550.466	1	-2
551.656	1	4
552.846	1	2
554.036	1	14
555.226	1	8
556.416	1	15
557.606	1	2
558.796	1	7
559.986	1	5
561.175	1	-2
562.365	1	0
563.555	1	8
564.744	1	13
565.934	1	8
567.123	1	-3
568.313	1	5
569.502	1	6
570.692	1	1
571.881	1	-5
573.070	1	7
574.260	1	9
575.449	1	-1
576.638	1	5
577.827	1	1
579.016	1	2
580.205	1	6
581.394	1	-6
582.583	1	4
583.772	1	7
584.961	1	-4
586.150	1	0
587.339	1	4
588.528	1	-2
589.717	1	4
590.905	1	-3
592.094	1	7
593.283	1	1
594.471	1	2
595.660	1	6
596.848	1	8
598.037	1	2
599.225	1	-8
600.413	1	-4
601.602	1	-2
602.790	1	5
603.978	1	5
605.166	1	3
606.355	1	-11
607.543	1	2
608.731	1	-6
609.919	1	10
611.107	1	11
612.295	1	5
613.483	1	7
614.671	1	4
615.858	1	-5
617.046	1	2
618.234	1	4
619.422	1	12
620.609	1	-5
621.797	1	-1
622.985	1	7
624.172	1	8
625.360	1	-2
626.547	1	-2
627.735	1	10
628.922	1	9
630.109	1	-2
631.297	1	4
632.484	1	14
633.671	1	7
634.858	1	3
636.045	1	-4
637.232	1	5
638.419	1	-7
639.606	1	14
640.793	1	-3
641.980	1	14
643.167	1	9
644.354	1	3
645.541	1	-3
646.728	1	-5
647.914	1	5
649.101	1	1
650.288	1	-2
651.474	1	9
652.661	1	4
653.847	1	2
655.034	1	-1
656.220	1	4
657.406	1	-3
658.593	1	3
659.779	1	9
660.965	1	4
662.152	1	0
663.338	1	-9
664.524	1	10
665.710	1	2
666.896	1	0
668.082	1	2
669.268	1	-1
670.454	1	10
671.640	1	6
672.826	1	-2
674.011	1	1
675.197	1	1
676.383	1	-1
677.569	1	13
678.754	1	4
679.940	1	-4
681.125	1	-6
682.311	1	11
683.496	1	0
684.682	1	-2
685.867	1	-6
687.053	1	17
688.238	1	8
688.746	1	4