File: Data/GaN_150K_450ms/GaN_sample D_spot15_UVVIS_150 K_200um_450 ms 2x2mm1_24.txt
340.368	1	5
341.565	1	0
342.763	1	-2
343.960	1	-2
345.157	1	8
346.354	1	-1
347.552	1	5
348.749	1	5
349.946	1	-1
351.143	1	4
352.340	1	7
353.537	1	-6
354.734	1	-1
355.931	1	0
357.127	1	8
358.324	1	12
359.521	1	10
360.718	1	3
361.914	1	4
363.111	1	-4
364.308	1	-5
365.504	1	1
366.701	1	-5
367.897	1	-3
369.093	1	1
370.290	1	-1
371.486	1	11
372.682	1	2
373.879	1	2
375.075	1	-13
376.271	1	-4
377.467	1	11
378.663	1	4
379.859	1	4
381.055	1	1
382.251	1	-11
383.447	1	-2
384.643	1	3
385.839	1	0
387.035	1	6
388.230	1	0
389.426	1	-4
390.622	1	-7
391.817	1	-1
393.013	1	10
394.208	1	1
395.404	1	2
396.599	1	3
397.795	1	1
398.990	1	5
400.186	1	0
401.381	1	-5
402.576	1	-2
403.771	1	-7
404.967	1	-4
406.162	1	-10
407.357	1	4
408.552	1	-2
409.747	1	4
410.942	1	11
412.137	1	-5
413.332	1	4
414.526	1	-4
415.721	1	1
416.916	1	-3
418.111	1	-6
419.305	1	5
420.500	1	5
421.695	1	5
422.889	1	0
424.084	1	0
425.278	1	3
426.472	1	6
427.667	1	-7
428.861	1	12
430.055	1	4
431.250	1	5
432.444	1	-2
433.638	1	8
434.832	1	-9
436.026	1	-3
437.220	1	12
438.414	1	9
439.608	1	5
440.802	1	4
441.996	1	2
443.190	1	3
444.384	1	5
445.578	1	-9
446.771	1	1
447.965	1	0
449.159	1	-1
450.352	1	-4
451.546	1	-8
452.739	1	-2
453.933	1	-3
455.126	1	-2
456.320	1	9
457.513	1	3
458.706	1	11
459.899	1	-1
461.093	1	10
462.286	1	1
463.479	1	-3
464.672	1	8
465.865	1	-1
467.058	1	2
468.251	1	-7
469.444	1	3
470.637	1	3
471.830	1	-4
473.023	1	4
474.215	1	-4
475.408	1	3
476.601	1	-5
477.793	1	3
478.986	1	3
480.179	1	-1
481.371	1	-12
482.564	1	3
483.756	1	-2
484.948	1	1
486.141	1	8
487.333	1	-6
488.525	1	-6
489.718	1	0
490.910	1	2
492.102	1	-2
493.294	1	-10
494.486	1	-5
495.678	1	4
496.870	1	5
498.062	1	-5
499.254	1	-7
500.446	1	-6
501.638	1	0
502.829	1	-5
504.021	1	0
505.213	1	-2
506.404	1	-1
507.596	1	7
508.788	1	-1
509.979	1	0
511.171	1	2
512.362	1	10
513.553	1	4
514.745	1	-2
515.936	1	1
517.127	1	5
518.319	1	-8
519.510	1	2
520.701	1	8
521.892	1	-2
523.083	1	-6
524.274	1	0
525.465	1	10
526.656	1	6
527.847	1	-9
529.038	1	-5
530.229	1	5
531.419	1	5
532.610	1	-3
533.801	1	2
534.991	1	3
536.182	1	2
537.373	1	-4
538.563	1	-7
539.754	1	-2
540.944	1	0
542.134	1	0
543.325	1	-2
544.515	1	8
545.705	1	-1
546.896	1	6
548.086	1	2
549.276	1	10
550.466	1	-6
551.656	1	0
552.846	1	8
554.036	1	8
555.226	1	3
556.416	1	6
557.606	1	-4
558.796	1	12
559.986	1	5
561.175	1	-3
562.365	1	5
563.555	1	4
564.744	1	8
565.934	1	18
567.123	1	2
568.313	1	6
569.502	1	2
570.692	1	-2
571.881	1	-3
573.070	1	2
574.260	1	12
575.449	1	-4
576.638	1	7
577.827	1	-6
579.016	1	4
580.205	1	3
581.394	1	-1
582.583	1	2
583.772	1	10
584.961	1	0
586.150	1	5
587.339	1	1
588.528	1	-3
589.717	1	-1
590.905	1	11
592.094	1	13
593.283	1	1
594.471	1	2
595.660	1	-2
596.848	1	8
598.037	1	10
599.225	1	0
600.413	1	-5
601.602	1	5
602.790	1	8
603.978	1	9
605.166	1	14
606.355	1	-4
607.543	1	7
608.731	1	-10
609.919	1	-12
611.107	1	11
612.295	1	7
613.483	1	0
614.671	1	0
615.858	1	-5
617.046	1	2
618.234	1	-5
619.422	1	6
620.609	1	0
621.797	1	0
622.985	1	-3
624.172	1	4
625.360	1	2
626.547	1	-7
627.735	1	-4
628.922	1	13
630.109	1	-7
631.297	1	6
632.484	1	3
633.671	1	3
634.858	1	10
636.045	1	-11
637.232	1	-2
638.419	1	-3
639.606	1	1
640.793	1	-8
641.980	1	7
643.167	1	-3
644.354	1	8
645.541	1	-4
646.728	1	4
647.914	1	-1
649.101	1	-1
650.288	1	1
651.474	1	7
652.661	1	13
653.847	1	4
655.034	1	-5
656.220	1	-1
657.406	1	-4
658.593	1	-1
659.779	1	-2
660.965	1	-1
662.152	1	-1
663.338	1	-3
664.524	1	10
665.710	1	4
666.896	1	2
668.082	1	3
669.268	1	-3
670.454	1	4
671.640	1	12
672.826	1	-6
674.011	1	11
675.197	1	10
676.383	1	-2
677.569	1	16
678.754	1	3
679.940	1	2
681.125	1	-11
682.311	1	0
683.496	1	-9
684.682	1	5
685.867	1	-8
687.053	1	11
688.238	1	3
688.746	1	-5