File: Data/GaN_150K_450ms/GaN_sample D_spot15_UVVIS_150 K_200um_450 ms 2x2mm1_77.txt
340.368	1	-1
341.565	1	2
342.763	1	8
343.960	1	8
345.157	1	17
346.354	1	6
347.552	1	16
348.749	1	11
349.946	1	0
351.143	1	6
352.340	1	18
353.537	1	8
354.734	1	13
355.931	1	17
357.127	1	29
358.324	1	21
359.521	1	30
360.718	1	37
361.914	1	56
363.111	1	65
364.308	1	88
365.504	1	113
366.701	1	163
367.897	1	188
369.093	1	176
370.290	1	164
371.486	1	131
372.682	1	105
373.879	1	89
375.075	1	69
376.271	1	72
377.467	1	61
378.663	1	46
379.859	1	40
381.055	1	34
382.251	1	30
383.447	1	35
384.643	1	25
385.839	1	23
387.035	1	25
388.230	1	25
389.426	1	2
390.622	1	14
391.817	1	11
393.013	1	18
394.208	1	18
395.404	1	19
396.599	1	19
397.795	1	12
398.990	1	27
400.186	1	10
401.381	1	11
402.576	1	20
403.771	1	6
404.967	1	20
406.162	1	10
407.357	1	5
408.552	1	21
409.747	1	7
410.942	1	20
412.137	1	15
413.332	1	11
414.526	1	4
415.721	1	15
416.916	1	15
418.111	1	11
419.305	1	23
420.500	1	27
421.695	1	24
422.889	1	15
424.084	1	24
425.278	1	5
426.472	1	26
427.667	1	6
428.861	1	17
430.055	1	22
431.250	1	12
432.444	1	19
433.638	1	31
434.832	1	14
436.026	1	18
437.220	1	25
438.414	1	26
439.608	1	5
440.802	1	10
441.996	1	9
443.190	1	21
444.384	1	15
445.578	1	17
446.771	1	21
447.965	1	19
449.159	1	13
450.352	1	7
451.546	1	13
452.739	1	12
453.933	1	5
455.126	1	7
456.320	1	16
457.513	1	15
458.706	1	19
459.899	1	2
461.093	1	17
462.286	1	6
463.479	1	7
464.672	1	16
465.865	1	6
467.058	1	15
468.251	1	9
469.444	1	22
470.637	1	11
471.830	1	12
473.023	1	2
474.215	1	12
475.408	1	7
476.601	1	11
477.793	1	5
478.986	1	13
480.179	1	6
481.371	1	14
482.564	1	16
483.756	1	13
484.948	1	17
486.141	1	20
487.333	1	7
488.525	1	14
489.718	1	4
490.910	1	25
492.102	1	17
493.294	1	6
494.486	1	20
495.678	1	16
496.870	1	22
498.062	1	13
499.254	1	20
500.446	1	23
501.638	1	31
502.829	1	27
504.021	1	29
505.213	1	25
506.404	1	40
507.596	1	40
508.788	1	30
509.979	1	42
511.171	1	38
512.362	1	42
513.553	1	44
514.745	1	46
515.936	1	41
517.127	1	53
518.319	1	39
519.510	1	42
520.701	1	53
521.892	1	45
523.083	1	52
524.274	1	49
525.465	1	57
526.656	1	47
527.847	1	40
529.038	1	45
530.229	1	59
531.419	1	58
532.610	1	50
533.801	1	54
534.991	1	49
536.182	1	38
537.373	1	35
538.563	1	35
539.754	1	39
540.944	1	45
542.134	1	45
543.325	1	44
544.515	1	41
545.705	1	40
546.896	1	45
548.086	1	42
549.276	1	44
550.466	1	32
551.656	1	44
552.846	1	39
554.036	1	43
555.226	1	50
556.416	1	47
557.606	1	24
558.796	1	40
559.986	1	41
561.175	1	28
562.365	1	33
563.555	1	23
564.744	1	46
565.934	1	33
567.123	1	21
568.313	1	33
569.502	1	19
570.692	1	26
571.881	1	25
573.070	1	22
574.260	1	27
575.449	1	19
576.638	1	32
577.827	1	12
579.016	1	20
580.205	1	16
581.394	1	19
582.583	1	15
583.772	1	18
584.961	1	15
586.150	1	28
587.339	1	9
588.528	1	18
589.717	1	17
590.905	1	17
592.094	1	15
593.283	1	15
594.471	1	6
595.660	1	16
596.848	1	8
598.037	1	8
599.225	1	8
600.413	1	12
601.602	1	19
602.790	1	17
603.978	1	17
605.166	1	9
606.355	1	0
607.543	1	9
608.731	1	4
609.919	1	3
611.107	1	18
612.295	1	13
613.483	1	11
614.671	1	19
615.858	1	-2
617.046	1	14
618.234	1	3
619.422	1	17
620.609	1	5
621.797	1	13
622.985	1	6
624.172	1	13
625.360	1	8
626.547	1	1
627.735	1	4
628.922	1	12
630.109	1	-2
631.297	1	4
632.484	1	19
633.671	1	10
634.858	1	4
636.045	1	6
637.232	1	6
638.419	1	10
639.606	1	22
640.793	1	12
641.980	1	14
643.167	1	11
644.354	1	11
645.541	1	13
646.728	1	16
647.914	1	18
649.101	1	0
650.288	1	11
651.474	1	15
652.661	1	10
653.847	1	8
655.034	1	10
656.220	1	10
657.406	1	8
658.593	1	17
659.779	1	16
660.965	1	3
662.152	1	7
663.338	1	7
664.524	1	9
665.710	1	-1
666.896	1	7
668.082	1	3
669.268	1	1
670.454	1	10
671.640	1	12
672.826	1	5
674.011	1	14
675.197	1	5
676.383	1	1
677.569	1	19
678.754	1	4
679.940	1	6
681.125	1	2
682.311	1	16
683.496	1	8
684.682	1	11
685.867	1	14
687.053	1	32
688.238	1	12
688.746	1	5