File: Data/GaN_150K_450ms/GaN_sample D_spot15_UVVIS_150 K_200um_450 ms 2x2mm1_166.txt
340.368	1	6
341.565	1	8
342.763	1	7
343.960	1	19
345.157	1	15
346.354	1	7
347.552	1	16
348.749	1	18
349.946	1	2
351.143	1	2
352.340	1	4
353.537	1	-6
354.734	1	12
355.931	1	15
357.127	1	18
358.324	1	7
359.521	1	18
360.718	1	12
361.914	1	5
363.111	1	5
364.308	1	24
365.504	1	10
366.701	1	35
367.897	1	38
369.093	1	29
370.290	1	32
371.486	1	27
372.682	1	29
373.879	1	15
375.075	1	19
376.271	1	9
377.467	1	20
378.663	1	13
379.859	1	4
381.055	1	12
382.251	1	6
383.447	1	1
384.643	1	9
385.839	1	6
387.035	1	16
388.230	1	2
389.426	1	-5
390.622	1	-4
391.817	1	2
393.013	1	5
394.208	1	8
395.404	1	8
396.599	1	-4
397.795	1	6
398.990	1	13
400.186	1	13
401.381	1	-2
402.576	1	6
403.771	1	-1
404.967	1	9
406.162	1	0
407.357	1	12
408.552	1	0
409.747	1	5
410.942	1	15
412.137	1	3
413.332	1	4
414.526	1	5
415.721	1	7
416.916	1	0
418.111	1	9
419.305	1	5
420.500	1	8
421.695	1	16
422.889	1	18
424.084	1	7
425.278	1	7
426.472	1	16
427.667	1	6
428.861	1	9
430.055	1	12
431.250	1	12
432.444	1	7
433.638	1	10
434.832	1	2
436.026	1	-7
437.220	1	11
438.414	1	14
439.608	1	-2
440.802	1	6
441.996	1	9
443.190	1	2
444.384	1	16
445.578	1	-3
446.771	1	8
447.965	1	2
449.159	1	-2
450.352	1	2
451.546	1	1
452.739	1	-2
453.933	1	-2
455.126	1	12
456.320	1	2
457.513	1	1
458.706	1	9
459.899	1	-1
461.093	1	4
462.286	1	1
463.479	1	7
464.672	1	-1
465.865	1	4
467.058	1	6
468.251	1	2
469.444	1	10
470.637	1	1
471.830	1	6
473.023	1	10
474.215	1	0
475.408	1	-2
476.601	1	3
477.793	1	5
478.986	1	17
480.179	1	1
481.371	1	-8
482.564	1	8
483.756	1	-3
484.948	1	10
486.141	1	6
487.333	1	-4
488.525	1	-3
489.718	1	-3
490.910	1	13
492.102	1	2
493.294	1	-1
494.486	1	8
495.678	1	-2
496.870	1	-4
498.062	1	1
499.254	1	-1
500.446	1	5
501.638	1	11
502.829	1	6
504.021	1	8
505.213	1	-1
506.404	1	10
507.596	1	17
508.788	1	6
509.979	1	8
511.171	1	11
512.362	1	11
513.553	1	4
514.745	1	7
515.936	1	11
517.127	1	16
518.319	1	6
519.510	1	1
520.701	1	14
521.892	1	10
523.083	1	4
524.274	1	10
525.465	1	21
526.656	1	8
527.847	1	2
529.038	1	8
530.229	1	14
531.419	1	14
532.610	1	12
533.801	1	8
534.991	1	6
536.182	1	1
537.373	1	3
538.563	1	6
539.754	1	5
540.944	1	1
542.134	1	12
543.325	1	10
544.515	1	-2
545.705	1	9
546.896	1	6
548.086	1	5
549.276	1	1
550.466	1	0
551.656	1	11
552.846	1	11
554.036	1	13
555.226	1	2
556.416	1	8
557.606	1	2
558.796	1	12
559.986	1	10
561.175	1	11
562.365	1	7
563.555	1	9
564.744	1	20
565.934	1	20
567.123	1	9
568.313	1	4
569.502	1	12
570.692	1	9
571.881	1	0
573.070	1	17
574.260	1	9
575.449	1	6
576.638	1	10
577.827	1	3
579.016	1	9
580.205	1	9
581.394	1	4
582.583	1	-2
583.772	1	2
584.961	1	-9
586.150	1	14
587.339	1	3
588.528	1	-4
589.717	1	1
590.905	1	5
592.094	1	4
593.283	1	3
594.471	1	-4
595.660	1	6
596.848	1	16
598.037	1	9
599.225	1	10
600.413	1	6
601.602	1	-1
602.790	1	16
603.978	1	1
605.166	1	6
606.355	1	-9
607.543	1	3
608.731	1	-3
609.919	1	-4
611.107	1	11
612.295	1	8
613.483	1	-2
614.671	1	8
615.858	1	-6
617.046	1	3
618.234	1	-2
619.422	1	15
620.609	1	3
621.797	1	-5
622.985	1	8
624.172	1	-7
625.360	1	1
626.547	1	-1
627.735	1	8
628.922	1	5
630.109	1	-7
631.297	1	14
632.484	1	8
633.671	1	5
634.858	1	13
636.045	1	-2
637.232	1	6
638.419	1	7
639.606	1	12
640.793	1	-1
641.980	1	10
643.167	1	7
644.354	1	16
645.541	1	2
646.728	1	3
647.914	1	7
649.101	1	3
650.288	1	15
651.474	1	-1
652.661	1	0
653.847	1	13
655.034	1	6
656.220	1	9
657.406	1	-4
658.593	1	7
659.779	1	4
660.965	1	13
662.152	1	4
663.338	1	-3
664.524	1	5
665.710	1	4
666.896	1	1
668.082	1	6
669.268	1	-11
670.454	1	11
671.640	1	2
672.826	1	-2
674.011	1	12
675.197	1	-5
676.383	1	5
677.569	1	15
678.754	1	2
679.940	1	-11
681.125	1	5
682.311	1	0
683.496	1	-2
684.682	1	7
685.867	1	0
687.053	1	13
688.238	1	1
688.746	1	4