File: Data/GaN_150K_450ms/GaN_sample D_spot15_UVVIS_150 K_200um_450 ms 2x2mm1_114.txt
340.368	1	5
341.565	1	6
342.763	1	7
343.960	1	2
345.157	1	9
346.354	1	1
347.552	1	22
348.749	1	17
349.946	1	-8
351.143	1	5
352.340	1	13
353.537	1	1
354.734	1	-2
355.931	1	12
357.127	1	17
358.324	1	17
359.521	1	27
360.718	1	13
361.914	1	24
363.111	1	28
364.308	1	42
365.504	1	45
366.701	1	49
367.897	1	76
369.093	1	75
370.290	1	71
371.486	1	59
372.682	1	47
373.879	1	29
375.075	1	28
376.271	1	35
377.467	1	41
378.663	1	16
379.859	1	20
381.055	1	21
382.251	1	3
383.447	1	8
384.643	1	12
385.839	1	21
387.035	1	12
388.230	1	7
389.426	1	4
390.622	1	9
391.817	1	2
393.013	1	17
394.208	1	4
395.404	1	14
396.599	1	13
397.795	1	12
398.990	1	16
400.186	1	8
401.381	1	3
402.576	1	4
403.771	1	7
404.967	1	16
406.162	1	3
407.357	1	11
408.552	1	7
409.747	1	11
410.942	1	21
412.137	1	10
413.332	1	13
414.526	1	5
415.721	1	8
416.916	1	7
418.111	1	6
419.305	1	25
420.500	1	12
421.695	1	19
422.889	1	10
424.084	1	14
425.278	1	6
426.472	1	25
427.667	1	7
428.861	1	19
430.055	1	22
431.250	1	11
432.444	1	14
433.638	1	15
434.832	1	6
436.026	1	9
437.220	1	15
438.414	1	12
439.608	1	9
440.802	1	18
441.996	1	0
443.190	1	13
444.384	1	14
445.578	1	8
446.771	1	14
447.965	1	16
449.159	1	6
450.352	1	1
451.546	1	14
452.739	1	10
453.933	1	5
455.126	1	13
456.320	1	13
457.513	1	-1
458.706	1	15
459.899	1	3
461.093	1	6
462.286	1	2
463.479	1	8
464.672	1	10
465.865	1	11
467.058	1	3
468.251	1	1
469.444	1	5
470.637	1	7
471.830	1	-1
473.023	1	19
474.215	1	1
475.408	1	9
476.601	1	5
477.793	1	6
478.986	1	17
480.179	1	9
481.371	1	5
482.564	1	6
483.756	1	18
484.948	1	9
486.141	1	15
487.333	1	5
488.525	1	6
489.718	1	4
490.910	1	20
492.102	1	13
493.294	1	0
494.486	1	15
495.678	1	11
496.870	1	15
498.062	1	3
499.254	1	12
500.446	1	3
501.638	1	17
502.829	1	10
504.021	1	7
505.213	1	6
506.404	1	13
507.596	1	23
508.788	1	17
509.979	1	14
511.171	1	13
512.362	1	20
513.553	1	12
514.745	1	14
515.936	1	20
517.127	1	23
518.319	1	16
519.510	1	2
520.701	1	14
521.892	1	23
523.083	1	14
524.274	1	17
525.465	1	18
526.656	1	11
527.847	1	15
529.038	1	16
530.229	1	33
531.419	1	20
532.610	1	18
533.801	1	18
534.991	1	12
536.182	1	15
537.373	1	12
538.563	1	11
539.754	1	9
540.944	1	16
542.134	1	10
543.325	1	24
544.515	1	20
545.705	1	5
546.896	1	12
548.086	1	11
549.276	1	19
550.466	1	13
551.656	1	10
552.846	1	22
554.036	1	19
555.226	1	11
556.416	1	18
557.606	1	6
558.796	1	15
559.986	1	17
561.175	1	14
562.365	1	8
563.555	1	7
564.744	1	13
565.934	1	20
567.123	1	5
568.313	1	14
569.502	1	12
570.692	1	11
571.881	1	6
573.070	1	9
574.260	1	7
575.449	1	11
576.638	1	19
577.827	1	1
579.016	1	15
580.205	1	12
581.394	1	7
582.583	1	1
583.772	1	21
584.961	1	-1
586.150	1	17
587.339	1	2
588.528	1	12
589.717	1	1
590.905	1	3
592.094	1	11
593.283	1	13
594.471	1	0
595.660	1	10
596.848	1	12
598.037	1	3
599.225	1	3
600.413	1	14
601.602	1	12
602.790	1	11
603.978	1	9
605.166	1	3
606.355	1	-10
607.543	1	6
608.731	1	-11
609.919	1	-2
611.107	1	14
612.295	1	12
613.483	1	6
614.671	1	7
615.858	1	1
617.046	1	8
618.234	1	-1
619.422	1	21
620.609	1	-2
621.797	1	12
622.985	1	7
624.172	1	4
625.360	1	2
626.547	1	9
627.735	1	9
628.922	1	8
630.109	1	4
631.297	1	4
632.484	1	13
633.671	1	9
634.858	1	11
636.045	1	1
637.232	1	11
638.419	1	3
639.606	1	8
640.793	1	14
641.980	1	7
643.167	1	9
644.354	1	8
645.541	1	-7
646.728	1	2
647.914	1	10
649.101	1	2
650.288	1	9
651.474	1	11
652.661	1	11
653.847	1	10
655.034	1	4
656.220	1	6
657.406	1	4
658.593	1	11
659.779	1	9
660.965	1	7
662.152	1	2
663.338	1	8
664.524	1	18
665.710	1	4
666.896	1	13
668.082	1	9
669.268	1	-6
670.454	1	12
671.640	1	11
672.826	1	4
674.011	1	10
675.197	1	1
676.383	1	4
677.569	1	13
678.754	1	4
679.940	1	2
681.125	1	0
682.311	1	12
683.496	1	0
684.682	1	8
685.867	1	-7
687.053	1	19
688.238	1	8
688.746	1	5