File: Data/GaN_150K_450ms/GaN_sample D_spot15_UVVIS_150 K_200um_450 ms 2x2mm1_196.txt
340.368	1	4
341.565	1	-1
342.763	1	5
343.960	1	3
345.157	1	8
346.354	1	2
347.552	1	15
348.749	1	10
349.946	1	-8
351.143	1	9
352.340	1	13
353.537	1	-5
354.734	1	7
355.931	1	14
357.127	1	11
358.324	1	16
359.521	1	16
360.718	1	11
361.914	1	6
363.111	1	9
364.308	1	21
365.504	1	14
366.701	1	11
367.897	1	24
369.093	1	35
370.290	1	21
371.486	1	19
372.682	1	19
373.879	1	13
375.075	1	6
376.271	1	14
377.467	1	22
378.663	1	16
379.859	1	6
381.055	1	9
382.251	1	0
383.447	1	4
384.643	1	9
385.839	1	10
387.035	1	5
388.230	1	5
389.426	1	0
390.622	1	-5
391.817	1	1
393.013	1	12
394.208	1	3
395.404	1	12
396.599	1	7
397.795	1	-1
398.990	1	10
400.186	1	5
401.381	1	4
402.576	1	9
403.771	1	-8
404.967	1	8
406.162	1	0
407.357	1	11
408.552	1	11
409.747	1	6
410.942	1	10
412.137	1	-3
413.332	1	8
414.526	1	7
415.721	1	9
416.916	1	13
418.111	1	2
419.305	1	8
420.500	1	12
421.695	1	12
422.889	1	8
424.084	1	5
425.278	1	2
426.472	1	10
427.667	1	-3
428.861	1	12
430.055	1	12
431.250	1	13
432.444	1	9
433.638	1	10
434.832	1	9
436.026	1	0
437.220	1	5
438.414	1	5
439.608	1	-4
440.802	1	1
441.996	1	12
443.190	1	6
444.384	1	7
445.578	1	-5
446.771	1	2
447.965	1	8
449.159	1	-3
450.352	1	-3
451.546	1	5
452.739	1	2
453.933	1	-2
455.126	1	5
456.320	1	3
457.513	1	-3
458.706	1	9
459.899	1	-1
461.093	1	1
462.286	1	-7
463.479	1	5
464.672	1	8
465.865	1	6
467.058	1	9
468.251	1	-2
469.444	1	5
470.637	1	11
471.830	1	5
473.023	1	0
474.215	1	-2
475.408	1	4
476.601	1	2
477.793	1	2
478.986	1	7
480.179	1	10
481.371	1	-12
482.564	1	4
483.756	1	6
484.948	1	5
486.141	1	7
487.333	1	-7
488.525	1	-1
489.718	1	-5
490.910	1	15
492.102	1	0
493.294	1	-8
494.486	1	-1
495.678	1	5
496.870	1	9
498.062	1	-1
499.254	1	-4
500.446	1	4
501.638	1	8
502.829	1	2
504.021	1	3
505.213	1	2
506.404	1	4
507.596	1	14
508.788	1	0
509.979	1	6
511.171	1	3
512.362	1	10
513.553	1	9
514.745	1	5
515.936	1	5
517.127	1	16
518.319	1	0
519.510	1	3
520.701	1	4
521.892	1	6
523.083	1	0
524.274	1	3
525.465	1	13
526.656	1	2
527.847	1	3
529.038	1	0
530.229	1	9
531.419	1	12
532.610	1	15
533.801	1	7
534.991	1	6
536.182	1	2
537.373	1	7
538.563	1	6
539.754	1	2
540.944	1	6
542.134	1	8
543.325	1	7
544.515	1	12
545.705	1	2
546.896	1	3
548.086	1	8
549.276	1	4
550.466	1	1
551.656	1	4
552.846	1	11
554.036	1	17
555.226	1	7
556.416	1	13
557.606	1	-4
558.796	1	5
559.986	1	10
561.175	1	10
562.365	1	-3
563.555	1	10
564.744	1	6
565.934	1	17
567.123	1	6
568.313	1	3
569.502	1	6
570.692	1	4
571.881	1	11
573.070	1	5
574.260	1	6
575.449	1	2
576.638	1	2
577.827	1	4
579.016	1	3
580.205	1	0
581.394	1	5
582.583	1	3
583.772	1	15
584.961	1	-1
586.150	1	5
587.339	1	0
588.528	1	7
589.717	1	5
590.905	1	3
592.094	1	4
593.283	1	2
594.471	1	-3
595.660	1	5
596.848	1	7
598.037	1	2
599.225	1	0
600.413	1	7
601.602	1	12
602.790	1	6
603.978	1	6
605.166	1	5
606.355	1	-7
607.543	1	11
608.731	1	-4
609.919	1	-6
611.107	1	16
612.295	1	4
613.483	1	4
614.671	1	14
615.858	1	-7
617.046	1	2
618.234	1	-4
619.422	1	16
620.609	1	-1
621.797	1	1
622.985	1	3
624.172	1	8
625.360	1	5
626.547	1	-1
627.735	1	-1
628.922	1	3
630.109	1	-11
631.297	1	0
632.484	1	12
633.671	1	4
634.858	1	12
636.045	1	-1
637.232	1	0
638.419	1	1
639.606	1	12
640.793	1	4
641.980	1	10
643.167	1	11
644.354	1	12
645.541	1	7
646.728	1	-4
647.914	1	1
649.101	1	4
650.288	1	6
651.474	1	4
652.661	1	8
653.847	1	0
655.034	1	-5
656.220	1	5
657.406	1	3
658.593	1	-3
659.779	1	8
660.965	1	1
662.152	1	5
663.338	1	-6
664.524	1	5
665.710	1	9
666.896	1	5
668.082	1	5
669.268	1	-3
670.454	1	11
671.640	1	4
672.826	1	1
674.011	1	6
675.197	1	11
676.383	1	2
677.569	1	13
678.754	1	2
679.940	1	-1
681.125	1	0
682.311	1	12
683.496	1	0
684.682	1	7
685.867	1	9
687.053	1	17
688.238	1	3
688.746	1	0