File: Data/GaN_150K_450ms/GaN_sample D_spot15_UVVIS_150 K_200um_450 ms 2x2mm1_156.txt
340.368	1	5
341.565	1	10
342.763	1	9
343.960	1	3
345.157	1	13
346.354	1	7
347.552	1	19
348.749	1	17
349.946	1	-4
351.143	1	3
352.340	1	8
353.537	1	0
354.734	1	2
355.931	1	9
357.127	1	11
358.324	1	6
359.521	1	16
360.718	1	17
361.914	1	12
363.111	1	8
364.308	1	27
365.504	1	26
366.701	1	25
367.897	1	33
369.093	1	46
370.290	1	31
371.486	1	34
372.682	1	30
373.879	1	12
375.075	1	13
376.271	1	11
377.467	1	17
378.663	1	9
379.859	1	11
381.055	1	7
382.251	1	-1
383.447	1	10
384.643	1	5
385.839	1	4
387.035	1	11
388.230	1	5
389.426	1	-5
390.622	1	-9
391.817	1	-2
393.013	1	9
394.208	1	3
395.404	1	14
396.599	1	1
397.795	1	4
398.990	1	18
400.186	1	5
401.381	1	9
402.576	1	10
403.771	1	-4
404.967	1	12
406.162	1	-3
407.357	1	13
408.552	1	4
409.747	1	1
410.942	1	15
412.137	1	7
413.332	1	10
414.526	1	-8
415.721	1	9
416.916	1	10
418.111	1	13
419.305	1	7
420.500	1	13
421.695	1	11
422.889	1	10
424.084	1	15
425.278	1	4
426.472	1	16
427.667	1	12
428.861	1	10
430.055	1	16
431.250	1	12
432.444	1	11
433.638	1	11
434.832	1	-3
436.026	1	-3
437.220	1	13
438.414	1	8
439.608	1	-3
440.802	1	2
441.996	1	6
443.190	1	11
444.384	1	10
445.578	1	1
446.771	1	6
447.965	1	7
449.159	1	8
450.352	1	0
451.546	1	11
452.739	1	8
453.933	1	2
455.126	1	3
456.320	1	13
457.513	1	2
458.706	1	4
459.899	1	-4
461.093	1	2
462.286	1	2
463.479	1	-4
464.672	1	3
465.865	1	7
467.058	1	8
468.251	1	-1
469.444	1	7
470.637	1	7
471.830	1	6
473.023	1	11
474.215	1	3
475.408	1	8
476.601	1	8
477.793	1	-2
478.986	1	16
480.179	1	10
481.371	1	-16
482.564	1	4
483.756	1	15
484.948	1	5
486.141	1	4
487.333	1	-1
488.525	1	-4
489.718	1	-5
490.910	1	0
492.102	1	6
493.294	1	-6
494.486	1	3
495.678	1	3
496.870	1	0
498.062	1	-2
499.254	1	-1
500.446	1	-6
501.638	1	10
502.829	1	3
504.021	1	12
505.213	1	3
506.404	1	10
507.596	1	20
508.788	1	14
509.979	1	3
511.171	1	5
512.362	1	13
513.553	1	12
514.745	1	1
515.936	1	3
517.127	1	23
518.319	1	9
519.510	1	3
520.701	1	14
521.892	1	9
523.083	1	0
524.274	1	4
525.465	1	21
526.656	1	7
527.847	1	-3
529.038	1	7
530.229	1	19
531.419	1	7
532.610	1	13
533.801	1	15
534.991	1	3
536.182	1	9
537.373	1	11
538.563	1	7
539.754	1	5
540.944	1	13
542.134	1	11
543.325	1	14
544.515	1	8
545.705	1	-3
546.896	1	9
548.086	1	15
549.276	1	13
550.466	1	11
551.656	1	12
552.846	1	11
554.036	1	14
555.226	1	5
556.416	1	17
557.606	1	-7
558.796	1	11
559.986	1	7
561.175	1	4
562.365	1	10
563.555	1	12
564.744	1	21
565.934	1	15
567.123	1	10
568.313	1	4
569.502	1	4
570.692	1	5
571.881	1	8
573.070	1	2
574.260	1	8
575.449	1	-3
576.638	1	13
577.827	1	4
579.016	1	6
580.205	1	10
581.394	1	7
582.583	1	3
583.772	1	7
584.961	1	-7
586.150	1	6
587.339	1	9
588.528	1	0
589.717	1	5
590.905	1	5
592.094	1	7
593.283	1	10
594.471	1	-5
595.660	1	15
596.848	1	9
598.037	1	5
599.225	1	-4
600.413	1	3
601.602	1	14
602.790	1	8
603.978	1	9
605.166	1	8
606.355	1	-7
607.543	1	14
608.731	1	-1
609.919	1	-3
611.107	1	13
612.295	1	17
613.483	1	11
614.671	1	0
615.858	1	-3
617.046	1	0
618.234	1	4
619.422	1	19
620.609	1	-1
621.797	1	5
622.985	1	3
624.172	1	8
625.360	1	1
626.547	1	4
627.735	1	5
628.922	1	12
630.109	1	-14
631.297	1	10
632.484	1	8
633.671	1	3
634.858	1	3
636.045	1	-4
637.232	1	11
638.419	1	1
639.606	1	8
640.793	1	4
641.980	1	9
643.167	1	4
644.354	1	11
645.541	1	11
646.728	1	5
647.914	1	5
649.101	1	5
650.288	1	8
651.474	1	8
652.661	1	2
653.847	1	11
655.034	1	-1
656.220	1	12
657.406	1	-2
658.593	1	8
659.779	1	5
660.965	1	1
662.152	1	5
663.338	1	-2
664.524	1	16
665.710	1	5
666.896	1	-3
668.082	1	2
669.268	1	-3
670.454	1	7
671.640	1	11
672.826	1	-2
674.011	1	12
675.197	1	9
676.383	1	-3
677.569	1	14
678.754	1	-4
679.940	1	-3
681.125	1	6
682.311	1	12
683.496	1	-5
684.682	1	6
685.867	1	2
687.053	1	14
688.238	1	11
688.746	1	-4