File: Data/GaN_150K_450ms/GaN_sample D_spot15_UVVIS_150 K_200um_450 ms 2x2mm1_107.txt
340.368	1	4
341.565	1	10
342.763	1	5
343.960	1	7
345.157	1	18
346.354	1	3
347.552	1	19
348.749	1	19
349.946	1	1
351.143	1	6
352.340	1	7
353.537	1	10
354.734	1	5
355.931	1	5
357.127	1	18
358.324	1	17
359.521	1	35
360.718	1	15
361.914	1	25
363.111	1	37
364.308	1	49
365.504	1	58
366.701	1	68
367.897	1	87
369.093	1	83
370.290	1	64
371.486	1	68
372.682	1	52
373.879	1	41
375.075	1	28
376.271	1	35
377.467	1	33
378.663	1	36
379.859	1	18
381.055	1	21
382.251	1	12
383.447	1	14
384.643	1	11
385.839	1	12
387.035	1	17
388.230	1	17
389.426	1	9
390.622	1	8
391.817	1	3
393.013	1	23
394.208	1	10
395.404	1	8
396.599	1	11
397.795	1	6
398.990	1	29
400.186	1	6
401.381	1	12
402.576	1	7
403.771	1	7
404.967	1	5
406.162	1	5
407.357	1	14
408.552	1	-2
409.747	1	6
410.942	1	14
412.137	1	13
413.332	1	24
414.526	1	2
415.721	1	9
416.916	1	17
418.111	1	10
419.305	1	21
420.500	1	11
421.695	1	23
422.889	1	11
424.084	1	12
425.278	1	10
426.472	1	24
427.667	1	10
428.861	1	19
430.055	1	20
431.250	1	18
432.444	1	16
433.638	1	20
434.832	1	6
436.026	1	6
437.220	1	17
438.414	1	8
439.608	1	8
440.802	1	9
441.996	1	9
443.190	1	19
444.384	1	18
445.578	1	1
446.771	1	13
447.965	1	6
449.159	1	2
450.352	1	12
451.546	1	12
452.739	1	10
453.933	1	-1
455.126	1	4
456.320	1	17
457.513	1	10
458.706	1	18
459.899	1	10
461.093	1	6
462.286	1	4
463.479	1	14
464.672	1	1
465.865	1	6
467.058	1	9
468.251	1	2
469.444	1	9
470.637	1	4
471.830	1	7
473.023	1	8
474.215	1	12
475.408	1	2
476.601	1	-2
477.793	1	4
478.986	1	14
480.179	1	13
481.371	1	-4
482.564	1	8
483.756	1	10
484.948	1	11
486.141	1	4
487.333	1	3
488.525	1	1
489.718	1	0
490.910	1	14
492.102	1	11
493.294	1	-3
494.486	1	9
495.678	1	6
496.870	1	10
498.062	1	10
499.254	1	9
500.446	1	-4
501.638	1	18
502.829	1	5
504.021	1	18
505.213	1	10
506.404	1	15
507.596	1	20
508.788	1	11
509.979	1	13
511.171	1	16
512.362	1	27
513.553	1	18
514.745	1	14
515.936	1	13
517.127	1	23
518.319	1	20
519.510	1	13
520.701	1	18
521.892	1	24
523.083	1	19
524.274	1	24
525.465	1	27
526.656	1	36
527.847	1	13
529.038	1	20
530.229	1	31
531.419	1	31
532.610	1	35
533.801	1	25
534.991	1	21
536.182	1	17
537.373	1	25
538.563	1	23
539.754	1	15
540.944	1	15
542.134	1	23
543.325	1	18
544.515	1	26
545.705	1	19
546.896	1	17
548.086	1	26
549.276	1	26
550.466	1	18
551.656	1	19
552.846	1	21
554.036	1	27
555.226	1	9
556.416	1	16
557.606	1	7
558.796	1	21
559.986	1	14
561.175	1	20
562.365	1	15
563.555	1	14
564.744	1	13
565.934	1	18
567.123	1	5
568.313	1	14
569.502	1	11
570.692	1	14
571.881	1	8
573.070	1	12
574.260	1	9
575.449	1	6
576.638	1	10
577.827	1	-1
579.016	1	18
580.205	1	13
581.394	1	18
582.583	1	12
583.772	1	11
584.961	1	2
586.150	1	13
587.339	1	13
588.528	1	22
589.717	1	11
590.905	1	7
592.094	1	18
593.283	1	11
594.471	1	-1
595.660	1	7
596.848	1	10
598.037	1	4
599.225	1	8
600.413	1	4
601.602	1	17
602.790	1	14
603.978	1	6
605.166	1	8
606.355	1	-1
607.543	1	8
608.731	1	-7
609.919	1	1
611.107	1	10
612.295	1	10
613.483	1	8
614.671	1	12
615.858	1	-4
617.046	1	10
618.234	1	8
619.422	1	13
620.609	1	4
621.797	1	3
622.985	1	4
624.172	1	3
625.360	1	0
626.547	1	-9
627.735	1	8
628.922	1	10
630.109	1	-2
631.297	1	8
632.484	1	10
633.671	1	7
634.858	1	3
636.045	1	-3
637.232	1	8
638.419	1	-6
639.606	1	20
640.793	1	6
641.980	1	11
643.167	1	10
644.354	1	10
645.541	1	4
646.728	1	5
647.914	1	2
649.101	1	-6
650.288	1	21
651.474	1	11
652.661	1	2
653.847	1	9
655.034	1	-1
656.220	1	12
657.406	1	1
658.593	1	20
659.779	1	12
660.965	1	3
662.152	1	7
663.338	1	1
664.524	1	13
665.710	1	6
666.896	1	8
668.082	1	9
669.268	1	-1
670.454	1	9
671.640	1	8
672.826	1	11
674.011	1	11
675.197	1	3
676.383	1	-1
677.569	1	15
678.754	1	2
679.940	1	4
681.125	1	-1
682.311	1	9
683.496	1	4
684.682	1	11
685.867	1	7
687.053	1	27
688.238	1	10
688.746	1	2