File: Data/GaN_150K_450ms/GaN_sample D_spot15_UVVIS_150 K_200um_450 ms 2x2mm1_269.txt
340.368	1	1
341.565	1	5
342.763	1	2
343.960	1	0
345.157	1	9
346.354	1	1
347.552	1	23
348.749	1	5
349.946	1	-4
351.143	1	8
352.340	1	1
353.537	1	-4
354.734	1	5
355.931	1	8
357.127	1	-4
358.324	1	12
359.521	1	11
360.718	1	-3
361.914	1	5
363.111	1	-4
364.308	1	13
365.504	1	10
366.701	1	15
367.897	1	10
369.093	1	25
370.290	1	18
371.486	1	19
372.682	1	0
373.879	1	-1
375.075	1	7
376.271	1	6
377.467	1	12
378.663	1	5
379.859	1	3
381.055	1	3
382.251	1	-3
383.447	1	2
384.643	1	0
385.839	1	2
387.035	1	4
388.230	1	7
389.426	1	-5
390.622	1	-3
391.817	1	0
393.013	1	1
394.208	1	5
395.404	1	8
396.599	1	-1
397.795	1	-2
398.990	1	12
400.186	1	-1
401.381	1	4
402.576	1	3
403.771	1	-7
404.967	1	-2
406.162	1	-4
407.357	1	0
408.552	1	-6
409.747	1	0
410.942	1	8
412.137	1	-5
413.332	1	8
414.526	1	-6
415.721	1	6
416.916	1	0
418.111	1	2
419.305	1	12
420.500	1	5
421.695	1	9
422.889	1	17
424.084	1	3
425.278	1	5
426.472	1	10
427.667	1	2
428.861	1	10
430.055	1	2
431.250	1	11
432.444	1	16
433.638	1	6
434.832	1	3
436.026	1	1
437.220	1	13
438.414	1	4
439.608	1	-1
440.802	1	4
441.996	1	-2
443.190	1	2
444.384	1	1
445.578	1	-2
446.771	1	0
447.965	1	3
449.159	1	-2
450.352	1	-3
451.546	1	12
452.739	1	-2
453.933	1	-8
455.126	1	5
456.320	1	6
457.513	1	1
458.706	1	10
459.899	1	4
461.093	1	3
462.286	1	-5
463.479	1	1
464.672	1	9
465.865	1	-2
467.058	1	1
468.251	1	-9
469.444	1	2
470.637	1	-4
471.830	1	3
473.023	1	10
474.215	1	4
475.408	1	5
476.601	1	10
477.793	1	-2
478.986	1	1
480.179	1	10
481.371	1	-5
482.564	1	6
483.756	1	4
484.948	1	12
486.141	1	13
487.333	1	-6
488.525	1	-5
489.718	1	-4
490.910	1	5
492.102	1	3
493.294	1	-8
494.486	1	-2
495.678	1	2
496.870	1	-2
498.062	1	-3
499.254	1	-3
500.446	1	-5
501.638	1	3
502.829	1	-8
504.021	1	-3
505.213	1	1
506.404	1	6
507.596	1	-2
508.788	1	2
509.979	1	5
511.171	1	2
512.362	1	1
513.553	1	9
514.745	1	3
515.936	1	-1
517.127	1	17
518.319	1	14
519.510	1	-5
520.701	1	3
521.892	1	7
523.083	1	-2
524.274	1	7
525.465	1	9
526.656	1	6
527.847	1	-11
529.038	1	-2
530.229	1	5
531.419	1	-2
532.610	1	1
533.801	1	9
534.991	1	1
536.182	1	-7
537.373	1	5
538.563	1	4
539.754	1	-5
540.944	1	7
542.134	1	-1
543.325	1	15
544.515	1	3
545.705	1	7
546.896	1	2
548.086	1	4
549.276	1	9
550.466	1	-3
551.656	1	-2
552.846	1	10
554.036	1	10
555.226	1	8
556.416	1	10
557.606	1	0
558.796	1	5
559.986	1	2
561.175	1	-1
562.365	1	6
563.555	1	7
564.744	1	16
565.934	1	8
567.123	1	7
568.313	1	-2
569.502	1	12
570.692	1	7
571.881	1	-2
573.070	1	4
574.260	1	0
575.449	1	-1
576.638	1	7
577.827	1	1
579.016	1	7
580.205	1	5
581.394	1	1
582.583	1	5
583.772	1	7
584.961	1	-10
586.150	1	0
587.339	1	-3
588.528	1	2
589.717	1	4
590.905	1	-1
592.094	1	7
593.283	1	-1
594.471	1	-3
595.660	1	3
596.848	1	2
598.037	1	-7
599.225	1	1
600.413	1	8
601.602	1	5
602.790	1	7
603.978	1	3
605.166	1	2
606.355	1	-12
607.543	1	1
608.731	1	-11
609.919	1	-14
611.107	1	7
612.295	1	-3
613.483	1	2
614.671	1	8
615.858	1	1
617.046	1	-7
618.234	1	-3
619.422	1	11
620.609	1	-7
621.797	1	0
622.985	1	5
624.172	1	0
625.360	1	8
626.547	1	-3
627.735	1	-11
628.922	1	8
630.109	1	-10
631.297	1	2
632.484	1	16
633.671	1	5
634.858	1	5
636.045	1	-12
637.232	1	-1
638.419	1	-7
639.606	1	12
640.793	1	3
641.980	1	10
643.167	1	2
644.354	1	4
645.541	1	6
646.728	1	8
647.914	1	2
649.101	1	5
650.288	1	-3
651.474	1	12
652.661	1	0
653.847	1	4
655.034	1	-5
656.220	1	-1
657.406	1	2
658.593	1	3
659.779	1	5
660.965	1	1
662.152	1	0
663.338	1	-10
664.524	1	5
665.710	1	4
666.896	1	2
668.082	1	5
669.268	1	2
670.454	1	9
671.640	1	7
672.826	1	1
674.011	1	-2
675.197	1	3
676.383	1	-1
677.569	1	7
678.754	1	-4
679.940	1	-6
681.125	1	-2
682.311	1	2
683.496	1	-1
684.682	1	4
685.867	1	4
687.053	1	21
688.238	1	9
688.746	1	-7