File: Data/GaN_150K_450ms/GaN_sample D_spot15_UVVIS_150 K_200um_450 ms 2x2mm1_100.txt
340.368	1	4
341.565	1	4
342.763	1	9
343.960	1	4
345.157	1	17
346.354	1	5
347.552	1	18
348.749	1	13
349.946	1	4
351.143	1	11
352.340	1	8
353.537	1	-2
354.734	1	11
355.931	1	13
357.127	1	22
358.324	1	16
359.521	1	28
360.718	1	24
361.914	1	27
363.111	1	33
364.308	1	53
365.504	1	63
366.701	1	81
367.897	1	89
369.093	1	92
370.290	1	85
371.486	1	74
372.682	1	59
373.879	1	47
375.075	1	39
376.271	1	36
377.467	1	40
378.663	1	34
379.859	1	22
381.055	1	25
382.251	1	16
383.447	1	20
384.643	1	10
385.839	1	20
387.035	1	8
388.230	1	13
389.426	1	5
390.622	1	7
391.817	1	20
393.013	1	20
394.208	1	13
395.404	1	17
396.599	1	8
397.795	1	5
398.990	1	25
400.186	1	17
401.381	1	7
402.576	1	11
403.771	1	-2
404.967	1	16
406.162	1	3
407.357	1	18
408.552	1	9
409.747	1	2
410.942	1	23
412.137	1	6
413.332	1	20
414.526	1	9
415.721	1	22
416.916	1	15
418.111	1	16
419.305	1	12
420.500	1	11
421.695	1	7
422.889	1	18
424.084	1	16
425.278	1	13
426.472	1	25
427.667	1	4
428.861	1	14
430.055	1	18
431.250	1	22
432.444	1	10
433.638	1	13
434.832	1	3
436.026	1	3
437.220	1	9
438.414	1	17
439.608	1	19
440.802	1	10
441.996	1	7
443.190	1	21
444.384	1	9
445.578	1	6
446.771	1	13
447.965	1	11
449.159	1	5
450.352	1	12
451.546	1	4
452.739	1	5
453.933	1	-1
455.126	1	14
456.320	1	6
457.513	1	5
458.706	1	14
459.899	1	12
461.093	1	10
462.286	1	-1
463.479	1	9
464.672	1	10
465.865	1	12
467.058	1	4
468.251	1	3
469.444	1	13
470.637	1	8
471.830	1	8
473.023	1	9
474.215	1	2
475.408	1	10
476.601	1	6
477.793	1	2
478.986	1	21
480.179	1	8
481.371	1	-2
482.564	1	15
483.756	1	11
484.948	1	13
486.141	1	17
487.333	1	3
488.525	1	11
489.718	1	3
490.910	1	14
492.102	1	9
493.294	1	8
494.486	1	10
495.678	1	13
496.870	1	19
498.062	1	4
499.254	1	10
500.446	1	6
501.638	1	17
502.829	1	15
504.021	1	13
505.213	1	16
506.404	1	10
507.596	1	20
508.788	1	14
509.979	1	19
511.171	1	16
512.362	1	30
513.553	1	31
514.745	1	22
515.936	1	27
517.127	1	27
518.319	1	21
519.510	1	13
520.701	1	29
521.892	1	29
523.083	1	12
524.274	1	27
525.465	1	25
526.656	1	32
527.847	1	10
529.038	1	20
530.229	1	33
531.419	1	29
532.610	1	28
533.801	1	27
534.991	1	20
536.182	1	28
537.373	1	21
538.563	1	19
539.754	1	24
540.944	1	21
542.134	1	26
543.325	1	36
544.515	1	17
545.705	1	11
546.896	1	20
548.086	1	17
549.276	1	22
550.466	1	16
551.656	1	25
552.846	1	25
554.036	1	22
555.226	1	16
556.416	1	22
557.606	1	4
558.796	1	18
559.986	1	23
561.175	1	15
562.365	1	10
563.555	1	20
564.744	1	22
565.934	1	20
567.123	1	10
568.313	1	12
569.502	1	12
570.692	1	16
571.881	1	6
573.070	1	24
574.260	1	19
575.449	1	10
576.638	1	17
577.827	1	1
579.016	1	10
580.205	1	8
581.394	1	10
582.583	1	9
583.772	1	12
584.961	1	2
586.150	1	15
587.339	1	14
588.528	1	1
589.717	1	15
590.905	1	4
592.094	1	15
593.283	1	10
594.471	1	-5
595.660	1	3
596.848	1	5
598.037	1	6
599.225	1	9
600.413	1	2
601.602	1	15
602.790	1	17
603.978	1	6
605.166	1	7
606.355	1	-2
607.543	1	4
608.731	1	0
609.919	1	-6
611.107	1	16
612.295	1	5
613.483	1	4
614.671	1	12
615.858	1	1
617.046	1	3
618.234	1	4
619.422	1	22
620.609	1	2
621.797	1	8
622.985	1	-5
624.172	1	7
625.360	1	2
626.547	1	-8
627.735	1	5
628.922	1	10
630.109	1	7
631.297	1	7
632.484	1	21
633.671	1	15
634.858	1	-2
636.045	1	-1
637.232	1	11
638.419	1	7
639.606	1	10
640.793	1	-1
641.980	1	17
643.167	1	17
644.354	1	11
645.541	1	4
646.728	1	10
647.914	1	7
649.101	1	8
650.288	1	8
651.474	1	14
652.661	1	8
653.847	1	7
655.034	1	2
656.220	1	7
657.406	1	2
658.593	1	6
659.779	1	5
660.965	1	7
662.152	1	10
663.338	1	8
664.524	1	12
665.710	1	11
666.896	1	4
668.082	1	6
669.268	1	-1
670.454	1	6
671.640	1	16
672.826	1	6
674.011	1	15
675.197	1	15
676.383	1	0
677.569	1	20
678.754	1	3
679.940	1	3
681.125	1	-6
682.311	1	24
683.496	1	7
684.682	1	6
685.867	1	7
687.053	1	17
688.238	1	5
688.746	1	-2