File: Data/GaN_150K_450ms/GaN_sample D_spot15_UVVIS_150 K_200um_450 ms 2x2mm1_95.txt
340.368	1	4
341.565	1	11
342.763	1	9
343.960	1	12
345.157	1	10
346.354	1	11
347.552	1	9
348.749	1	12
349.946	1	3
351.143	1	12
352.340	1	17
353.537	1	13
354.734	1	14
355.931	1	17
357.127	1	10
358.324	1	21
359.521	1	24
360.718	1	18
361.914	1	32
363.111	1	37
364.308	1	63
365.504	1	75
366.701	1	86
367.897	1	112
369.093	1	105
370.290	1	101
371.486	1	78
372.682	1	67
373.879	1	70
375.075	1	41
376.271	1	43
377.467	1	58
378.663	1	37
379.859	1	29
381.055	1	33
382.251	1	12
383.447	1	7
384.643	1	15
385.839	1	17
387.035	1	15
388.230	1	11
389.426	1	7
390.622	1	9
391.817	1	8
393.013	1	12
394.208	1	13
395.404	1	14
396.599	1	19
397.795	1	4
398.990	1	26
400.186	1	18
401.381	1	9
402.576	1	14
403.771	1	6
404.967	1	16
406.162	1	5
407.357	1	21
408.552	1	9
409.747	1	12
410.942	1	20
412.137	1	9
413.332	1	14
414.526	1	6
415.721	1	12
416.916	1	3
418.111	1	22
419.305	1	15
420.500	1	19
421.695	1	23
422.889	1	14
424.084	1	14
425.278	1	20
426.472	1	16
427.667	1	13
428.861	1	18
430.055	1	22
431.250	1	20
432.444	1	12
433.638	1	17
434.832	1	-1
436.026	1	8
437.220	1	19
438.414	1	21
439.608	1	11
440.802	1	17
441.996	1	10
443.190	1	10
444.384	1	9
445.578	1	9
446.771	1	19
447.965	1	10
449.159	1	8
450.352	1	1
451.546	1	10
452.739	1	11
453.933	1	1
455.126	1	8
456.320	1	12
457.513	1	9
458.706	1	14
459.899	1	-2
461.093	1	12
462.286	1	-3
463.479	1	2
464.672	1	7
465.865	1	6
467.058	1	9
468.251	1	0
469.444	1	8
470.637	1	0
471.830	1	6
473.023	1	9
474.215	1	4
475.408	1	4
476.601	1	4
477.793	1	3
478.986	1	9
480.179	1	15
481.371	1	4
482.564	1	10
483.756	1	10
484.948	1	8
486.141	1	20
487.333	1	-4
488.525	1	2
489.718	1	4
490.910	1	15
492.102	1	15
493.294	1	4
494.486	1	13
495.678	1	3
496.870	1	13
498.062	1	14
499.254	1	7
500.446	1	7
501.638	1	24
502.829	1	16
504.021	1	13
505.213	1	10
506.404	1	21
507.596	1	31
508.788	1	18
509.979	1	13
511.171	1	33
512.362	1	31
513.553	1	26
514.745	1	20
515.936	1	18
517.127	1	30
518.319	1	21
519.510	1	21
520.701	1	35
521.892	1	35
523.083	1	26
524.274	1	19
525.465	1	31
526.656	1	35
527.847	1	11
529.038	1	30
530.229	1	35
531.419	1	24
532.610	1	30
533.801	1	36
534.991	1	37
536.182	1	27
537.373	1	28
538.563	1	20
539.754	1	29
540.944	1	38
542.134	1	38
543.325	1	30
544.515	1	24
545.705	1	24
546.896	1	27
548.086	1	24
549.276	1	35
550.466	1	19
551.656	1	22
552.846	1	27
554.036	1	33
555.226	1	20
556.416	1	17
557.606	1	10
558.796	1	22
559.986	1	26
561.175	1	11
562.365	1	17
563.555	1	30
564.744	1	26
565.934	1	22
567.123	1	12
568.313	1	20
569.502	1	16
570.692	1	18
571.881	1	21
573.070	1	13
574.260	1	12
575.449	1	9
576.638	1	16
577.827	1	5
579.016	1	23
580.205	1	14
581.394	1	8
582.583	1	17
583.772	1	22
584.961	1	7
586.150	1	12
587.339	1	12
588.528	1	1
589.717	1	4
590.905	1	3
592.094	1	17
593.283	1	16
594.471	1	6
595.660	1	9
596.848	1	16
598.037	1	5
599.225	1	8
600.413	1	4
601.602	1	18
602.790	1	13
603.978	1	9
605.166	1	6
606.355	1	5
607.543	1	10
608.731	1	-6
609.919	1	-1
611.107	1	15
612.295	1	15
613.483	1	2
614.671	1	3
615.858	1	-3
617.046	1	-5
618.234	1	4
619.422	1	17
620.609	1	-1
621.797	1	0
622.985	1	11
624.172	1	4
625.360	1	2
626.547	1	4
627.735	1	3
628.922	1	14
630.109	1	8
631.297	1	5
632.484	1	11
633.671	1	14
634.858	1	6
636.045	1	1
637.232	1	1
638.419	1	7
639.606	1	18
640.793	1	2
641.980	1	12
643.167	1	9
644.354	1	15
645.541	1	6
646.728	1	11
647.914	1	3
649.101	1	-4
650.288	1	10
651.474	1	8
652.661	1	16
653.847	1	7
655.034	1	8
656.220	1	5
657.406	1	6
658.593	1	14
659.779	1	14
660.965	1	3
662.152	1	5
663.338	1	6
664.524	1	10
665.710	1	10
666.896	1	7
668.082	1	15
669.268	1	2
670.454	1	6
671.640	1	9
672.826	1	-7
674.011	1	13
675.197	1	9
676.383	1	-2
677.569	1	24
678.754	1	6
679.940	1	-3
681.125	1	6
682.311	1	8
683.496	1	3
684.682	1	15
685.867	1	6
687.053	1	25
688.238	1	17
688.746	1	12