File: Data/GaN_150K_450ms/GaN_sample D_spot15_UVVIS_150 K_200um_450 ms 2x2mm1_37.txt
340.368	1	-3
341.565	1	1
342.763	1	1
343.960	1	5
345.157	1	14
346.354	1	5
347.552	1	22
348.749	1	8
349.946	1	5
351.143	1	-2
352.340	1	9
353.537	1	-2
354.734	1	4
355.931	1	9
357.127	1	11
358.324	1	2
359.521	1	10
360.718	1	-3
361.914	1	5
363.111	1	3
364.308	1	-2
365.504	1	-6
366.701	1	0
367.897	1	11
369.093	1	2
370.290	1	7
371.486	1	13
372.682	1	3
373.879	1	-2
375.075	1	-1
376.271	1	3
377.467	1	8
378.663	1	2
379.859	1	4
381.055	1	-2
382.251	1	0
383.447	1	6
384.643	1	-4
385.839	1	0
387.035	1	2
388.230	1	-6
389.426	1	-11
390.622	1	-7
391.817	1	-4
393.013	1	6
394.208	1	-3
395.404	1	7
396.599	1	1
397.795	1	-7
398.990	1	10
400.186	1	1
401.381	1	2
402.576	1	7
403.771	1	-2
404.967	1	2
406.162	1	-2
407.357	1	4
408.552	1	-8
409.747	1	-5
410.942	1	7
412.137	1	0
413.332	1	7
414.526	1	-10
415.721	1	1
416.916	1	9
418.111	1	1
419.305	1	9
420.500	1	2
421.695	1	3
422.889	1	0
424.084	1	8
425.278	1	2
426.472	1	6
427.667	1	-6
428.861	1	-3
430.055	1	6
431.250	1	8
432.444	1	1
433.638	1	9
434.832	1	1
436.026	1	4
437.220	1	-1
438.414	1	7
439.608	1	4
440.802	1	-2
441.996	1	-5
443.190	1	5
444.384	1	-4
445.578	1	-9
446.771	1	-1
447.965	1	-7
449.159	1	-8
450.352	1	3
451.546	1	1
452.739	1	2
453.933	1	-5
455.126	1	7
456.320	1	7
457.513	1	-5
458.706	1	7
459.899	1	-1
461.093	1	7
462.286	1	-1
463.479	1	-7
464.672	1	0
465.865	1	2
467.058	1	7
468.251	1	-2
469.444	1	-7
470.637	1	2
471.830	1	1
473.023	1	4
474.215	1	-5
475.408	1	1
476.601	1	4
477.793	1	9
478.986	1	4
480.179	1	12
481.371	1	-10
482.564	1	5
483.756	1	-5
484.948	1	7
486.141	1	9
487.333	1	-10
488.525	1	1
489.718	1	-8
490.910	1	3
492.102	1	3
493.294	1	-7
494.486	1	-2
495.678	1	2
496.870	1	2
498.062	1	0
499.254	1	0
500.446	1	5
501.638	1	6
502.829	1	-2
504.021	1	8
505.213	1	-3
506.404	1	1
507.596	1	12
508.788	1	1
509.979	1	-2
511.171	1	0
512.362	1	13
513.553	1	4
514.745	1	0
515.936	1	-7
517.127	1	9
518.319	1	2
519.510	1	-1
520.701	1	6
521.892	1	-7
523.083	1	-6
524.274	1	4
525.465	1	3
526.656	1	-4
527.847	1	-13
529.038	1	8
530.229	1	10
531.419	1	2
532.610	1	2
533.801	1	6
534.991	1	-2
536.182	1	-1
537.373	1	0
538.563	1	5
539.754	1	2
540.944	1	11
542.134	1	-1
543.325	1	14
544.515	1	-1
545.705	1	3
546.896	1	7
548.086	1	2
549.276	1	2
550.466	1	-2
551.656	1	7
552.846	1	13
554.036	1	4
555.226	1	4
556.416	1	4
557.606	1	-9
558.796	1	14
559.986	1	7
561.175	1	1
562.365	1	1
563.555	1	10
564.744	1	14
565.934	1	2
567.123	1	-4
568.313	1	7
569.502	1	4
570.692	1	-1
571.881	1	-4
573.070	1	-4
574.260	1	3
575.449	1	-5
576.638	1	12
577.827	1	-8
579.016	1	2
580.205	1	2
581.394	1	7
582.583	1	7
583.772	1	6
584.961	1	-5
586.150	1	3
587.339	1	-3
588.528	1	-9
589.717	1	1
590.905	1	2
592.094	1	0
593.283	1	5
594.471	1	-8
595.660	1	3
596.848	1	6
598.037	1	6
599.225	1	-5
600.413	1	4
601.602	1	13
602.790	1	5
603.978	1	2
605.166	1	4
606.355	1	-14
607.543	1	-3
608.731	1	-7
609.919	1	-10
611.107	1	9
612.295	1	-2
613.483	1	1
614.671	1	3
615.858	1	-7
617.046	1	1
618.234	1	-10
619.422	1	15
620.609	1	9
621.797	1	1
622.985	1	-5
624.172	1	7
625.360	1	-3
626.547	1	2
627.735	1	-5
628.922	1	4
630.109	1	-6
631.297	1	1
632.484	1	4
633.671	1	-2
634.858	1	6
636.045	1	-13
637.232	1	-1
638.419	1	-14
639.606	1	8
640.793	1	-3
641.980	1	11
643.167	1	2
644.354	1	11
645.541	1	2
646.728	1	4
647.914	1	3
649.101	1	-15
650.288	1	1
651.474	1	2
652.661	1	2
653.847	1	6
655.034	1	-2
656.220	1	6
657.406	1	0
658.593	1	6
659.779	1	0
660.965	1	4
662.152	1	-2
663.338	1	-1
664.524	1	13
665.710	1	3
666.896	1	2
668.082	1	1
669.268	1	1
670.454	1	6
671.640	1	1
672.826	1	3
674.011	1	3
675.197	1	2
676.383	1	4
677.569	1	10
678.754	1	5
679.940	1	-2
681.125	1	-1
682.311	1	-1
683.496	1	2
684.682	1	8
685.867	1	-9
687.053	1	11
688.238	1	0
688.746	1	-5