File: Data/GaN_150K_450ms/GaN_sample D_spot15_UVVIS_150 K_200um_450 ms 2x2mm1_178.txt
340.368	1	7
341.565	1	4
342.763	1	3
343.960	1	3
345.157	1	12
346.354	1	4
347.552	1	17
348.749	1	20
349.946	1	-1
351.143	1	5
352.340	1	10
353.537	1	-2
354.734	1	11
355.931	1	0
357.127	1	12
358.324	1	14
359.521	1	22
360.718	1	16
361.914	1	17
363.111	1	8
364.308	1	22
365.504	1	17
366.701	1	30
367.897	1	26
369.093	1	36
370.290	1	28
371.486	1	30
372.682	1	15
373.879	1	16
375.075	1	5
376.271	1	12
377.467	1	21
378.663	1	11
379.859	1	3
381.055	1	2
382.251	1	5
383.447	1	-1
384.643	1	3
385.839	1	10
387.035	1	13
388.230	1	2
389.426	1	0
390.622	1	0
391.817	1	0
393.013	1	3
394.208	1	7
395.404	1	5
396.599	1	6
397.795	1	7
398.990	1	8
400.186	1	7
401.381	1	-3
402.576	1	12
403.771	1	6
404.967	1	13
406.162	1	5
407.357	1	-2
408.552	1	0
409.747	1	5
410.942	1	13
412.137	1	11
413.332	1	5
414.526	1	3
415.721	1	9
416.916	1	3
418.111	1	11
419.305	1	12
420.500	1	13
421.695	1	11
422.889	1	13
424.084	1	1
425.278	1	8
426.472	1	16
427.667	1	-7
428.861	1	4
430.055	1	16
431.250	1	8
432.444	1	10
433.638	1	11
434.832	1	10
436.026	1	9
437.220	1	10
438.414	1	4
439.608	1	1
440.802	1	5
441.996	1	3
443.190	1	9
444.384	1	15
445.578	1	0
446.771	1	4
447.965	1	9
449.159	1	-4
450.352	1	7
451.546	1	8
452.739	1	6
453.933	1	-4
455.126	1	5
456.320	1	1
457.513	1	1
458.706	1	10
459.899	1	-5
461.093	1	7
462.286	1	3
463.479	1	-1
464.672	1	11
465.865	1	0
467.058	1	0
468.251	1	0
469.444	1	6
470.637	1	-5
471.830	1	8
473.023	1	7
474.215	1	8
475.408	1	10
476.601	1	1
477.793	1	-3
478.986	1	8
480.179	1	5
481.371	1	-3
482.564	1	2
483.756	1	9
484.948	1	5
486.141	1	4
487.333	1	-2
488.525	1	-5
489.718	1	0
490.910	1	11
492.102	1	0
493.294	1	-9
494.486	1	-2
495.678	1	5
496.870	1	2
498.062	1	7
499.254	1	1
500.446	1	-4
501.638	1	10
502.829	1	10
504.021	1	4
505.213	1	2
506.404	1	5
507.596	1	3
508.788	1	8
509.979	1	4
511.171	1	10
512.362	1	10
513.553	1	-1
514.745	1	1
515.936	1	8
517.127	1	15
518.319	1	2
519.510	1	-2
520.701	1	10
521.892	1	2
523.083	1	9
524.274	1	13
525.465	1	14
526.656	1	15
527.847	1	-7
529.038	1	8
530.229	1	13
531.419	1	12
532.610	1	9
533.801	1	1
534.991	1	3
536.182	1	0
537.373	1	3
538.563	1	3
539.754	1	0
540.944	1	9
542.134	1	6
543.325	1	2
544.515	1	8
545.705	1	8
546.896	1	6
548.086	1	9
549.276	1	4
550.466	1	4
551.656	1	12
552.846	1	18
554.036	1	5
555.226	1	9
556.416	1	12
557.606	1	-8
558.796	1	16
559.986	1	10
561.175	1	-4
562.365	1	14
563.555	1	6
564.744	1	10
565.934	1	7
567.123	1	2
568.313	1	10
569.502	1	8
570.692	1	8
571.881	1	1
573.070	1	-5
574.260	1	4
575.449	1	7
576.638	1	15
577.827	1	3
579.016	1	-1
580.205	1	6
581.394	1	6
582.583	1	3
583.772	1	10
584.961	1	1
586.150	1	8
587.339	1	5
588.528	1	-9
589.717	1	-3
590.905	1	6
592.094	1	10
593.283	1	5
594.471	1	-7
595.660	1	10
596.848	1	4
598.037	1	6
599.225	1	-2
600.413	1	-2
601.602	1	2
602.790	1	5
603.978	1	5
605.166	1	-3
606.355	1	-8
607.543	1	4
608.731	1	-10
609.919	1	-8
611.107	1	14
612.295	1	1
613.483	1	4
614.671	1	7
615.858	1	-1
617.046	1	0
618.234	1	3
619.422	1	19
620.609	1	-1
621.797	1	-2
622.985	1	-1
624.172	1	3
625.360	1	1
626.547	1	-3
627.735	1	6
628.922	1	5
630.109	1	-4
631.297	1	7
632.484	1	9
633.671	1	4
634.858	1	4
636.045	1	-2
637.232	1	3
638.419	1	5
639.606	1	15
640.793	1	-1
641.980	1	11
643.167	1	8
644.354	1	11
645.541	1	3
646.728	1	13
647.914	1	1
649.101	1	-4
650.288	1	7
651.474	1	5
652.661	1	5
653.847	1	2
655.034	1	-1
656.220	1	6
657.406	1	-6
658.593	1	4
659.779	1	2
660.965	1	4
662.152	1	9
663.338	1	-5
664.524	1	10
665.710	1	2
666.896	1	8
668.082	1	10
669.268	1	-9
670.454	1	4
671.640	1	8
672.826	1	2
674.011	1	5
675.197	1	18
676.383	1	1
677.569	1	20
678.754	1	6
679.940	1	0
681.125	1	4
682.311	1	5
683.496	1	-1
684.682	1	14
685.867	1	1
687.053	1	14
688.238	1	7
688.746	1	-1