File: Data/GaN_150K_450ms/GaN_sample D_spot15_UVVIS_150 K_200um_450 ms 2x2mm1_65.txt
340.368	1	4
341.565	1	12
342.763	1	6
343.960	1	8
345.157	1	7
346.354	1	7
347.552	1	18
348.749	1	21
349.946	1	3
351.143	1	12
352.340	1	9
353.537	1	4
354.734	1	18
355.931	1	24
357.127	1	32
358.324	1	24
359.521	1	42
360.718	1	59
361.914	1	70
363.111	1	91
364.308	1	143
365.504	1	205
366.701	1	288
367.897	1	324
369.093	1	328
370.290	1	282
371.486	1	223
372.682	1	165
373.879	1	146
375.075	1	116
376.271	1	102
377.467	1	92
378.663	1	74
379.859	1	54
381.055	1	41
382.251	1	48
383.447	1	45
384.643	1	43
385.839	1	48
387.035	1	36
388.230	1	35
389.426	1	24
390.622	1	20
391.817	1	26
393.013	1	39
394.208	1	31
395.404	1	36
396.599	1	22
397.795	1	22
398.990	1	30
400.186	1	24
401.381	1	24
402.576	1	23
403.771	1	7
404.967	1	24
406.162	1	12
407.357	1	29
408.552	1	8
409.747	1	10
410.942	1	17
412.137	1	27
413.332	1	18
414.526	1	17
415.721	1	16
416.916	1	16
418.111	1	14
419.305	1	18
420.500	1	23
421.695	1	24
422.889	1	19
424.084	1	16
425.278	1	17
426.472	1	13
427.667	1	26
428.861	1	29
430.055	1	21
431.250	1	24
432.444	1	16
433.638	1	17
434.832	1	10
436.026	1	19
437.220	1	28
438.414	1	14
439.608	1	2
440.802	1	16
441.996	1	13
443.190	1	18
444.384	1	17
445.578	1	7
446.771	1	11
447.965	1	17
449.159	1	6
450.352	1	0
451.546	1	10
452.739	1	11
453.933	1	4
455.126	1	17
456.320	1	12
457.513	1	18
458.706	1	26
459.899	1	9
461.093	1	21
462.286	1	15
463.479	1	11
464.672	1	5
465.865	1	13
467.058	1	19
468.251	1	-2
469.444	1	9
470.637	1	11
471.830	1	10
473.023	1	23
474.215	1	14
475.408	1	16
476.601	1	8
477.793	1	14
478.986	1	15
480.179	1	17
481.371	1	13
482.564	1	22
483.756	1	16
484.948	1	13
486.141	1	20
487.333	1	24
488.525	1	21
489.718	1	18
490.910	1	26
492.102	1	21
493.294	1	23
494.486	1	37
495.678	1	29
496.870	1	41
498.062	1	37
499.254	1	20
500.446	1	33
501.638	1	53
502.829	1	41
504.021	1	47
505.213	1	50
506.404	1	63
507.596	1	58
508.788	1	56
509.979	1	58
511.171	1	59
512.362	1	67
513.553	1	67
514.745	1	68
515.936	1	71
517.127	1	78
518.319	1	58
519.510	1	62
520.701	1	74
521.892	1	78
523.083	1	70
524.274	1	69
525.465	1	84
526.656	1	72
527.847	1	67
529.038	1	81
530.229	1	76
531.419	1	76
532.610	1	79
533.801	1	78
534.991	1	74
536.182	1	79
537.373	1	69
538.563	1	60
539.754	1	61
540.944	1	70
542.134	1	72
543.325	1	78
544.515	1	71
545.705	1	69
546.896	1	67
548.086	1	64
549.276	1	68
550.466	1	65
551.656	1	55
552.846	1	66
554.036	1	68
555.226	1	47
556.416	1	57
557.606	1	48
558.796	1	55
559.986	1	52
561.175	1	43
562.365	1	41
563.555	1	46
564.744	1	57
565.934	1	53
567.123	1	39
568.313	1	46
569.502	1	39
570.692	1	36
571.881	1	31
573.070	1	41
574.260	1	33
575.449	1	40
576.638	1	42
577.827	1	34
579.016	1	35
580.205	1	29
581.394	1	34
582.583	1	24
583.772	1	31
584.961	1	25
586.150	1	42
587.339	1	30
588.528	1	16
589.717	1	26
590.905	1	16
592.094	1	12
593.283	1	25
594.471	1	17
595.660	1	18
596.848	1	18
598.037	1	14
599.225	1	19
600.413	1	20
601.602	1	35
602.790	1	28
603.978	1	15
605.166	1	25
606.355	1	3
607.543	1	15
608.731	1	7
609.919	1	7
611.107	1	20
612.295	1	22
613.483	1	17
614.671	1	15
615.858	1	10
617.046	1	12
618.234	1	7
619.422	1	20
620.609	1	7
621.797	1	14
622.985	1	4
624.172	1	12
625.360	1	18
626.547	1	10
627.735	1	17
628.922	1	15
630.109	1	-5
631.297	1	17
632.484	1	21
633.671	1	19
634.858	1	13
636.045	1	13
637.232	1	16
638.419	1	5
639.606	1	19
640.793	1	9
641.980	1	11
643.167	1	17
644.354	1	15
645.541	1	6
646.728	1	23
647.914	1	14
649.101	1	-3
650.288	1	32
651.474	1	7
652.661	1	18
653.847	1	17
655.034	1	3
656.220	1	9
657.406	1	6
658.593	1	13
659.779	1	17
660.965	1	3
662.152	1	7
663.338	1	9
664.524	1	12
665.710	1	16
666.896	1	7
668.082	1	14
669.268	1	10
670.454	1	17
671.640	1	15
672.826	1	10
674.011	1	11
675.197	1	16
676.383	1	9
677.569	1	20
678.754	1	5
679.940	1	7
681.125	1	4
682.311	1	17
683.496	1	4
684.682	1	13
685.867	1	4
687.053	1	27
688.238	1	14
688.746	1	8