File: Data/GaN_150K_450ms/GaN_sample D_spot15_UVVIS_150 K_200um_450 ms 2x2mm1_207.txt
340.368	1	8
341.565	1	12
342.763	1	3
343.960	1	7
345.157	1	16
346.354	1	3
347.552	1	16
348.749	1	9
349.946	1	-5
351.143	1	16
352.340	1	10
353.537	1	2
354.734	1	3
355.931	1	9
357.127	1	13
358.324	1	-2
359.521	1	19
360.718	1	9
361.914	1	13
363.111	1	6
364.308	1	17
365.504	1	10
366.701	1	14
367.897	1	18
369.093	1	31
370.290	1	27
371.486	1	20
372.682	1	14
373.879	1	0
375.075	1	6
376.271	1	16
377.467	1	17
378.663	1	4
379.859	1	10
381.055	1	4
382.251	1	-3
383.447	1	2
384.643	1	0
385.839	1	5
387.035	1	2
388.230	1	5
389.426	1	-2
390.622	1	-3
391.817	1	2
393.013	1	8
394.208	1	2
395.404	1	2
396.599	1	-2
397.795	1	-1
398.990	1	8
400.186	1	4
401.381	1	2
402.576	1	0
403.771	1	-3
404.967	1	2
406.162	1	1
407.357	1	6
408.552	1	-5
409.747	1	-4
410.942	1	12
412.137	1	12
413.332	1	9
414.526	1	-7
415.721	1	0
416.916	1	4
418.111	1	10
419.305	1	4
420.500	1	8
421.695	1	8
422.889	1	-2
424.084	1	-3
425.278	1	10
426.472	1	11
427.667	1	2
428.861	1	17
430.055	1	13
431.250	1	6
432.444	1	14
433.638	1	9
434.832	1	3
436.026	1	8
437.220	1	2
438.414	1	9
439.608	1	0
440.802	1	3
441.996	1	2
443.190	1	14
444.384	1	7
445.578	1	5
446.771	1	4
447.965	1	0
449.159	1	1
450.352	1	2
451.546	1	5
452.739	1	-5
453.933	1	1
455.126	1	3
456.320	1	2
457.513	1	13
458.706	1	14
459.899	1	-3
461.093	1	6
462.286	1	-5
463.479	1	-1
464.672	1	9
465.865	1	4
467.058	1	6
468.251	1	-2
469.444	1	12
470.637	1	2
471.830	1	-4
473.023	1	7
474.215	1	-1
475.408	1	8
476.601	1	0
477.793	1	-4
478.986	1	5
480.179	1	15
481.371	1	-5
482.564	1	13
483.756	1	7
484.948	1	8
486.141	1	12
487.333	1	-8
488.525	1	-1
489.718	1	2
490.910	1	7
492.102	1	14
493.294	1	-1
494.486	1	1
495.678	1	-1
496.870	1	6
498.062	1	1
499.254	1	1
500.446	1	3
501.638	1	9
502.829	1	2
504.021	1	1
505.213	1	1
506.404	1	10
507.596	1	5
508.788	1	3
509.979	1	0
511.171	1	8
512.362	1	16
513.553	1	1
514.745	1	9
515.936	1	5
517.127	1	15
518.319	1	3
519.510	1	2
520.701	1	3
521.892	1	6
523.083	1	-1
524.274	1	12
525.465	1	13
526.656	1	8
527.847	1	-13
529.038	1	12
530.229	1	6
531.419	1	-2
532.610	1	9
533.801	1	6
534.991	1	-3
536.182	1	5
537.373	1	1
538.563	1	-1
539.754	1	-3
540.944	1	10
542.134	1	3
543.325	1	7
544.515	1	0
545.705	1	1
546.896	1	10
548.086	1	7
549.276	1	7
550.466	1	12
551.656	1	2
552.846	1	13
554.036	1	15
555.226	1	10
556.416	1	7
557.606	1	-5
558.796	1	9
559.986	1	8
561.175	1	7
562.365	1	7
563.555	1	8
564.744	1	15
565.934	1	10
567.123	1	1
568.313	1	-4
569.502	1	2
570.692	1	6
571.881	1	3
573.070	1	1
574.260	1	11
575.449	1	-4
576.638	1	11
577.827	1	3
579.016	1	4
580.205	1	0
581.394	1	4
582.583	1	9
583.772	1	-3
584.961	1	-5
586.150	1	7
587.339	1	3
588.528	1	-4
589.717	1	5
590.905	1	10
592.094	1	6
593.283	1	6
594.471	1	-4
595.660	1	4
596.848	1	12
598.037	1	-2
599.225	1	-3
600.413	1	4
601.602	1	9
602.790	1	3
603.978	1	-2
605.166	1	-1
606.355	1	-10
607.543	1	-2
608.731	1	-13
609.919	1	-8
611.107	1	7
612.295	1	9
613.483	1	5
614.671	1	-1
615.858	1	-5
617.046	1	-1
618.234	1	-6
619.422	1	14
620.609	1	2
621.797	1	1
622.985	1	6
624.172	1	8
625.360	1	-5
626.547	1	0
627.735	1	-1
628.922	1	2
630.109	1	-5
631.297	1	2
632.484	1	11
633.671	1	5
634.858	1	7
636.045	1	5
637.232	1	0
638.419	1	-2
639.606	1	9
640.793	1	5
641.980	1	12
643.167	1	6
644.354	1	16
645.541	1	-3
646.728	1	8
647.914	1	8
649.101	1	-4
650.288	1	4
651.474	1	10
652.661	1	0
653.847	1	10
655.034	1	-11
656.220	1	12
657.406	1	-3
658.593	1	11
659.779	1	8
660.965	1	3
662.152	1	4
663.338	1	-1
664.524	1	14
665.710	1	1
666.896	1	8
668.082	1	8
669.268	1	-3
670.454	1	5
671.640	1	6
672.826	1	1
674.011	1	2
675.197	1	18
676.383	1	-8
677.569	1	10
678.754	1	-1
679.940	1	-6
681.125	1	-6
682.311	1	10
683.496	1	-5
684.682	1	7
685.867	1	0
687.053	1	8
688.238	1	10
688.746	1	-5