File: Data/GaN_150K_450ms/GaN_sample D_spot15_UVVIS_150 K_200um_450 ms 2x2mm1_110.txt
340.368	1	-4
341.565	1	16
342.763	1	2
343.960	1	9
345.157	1	6
346.354	1	7
347.552	1	13
348.749	1	13
349.946	1	1
351.143	1	6
352.340	1	17
353.537	1	-6
354.734	1	9
355.931	1	7
357.127	1	22
358.324	1	16
359.521	1	19
360.718	1	18
361.914	1	25
363.111	1	38
364.308	1	44
365.504	1	53
366.701	1	67
367.897	1	77
369.093	1	86
370.290	1	77
371.486	1	65
372.682	1	58
373.879	1	45
375.075	1	37
376.271	1	40
377.467	1	41
378.663	1	27
379.859	1	17
381.055	1	12
382.251	1	6
383.447	1	10
384.643	1	14
385.839	1	18
387.035	1	7
388.230	1	6
389.426	1	9
390.622	1	2
391.817	1	9
393.013	1	15
394.208	1	9
395.404	1	13
396.599	1	16
397.795	1	12
398.990	1	20
400.186	1	15
401.381	1	12
402.576	1	9
403.771	1	-13
404.967	1	21
406.162	1	4
407.357	1	20
408.552	1	-1
409.747	1	15
410.942	1	20
412.137	1	7
413.332	1	9
414.526	1	0
415.721	1	16
416.916	1	4
418.111	1	6
419.305	1	22
420.500	1	11
421.695	1	21
422.889	1	20
424.084	1	12
425.278	1	8
426.472	1	22
427.667	1	7
428.861	1	20
430.055	1	21
431.250	1	17
432.444	1	19
433.638	1	21
434.832	1	5
436.026	1	14
437.220	1	23
438.414	1	20
439.608	1	9
440.802	1	13
441.996	1	16
443.190	1	11
444.384	1	17
445.578	1	-2
446.771	1	5
447.965	1	18
449.159	1	-1
450.352	1	11
451.546	1	6
452.739	1	13
453.933	1	5
455.126	1	7
456.320	1	12
457.513	1	5
458.706	1	11
459.899	1	6
461.093	1	6
462.286	1	5
463.479	1	4
464.672	1	2
465.865	1	-2
467.058	1	13
468.251	1	-4
469.444	1	15
470.637	1	6
471.830	1	7
473.023	1	8
474.215	1	9
475.408	1	14
476.601	1	13
477.793	1	3
478.986	1	9
480.179	1	13
481.371	1	2
482.564	1	2
483.756	1	16
484.948	1	16
486.141	1	9
487.333	1	8
488.525	1	1
489.718	1	-8
490.910	1	14
492.102	1	14
493.294	1	0
494.486	1	9
495.678	1	8
496.870	1	15
498.062	1	7
499.254	1	9
500.446	1	10
501.638	1	11
502.829	1	17
504.021	1	16
505.213	1	5
506.404	1	15
507.596	1	17
508.788	1	13
509.979	1	16
511.171	1	11
512.362	1	20
513.553	1	20
514.745	1	11
515.936	1	26
517.127	1	24
518.319	1	19
519.510	1	9
520.701	1	28
521.892	1	16
523.083	1	14
524.274	1	24
525.465	1	37
526.656	1	25
527.847	1	13
529.038	1	19
530.229	1	35
531.419	1	24
532.610	1	27
533.801	1	26
534.991	1	19
536.182	1	24
537.373	1	18
538.563	1	17
539.754	1	13
540.944	1	22
542.134	1	26
543.325	1	22
544.515	1	16
545.705	1	22
546.896	1	21
548.086	1	22
549.276	1	29
550.466	1	12
551.656	1	18
552.846	1	24
554.036	1	26
555.226	1	23
556.416	1	20
557.606	1	-3
558.796	1	24
559.986	1	24
561.175	1	13
562.365	1	7
563.555	1	25
564.744	1	23
565.934	1	21
567.123	1	11
568.313	1	16
569.502	1	16
570.692	1	19
571.881	1	0
573.070	1	6
574.260	1	19
575.449	1	2
576.638	1	17
577.827	1	-4
579.016	1	4
580.205	1	3
581.394	1	10
582.583	1	9
583.772	1	14
584.961	1	-3
586.150	1	13
587.339	1	8
588.528	1	8
589.717	1	13
590.905	1	3
592.094	1	8
593.283	1	7
594.471	1	-5
595.660	1	3
596.848	1	16
598.037	1	5
599.225	1	7
600.413	1	14
601.602	1	9
602.790	1	12
603.978	1	1
605.166	1	14
606.355	1	-1
607.543	1	7
608.731	1	-5
609.919	1	4
611.107	1	14
612.295	1	9
613.483	1	9
614.671	1	10
615.858	1	-8
617.046	1	9
618.234	1	-1
619.422	1	17
620.609	1	12
621.797	1	9
622.985	1	3
624.172	1	1
625.360	1	9
626.547	1	3
627.735	1	4
628.922	1	5
630.109	1	-13
631.297	1	7
632.484	1	6
633.671	1	10
634.858	1	13
636.045	1	1
637.232	1	8
638.419	1	-1
639.606	1	12
640.793	1	1
641.980	1	12
643.167	1	6
644.354	1	16
645.541	1	4
646.728	1	1
647.914	1	10
649.101	1	2
650.288	1	7
651.474	1	9
652.661	1	8
653.847	1	8
655.034	1	9
656.220	1	8
657.406	1	3
658.593	1	9
659.779	1	21
660.965	1	10
662.152	1	12
663.338	1	4
664.524	1	18
665.710	1	9
666.896	1	7
668.082	1	5
669.268	1	-2
670.454	1	7
671.640	1	11
672.826	1	2
674.011	1	3
675.197	1	14
676.383	1	1
677.569	1	18
678.754	1	5
679.940	1	-5
681.125	1	-1
682.311	1	10
683.496	1	2
684.682	1	7
685.867	1	2
687.053	1	26
688.238	1	10
688.746	1	4