File: Data/GaN_150K_450ms/GaN_sample D_spot15_UVVIS_150 K_200um_450 ms 2x2mm1_102.txt
340.368	1	1
341.565	1	0
342.763	1	7
343.960	1	5
345.157	1	11
346.354	1	15
347.552	1	23
348.749	1	10
349.946	1	5
351.143	1	7
352.340	1	4
353.537	1	10
354.734	1	10
355.931	1	9
357.127	1	18
358.324	1	19
359.521	1	32
360.718	1	20
361.914	1	38
363.111	1	33
364.308	1	57
365.504	1	64
366.701	1	73
367.897	1	98
369.093	1	89
370.290	1	87
371.486	1	71
372.682	1	60
373.879	1	47
375.075	1	36
376.271	1	30
377.467	1	38
378.663	1	27
379.859	1	28
381.055	1	19
382.251	1	9
383.447	1	11
384.643	1	24
385.839	1	15
387.035	1	21
388.230	1	13
389.426	1	-1
390.622	1	12
391.817	1	5
393.013	1	21
394.208	1	13
395.404	1	11
396.599	1	7
397.795	1	8
398.990	1	24
400.186	1	13
401.381	1	12
402.576	1	14
403.771	1	5
404.967	1	13
406.162	1	9
407.357	1	18
408.552	1	6
409.747	1	3
410.942	1	13
412.137	1	12
413.332	1	14
414.526	1	5
415.721	1	15
416.916	1	4
418.111	1	15
419.305	1	14
420.500	1	13
421.695	1	16
422.889	1	15
424.084	1	8
425.278	1	6
426.472	1	29
427.667	1	4
428.861	1	23
430.055	1	14
431.250	1	22
432.444	1	10
433.638	1	8
434.832	1	2
436.026	1	9
437.220	1	17
438.414	1	14
439.608	1	9
440.802	1	12
441.996	1	12
443.190	1	11
444.384	1	17
445.578	1	6
446.771	1	14
447.965	1	17
449.159	1	-3
450.352	1	1
451.546	1	3
452.739	1	8
453.933	1	1
455.126	1	10
456.320	1	13
457.513	1	6
458.706	1	15
459.899	1	9
461.093	1	13
462.286	1	5
463.479	1	1
464.672	1	4
465.865	1	2
467.058	1	5
468.251	1	-4
469.444	1	10
470.637	1	14
471.830	1	11
473.023	1	14
474.215	1	12
475.408	1	11
476.601	1	6
477.793	1	8
478.986	1	11
480.179	1	10
481.371	1	-3
482.564	1	12
483.756	1	5
484.948	1	14
486.141	1	9
487.333	1	2
488.525	1	9
489.718	1	-1
490.910	1	7
492.102	1	13
493.294	1	-2
494.486	1	10
495.678	1	15
496.870	1	14
498.062	1	11
499.254	1	11
500.446	1	6
501.638	1	18
502.829	1	12
504.021	1	23
505.213	1	3
506.404	1	14
507.596	1	32
508.788	1	13
509.979	1	16
511.171	1	23
512.362	1	28
513.553	1	16
514.745	1	25
515.936	1	18
517.127	1	27
518.319	1	21
519.510	1	20
520.701	1	23
521.892	1	20
523.083	1	11
524.274	1	13
525.465	1	29
526.656	1	27
527.847	1	13
529.038	1	25
530.229	1	29
531.419	1	33
532.610	1	29
533.801	1	24
534.991	1	18
536.182	1	22
537.373	1	28
538.563	1	19
539.754	1	22
540.944	1	14
542.134	1	23
543.325	1	25
544.515	1	28
545.705	1	21
546.896	1	12
548.086	1	24
549.276	1	23
550.466	1	31
551.656	1	19
552.846	1	19
554.036	1	19
555.226	1	27
556.416	1	32
557.606	1	10
558.796	1	21
559.986	1	15
561.175	1	11
562.365	1	11
563.555	1	20
564.744	1	18
565.934	1	26
567.123	1	7
568.313	1	16
569.502	1	16
570.692	1	18
571.881	1	10
573.070	1	3
574.260	1	11
575.449	1	7
576.638	1	14
577.827	1	14
579.016	1	15
580.205	1	9
581.394	1	11
582.583	1	13
583.772	1	3
584.961	1	4
586.150	1	5
587.339	1	14
588.528	1	7
589.717	1	11
590.905	1	10
592.094	1	13
593.283	1	7
594.471	1	-2
595.660	1	6
596.848	1	6
598.037	1	9
599.225	1	4
600.413	1	15
601.602	1	7
602.790	1	7
603.978	1	5
605.166	1	18
606.355	1	-5
607.543	1	5
608.731	1	-2
609.919	1	5
611.107	1	22
612.295	1	8
613.483	1	15
614.671	1	7
615.858	1	-6
617.046	1	7
618.234	1	-6
619.422	1	12
620.609	1	2
621.797	1	5
622.985	1	2
624.172	1	17
625.360	1	5
626.547	1	1
627.735	1	4
628.922	1	15
630.109	1	-4
631.297	1	6
632.484	1	13
633.671	1	8
634.858	1	12
636.045	1	5
637.232	1	4
638.419	1	9
639.606	1	8
640.793	1	1
641.980	1	10
643.167	1	6
644.354	1	2
645.541	1	1
646.728	1	1
647.914	1	-6
649.101	1	6
650.288	1	4
651.474	1	12
652.661	1	4
653.847	1	21
655.034	1	-3
656.220	1	16
657.406	1	10
658.593	1	10
659.779	1	5
660.965	1	13
662.152	1	5
663.338	1	5
664.524	1	11
665.710	1	7
666.896	1	4
668.082	1	9
669.268	1	5
670.454	1	7
671.640	1	9
672.826	1	7
674.011	1	2
675.197	1	3
676.383	1	-4
677.569	1	4
678.754	1	11
679.940	1	5
681.125	1	-1
682.311	1	19
683.496	1	6
684.682	1	12
685.867	1	8
687.053	1	22
688.238	1	9
688.746	1	-3