File: Data/GaN_150K_450ms/GaN_sample D_spot15_UVVIS_150 K_200um_450 ms 2x2mm1_147.txt
340.368	1	6
341.565	1	13
342.763	1	7
343.960	1	4
345.157	1	16
346.354	1	3
347.552	1	12
348.749	1	9
349.946	1	8
351.143	1	4
352.340	1	10
353.537	1	-4
354.734	1	3
355.931	1	4
357.127	1	16
358.324	1	20
359.521	1	20
360.718	1	10
361.914	1	14
363.111	1	12
364.308	1	26
365.504	1	26
366.701	1	34
367.897	1	44
369.093	1	55
370.290	1	42
371.486	1	39
372.682	1	31
373.879	1	24
375.075	1	16
376.271	1	15
377.467	1	25
378.663	1	16
379.859	1	10
381.055	1	8
382.251	1	8
383.447	1	11
384.643	1	9
385.839	1	8
387.035	1	5
388.230	1	8
389.426	1	-6
390.622	1	-2
391.817	1	-2
393.013	1	8
394.208	1	9
395.404	1	0
396.599	1	17
397.795	1	8
398.990	1	9
400.186	1	22
401.381	1	-3
402.576	1	8
403.771	1	6
404.967	1	12
406.162	1	5
407.357	1	10
408.552	1	10
409.747	1	2
410.942	1	20
412.137	1	5
413.332	1	14
414.526	1	2
415.721	1	10
416.916	1	12
418.111	1	15
419.305	1	11
420.500	1	13
421.695	1	15
422.889	1	9
424.084	1	14
425.278	1	7
426.472	1	12
427.667	1	13
428.861	1	15
430.055	1	6
431.250	1	13
432.444	1	15
433.638	1	11
434.832	1	3
436.026	1	4
437.220	1	10
438.414	1	8
439.608	1	5
440.802	1	14
441.996	1	-1
443.190	1	14
444.384	1	13
445.578	1	-7
446.771	1	2
447.965	1	8
449.159	1	-4
450.352	1	3
451.546	1	11
452.739	1	8
453.933	1	5
455.126	1	11
456.320	1	16
457.513	1	0
458.706	1	10
459.899	1	6
461.093	1	14
462.286	1	2
463.479	1	2
464.672	1	5
465.865	1	1
467.058	1	-6
468.251	1	-7
469.444	1	11
470.637	1	-6
471.830	1	3
473.023	1	9
474.215	1	15
475.408	1	4
476.601	1	6
477.793	1	4
478.986	1	5
480.179	1	6
481.371	1	7
482.564	1	14
483.756	1	2
484.948	1	10
486.141	1	13
487.333	1	1
488.525	1	7
489.718	1	6
490.910	1	17
492.102	1	8
493.294	1	-7
494.486	1	3
495.678	1	6
496.870	1	-4
498.062	1	8
499.254	1	2
500.446	1	3
501.638	1	10
502.829	1	3
504.021	1	6
505.213	1	-6
506.404	1	12
507.596	1	14
508.788	1	8
509.979	1	7
511.171	1	21
512.362	1	9
513.553	1	9
514.745	1	13
515.936	1	9
517.127	1	10
518.319	1	17
519.510	1	-1
520.701	1	10
521.892	1	19
523.083	1	13
524.274	1	11
525.465	1	20
526.656	1	18
527.847	1	0
529.038	1	5
530.229	1	20
531.419	1	10
532.610	1	15
533.801	1	10
534.991	1	9
536.182	1	11
537.373	1	3
538.563	1	1
539.754	1	10
540.944	1	13
542.134	1	11
543.325	1	17
544.515	1	7
545.705	1	0
546.896	1	8
548.086	1	20
549.276	1	7
550.466	1	9
551.656	1	10
552.846	1	13
554.036	1	15
555.226	1	8
556.416	1	10
557.606	1	-4
558.796	1	10
559.986	1	9
561.175	1	8
562.365	1	2
563.555	1	15
564.744	1	14
565.934	1	12
567.123	1	7
568.313	1	9
569.502	1	12
570.692	1	8
571.881	1	5
573.070	1	11
574.260	1	12
575.449	1	-1
576.638	1	18
577.827	1	-2
579.016	1	0
580.205	1	7
581.394	1	4
582.583	1	8
583.772	1	10
584.961	1	-5
586.150	1	4
587.339	1	8
588.528	1	1
589.717	1	9
590.905	1	7
592.094	1	9
593.283	1	10
594.471	1	-4
595.660	1	12
596.848	1	15
598.037	1	-1
599.225	1	6
600.413	1	11
601.602	1	23
602.790	1	7
603.978	1	3
605.166	1	5
606.355	1	-9
607.543	1	7
608.731	1	-10
609.919	1	-6
611.107	1	8
612.295	1	2
613.483	1	2
614.671	1	10
615.858	1	-12
617.046	1	-5
618.234	1	4
619.422	1	18
620.609	1	-1
621.797	1	10
622.985	1	-2
624.172	1	7
625.360	1	-3
626.547	1	3
627.735	1	5
628.922	1	6
630.109	1	-2
631.297	1	13
632.484	1	8
633.671	1	11
634.858	1	12
636.045	1	-4
637.232	1	7
638.419	1	-4
639.606	1	11
640.793	1	12
641.980	1	14
643.167	1	8
644.354	1	15
645.541	1	10
646.728	1	0
647.914	1	-1
649.101	1	7
650.288	1	10
651.474	1	12
652.661	1	17
653.847	1	3
655.034	1	-4
656.220	1	7
657.406	1	-1
658.593	1	6
659.779	1	7
660.965	1	-3
662.152	1	9
663.338	1	0
664.524	1	15
665.710	1	13
666.896	1	5
668.082	1	4
669.268	1	-5
670.454	1	8
671.640	1	5
672.826	1	1
674.011	1	6
675.197	1	13
676.383	1	-2
677.569	1	7
678.754	1	2
679.940	1	-1
681.125	1	-1
682.311	1	11
683.496	1	-1
684.682	1	14
685.867	1	-3
687.053	1	18
688.238	1	20
688.746	1	2