File: Data/GaN_150K_450ms/GaN_sample D_spot15_UVVIS_150 K_200um_450 ms 2x2mm1_171.txt
340.368	1	4
341.565	1	10
342.763	1	6
343.960	1	8
345.157	1	12
346.354	1	10
347.552	1	18
348.749	1	11
349.946	1	3
351.143	1	5
352.340	1	7
353.537	1	-4
354.734	1	20
355.931	1	13
357.127	1	17
358.324	1	11
359.521	1	26
360.718	1	8
361.914	1	15
363.111	1	9
364.308	1	22
365.504	1	11
366.701	1	24
367.897	1	37
369.093	1	27
370.290	1	30
371.486	1	21
372.682	1	26
373.879	1	16
375.075	1	7
376.271	1	13
377.467	1	22
378.663	1	8
379.859	1	4
381.055	1	6
382.251	1	-3
383.447	1	8
384.643	1	3
385.839	1	11
387.035	1	12
388.230	1	9
389.426	1	-3
390.622	1	2
391.817	1	-1
393.013	1	8
394.208	1	10
395.404	1	2
396.599	1	9
397.795	1	0
398.990	1	21
400.186	1	12
401.381	1	4
402.576	1	12
403.771	1	-3
404.967	1	8
406.162	1	-2
407.357	1	11
408.552	1	-1
409.747	1	3
410.942	1	18
412.137	1	8
413.332	1	0
414.526	1	8
415.721	1	5
416.916	1	6
418.111	1	8
419.305	1	7
420.500	1	9
421.695	1	6
422.889	1	6
424.084	1	3
425.278	1	14
426.472	1	15
427.667	1	14
428.861	1	10
430.055	1	14
431.250	1	14
432.444	1	9
433.638	1	9
434.832	1	5
436.026	1	5
437.220	1	11
438.414	1	7
439.608	1	-11
440.802	1	9
441.996	1	2
443.190	1	-1
444.384	1	13
445.578	1	-3
446.771	1	5
447.965	1	4
449.159	1	-3
450.352	1	-3
451.546	1	0
452.739	1	-3
453.933	1	-5
455.126	1	1
456.320	1	12
457.513	1	0
458.706	1	8
459.899	1	1
461.093	1	15
462.286	1	-1
463.479	1	6
464.672	1	6
465.865	1	5
467.058	1	2
468.251	1	4
469.444	1	12
470.637	1	4
471.830	1	2
473.023	1	9
474.215	1	2
475.408	1	4
476.601	1	8
477.793	1	6
478.986	1	2
480.179	1	9
481.371	1	-2
482.564	1	6
483.756	1	6
484.948	1	5
486.141	1	13
487.333	1	-3
488.525	1	4
489.718	1	3
490.910	1	9
492.102	1	4
493.294	1	-3
494.486	1	-2
495.678	1	-1
496.870	1	1
498.062	1	0
499.254	1	4
500.446	1	0
501.638	1	10
502.829	1	-8
504.021	1	2
505.213	1	-3
506.404	1	6
507.596	1	16
508.788	1	7
509.979	1	-2
511.171	1	8
512.362	1	6
513.553	1	20
514.745	1	9
515.936	1	0
517.127	1	11
518.319	1	12
519.510	1	-4
520.701	1	14
521.892	1	9
523.083	1	3
524.274	1	-4
525.465	1	16
526.656	1	5
527.847	1	1
529.038	1	-1
530.229	1	12
531.419	1	12
532.610	1	14
533.801	1	8
534.991	1	7
536.182	1	1
537.373	1	8
538.563	1	3
539.754	1	11
540.944	1	11
542.134	1	8
543.325	1	2
544.515	1	6
545.705	1	9
546.896	1	5
548.086	1	2
549.276	1	5
550.466	1	7
551.656	1	5
552.846	1	15
554.036	1	19
555.226	1	2
556.416	1	11
557.606	1	-7
558.796	1	8
559.986	1	17
561.175	1	1
562.365	1	6
563.555	1	14
564.744	1	12
565.934	1	17
567.123	1	4
568.313	1	8
569.502	1	6
570.692	1	10
571.881	1	-1
573.070	1	2
574.260	1	7
575.449	1	-4
576.638	1	17
577.827	1	-7
579.016	1	4
580.205	1	9
581.394	1	0
582.583	1	-1
583.772	1	13
584.961	1	1
586.150	1	3
587.339	1	5
588.528	1	-8
589.717	1	0
590.905	1	0
592.094	1	8
593.283	1	0
594.471	1	-2
595.660	1	4
596.848	1	9
598.037	1	4
599.225	1	-1
600.413	1	12
601.602	1	-2
602.790	1	7
603.978	1	0
605.166	1	6
606.355	1	-14
607.543	1	7
608.731	1	-4
609.919	1	6
611.107	1	8
612.295	1	5
613.483	1	6
614.671	1	5
615.858	1	-9
617.046	1	-3
618.234	1	-1
619.422	1	18
620.609	1	-3
621.797	1	3
622.985	1	-3
624.172	1	-3
625.360	1	8
626.547	1	-4
627.735	1	8
628.922	1	15
630.109	1	-4
631.297	1	5
632.484	1	10
633.671	1	7
634.858	1	-1
636.045	1	-2
637.232	1	8
638.419	1	-6
639.606	1	6
640.793	1	0
641.980	1	16
643.167	1	2
644.354	1	11
645.541	1	7
646.728	1	8
647.914	1	5
649.101	1	4
650.288	1	12
651.474	1	8
652.661	1	3
653.847	1	10
655.034	1	3
656.220	1	-3
657.406	1	0
658.593	1	13
659.779	1	5
660.965	1	1
662.152	1	2
663.338	1	2
664.524	1	12
665.710	1	0
666.896	1	6
668.082	1	0
669.268	1	5
670.454	1	5
671.640	1	16
672.826	1	4
674.011	1	6
675.197	1	2
676.383	1	-9
677.569	1	18
678.754	1	-6
679.940	1	-1
681.125	1	-4
682.311	1	4
683.496	1	-5
684.682	1	12
685.867	1	0
687.053	1	20
688.238	1	13
688.746	1	4