File: Data/GaN_150K_450ms/GaN_sample D_spot15_UVVIS_150 K_200um_450 ms 2x2mm1_326.txt
340.368	1	10
341.565	1	12
342.763	1	10
343.960	1	5
345.157	1	19
346.354	1	-1
347.552	1	12
348.749	1	8
349.946	1	-8
351.143	1	11
352.340	1	12
353.537	1	-6
354.734	1	-1
355.931	1	7
357.127	1	17
358.324	1	-2
359.521	1	2
360.718	1	5
361.914	1	1
363.111	1	0
364.308	1	10
365.504	1	2
366.701	1	7
367.897	1	9
369.093	1	12
370.290	1	21
371.486	1	6
372.682	1	17
373.879	1	0
375.075	1	0
376.271	1	11
377.467	1	8
378.663	1	11
379.859	1	2
381.055	1	-2
382.251	1	-1
383.447	1	3
384.643	1	3
385.839	1	3
387.035	1	7
388.230	1	1
389.426	1	-14
390.622	1	-6
391.817	1	0
393.013	1	-3
394.208	1	-3
395.404	1	1
396.599	1	-2
397.795	1	-3
398.990	1	8
400.186	1	2
401.381	1	0
402.576	1	6
403.771	1	-14
404.967	1	7
406.162	1	0
407.357	1	1
408.552	1	-8
409.747	1	0
410.942	1	9
412.137	1	2
413.332	1	-3
414.526	1	-3
415.721	1	5
416.916	1	-4
418.111	1	-3
419.305	1	3
420.500	1	-1
421.695	1	8
422.889	1	5
424.084	1	-1
425.278	1	2
426.472	1	15
427.667	1	-6
428.861	1	12
430.055	1	5
431.250	1	9
432.444	1	5
433.638	1	8
434.832	1	-5
436.026	1	-2
437.220	1	1
438.414	1	1
439.608	1	-3
440.802	1	3
441.996	1	-8
443.190	1	4
444.384	1	9
445.578	1	-12
446.771	1	6
447.965	1	8
449.159	1	-10
450.352	1	4
451.546	1	10
452.739	1	4
453.933	1	0
455.126	1	-2
456.320	1	1
457.513	1	2
458.706	1	10
459.899	1	3
461.093	1	9
462.286	1	-4
463.479	1	-3
464.672	1	-2
465.865	1	1
467.058	1	-3
468.251	1	-3
469.444	1	1
470.637	1	4
471.830	1	-2
473.023	1	7
474.215	1	1
475.408	1	-4
476.601	1	-1
477.793	1	-4
478.986	1	3
480.179	1	2
481.371	1	-4
482.564	1	9
483.756	1	7
484.948	1	7
486.141	1	7
487.333	1	-5
488.525	1	-7
489.718	1	-11
490.910	1	5
492.102	1	1
493.294	1	-2
494.486	1	0
495.678	1	-2
496.870	1	0
498.062	1	-8
499.254	1	4
500.446	1	-7
501.638	1	-8
502.829	1	-2
504.021	1	6
505.213	1	-2
506.404	1	4
507.596	1	5
508.788	1	7
509.979	1	-2
511.171	1	10
512.362	1	11
513.553	1	2
514.745	1	8
515.936	1	-7
517.127	1	15
518.319	1	-2
519.510	1	-10
520.701	1	0
521.892	1	9
523.083	1	1
524.274	1	8
525.465	1	8
526.656	1	4
527.847	1	-3
529.038	1	-2
530.229	1	9
531.419	1	8
532.610	1	5
533.801	1	4
534.991	1	-2
536.182	1	1
537.373	1	-6
538.563	1	-6
539.754	1	-4
540.944	1	0
542.134	1	0
543.325	1	7
544.515	1	5
545.705	1	1
546.896	1	10
548.086	1	3
549.276	1	6
550.466	1	1
551.656	1	-2
552.846	1	3
554.036	1	3
555.226	1	0
556.416	1	4
557.606	1	-6
558.796	1	-7
559.986	1	-1
561.175	1	-5
562.365	1	-2
563.555	1	5
564.744	1	6
565.934	1	13
567.123	1	-4
568.313	1	6
569.502	1	5
570.692	1	8
571.881	1	1
573.070	1	5
574.260	1	2
575.449	1	-8
576.638	1	9
577.827	1	-3
579.016	1	-1
580.205	1	2
581.394	1	6
582.583	1	6
583.772	1	4
584.961	1	3
586.150	1	8
587.339	1	3
588.528	1	-4
589.717	1	2
590.905	1	1
592.094	1	5
593.283	1	12
594.471	1	-5
595.660	1	8
596.848	1	5
598.037	1	7
599.225	1	3
600.413	1	0
601.602	1	8
602.790	1	0
603.978	1	12
605.166	1	9
606.355	1	-10
607.543	1	5
608.731	1	-9
609.919	1	-8
611.107	1	7
612.295	1	0
613.483	1	1
614.671	1	-2
615.858	1	-7
617.046	1	1
618.234	1	-4
619.422	1	14
620.609	1	-4
621.797	1	0
622.985	1	-4
624.172	1	-6
625.360	1	-2
626.547	1	-4
627.735	1	2
628.922	1	3
630.109	1	-1
631.297	1	1
632.484	1	18
633.671	1	9
634.858	1	-1
636.045	1	-3
637.232	1	5
638.419	1	-8
639.606	1	5
640.793	1	6
641.980	1	6
643.167	1	1
644.354	1	11
645.541	1	-2
646.728	1	0
647.914	1	-1
649.101	1	11
650.288	1	1
651.474	1	3
652.661	1	3
653.847	1	2
655.034	1	-7
656.220	1	7
657.406	1	-2
658.593	1	2
659.779	1	12
660.965	1	9
662.152	1	4
663.338	1	4
664.524	1	6
665.710	1	-5
666.896	1	8
668.082	1	5
669.268	1	-8
670.454	1	6
671.640	1	11
672.826	1	0
674.011	1	8
675.197	1	4
676.383	1	1
677.569	1	9
678.754	1	-1
679.940	1	-8
681.125	1	-1
682.311	1	10
683.496	1	-3
684.682	1	10
685.867	1	5
687.053	1	21
688.238	1	7
688.746	1	-4