File: Data/GaN_150K_450ms/GaN_sample D_spot15_UVVIS_150 K_200um_450 ms 2x2mm1_348.txt
340.368	1	-2
341.565	1	-3
342.763	1	-5
343.960	1	-2
345.157	1	7
346.354	1	-2
347.552	1	8
348.749	1	10
349.946	1	-8
351.143	1	-3
352.340	1	3
353.537	1	-10
354.734	1	6
355.931	1	4
357.127	1	4
358.324	1	-1
359.521	1	9
360.718	1	-1
361.914	1	1
363.111	1	-12
364.308	1	-5
365.504	1	-6
366.701	1	-12
367.897	1	3
369.093	1	7
370.290	1	2
371.486	1	9
372.682	1	-2
373.879	1	4
375.075	1	-12
376.271	1	1
377.467	1	12
378.663	1	8
379.859	1	-1
381.055	1	-1
382.251	1	-7
383.447	1	-1
384.643	1	-6
385.839	1	2
387.035	1	6
388.230	1	-3
389.426	1	-3
390.622	1	-5
391.817	1	-10
393.013	1	-2
394.208	1	2
395.404	1	-5
396.599	1	-4
397.795	1	-2
398.990	1	7
400.186	1	7
401.381	1	-1
402.576	1	-5
403.771	1	-8
404.967	1	-2
406.162	1	-1
407.357	1	7
408.552	1	-7
409.747	1	-1
410.942	1	3
412.137	1	-9
413.332	1	5
414.526	1	-8
415.721	1	-4
416.916	1	0
418.111	1	-1
419.305	1	3
420.500	1	0
421.695	1	5
422.889	1	3
424.084	1	4
425.278	1	1
426.472	1	6
427.667	1	-2
428.861	1	4
430.055	1	8
431.250	1	2
432.444	1	0
433.638	1	-6
434.832	1	-5
436.026	1	-7
437.220	1	2
438.414	1	8
439.608	1	-18
440.802	1	-4
441.996	1	-5
443.190	1	8
444.384	1	4
445.578	1	-3
446.771	1	-6
447.965	1	-2
449.159	1	2
450.352	1	-3
451.546	1	-7
452.739	1	2
453.933	1	-12
455.126	1	4
456.320	1	1
457.513	1	-9
458.706	1	11
459.899	1	1
461.093	1	4
462.286	1	-11
463.479	1	3
464.672	1	-1
465.865	1	-8
467.058	1	4
468.251	1	-8
469.444	1	1
470.637	1	-3
471.830	1	-9
473.023	1	2
474.215	1	-2
475.408	1	8
476.601	1	1
477.793	1	-7
478.986	1	-4
480.179	1	7
481.371	1	-9
482.564	1	3
483.756	1	4
484.948	1	2
486.141	1	-10
487.333	1	-12
488.525	1	-4
489.718	1	-8
490.910	1	-6
492.102	1	3
493.294	1	-8
494.486	1	2
495.678	1	-9
496.870	1	6
498.062	1	0
499.254	1	-4
500.446	1	-3
501.638	1	-4
502.829	1	-3
504.021	1	-1
505.213	1	-13
506.404	1	1
507.596	1	7
508.788	1	4
509.979	1	2
511.171	1	1
512.362	1	-6
513.553	1	2
514.745	1	-7
515.936	1	-7
517.127	1	2
518.319	1	8
519.510	1	-8
520.701	1	-5
521.892	1	4
523.083	1	-6
524.274	1	-4
525.465	1	9
526.656	1	0
527.847	1	-18
529.038	1	6
530.229	1	5
531.419	1	3
532.610	1	1
533.801	1	0
534.991	1	-6
536.182	1	-2
537.373	1	-4
538.563	1	-1
539.754	1	-4
540.944	1	2
542.134	1	-7
543.325	1	0
544.515	1	-7
545.705	1	-4
546.896	1	1
548.086	1	5
549.276	1	10
550.466	1	-5
551.656	1	-4
552.846	1	-7
554.036	1	10
555.226	1	3
556.416	1	4
557.606	1	-13
558.796	1	-4
559.986	1	3
561.175	1	-4
562.365	1	-4
563.555	1	-1
564.744	1	1
565.934	1	10
567.123	1	-4
568.313	1	1
569.502	1	-6
570.692	1	3
571.881	1	-5
573.070	1	7
574.260	1	-1
575.449	1	-5
576.638	1	4
577.827	1	-4
579.016	1	-7
580.205	1	2
581.394	1	-2
582.583	1	3
583.772	1	8
584.961	1	-15
586.150	1	5
587.339	1	0
588.528	1	-3
589.717	1	1
590.905	1	-1
592.094	1	-2
593.283	1	6
594.471	1	-5
595.660	1	2
596.848	1	1
598.037	1	-3
599.225	1	0
600.413	1	-1
601.602	1	10
602.790	1	-4
603.978	1	-7
605.166	1	2
606.355	1	-12
607.543	1	4
608.731	1	-15
609.919	1	-9
611.107	1	7
612.295	1	-4
613.483	1	-1
614.671	1	3
615.858	1	-6
617.046	1	0
618.234	1	-7
619.422	1	14
620.609	1	-14
621.797	1	-2
622.985	1	-8
624.172	1	5
625.360	1	-8
626.547	1	-9
627.735	1	-2
628.922	1	2
630.109	1	-7
631.297	1	-1
632.484	1	6
633.671	1	2
634.858	1	2
636.045	1	-6
637.232	1	-1
638.419	1	-5
639.606	1	3
640.793	1	2
641.980	1	3
643.167	1	-2
644.354	1	8
645.541	1	-2
646.728	1	-6
647.914	1	2
649.101	1	-6
650.288	1	6
651.474	1	-2
652.661	1	2
653.847	1	-2
655.034	1	-11
656.220	1	2
657.406	1	-10
658.593	1	-5
659.779	1	2
660.965	1	3
662.152	1	-1
663.338	1	-7
664.524	1	3
665.710	1	0
666.896	1	3
668.082	1	3
669.268	1	-1
670.454	1	9
671.640	1	4
672.826	1	-5
674.011	1	5
675.197	1	-7
676.383	1	-4
677.569	1	13
678.754	1	-1
679.940	1	-5
681.125	1	-5
682.311	1	1
683.496	1	-4
684.682	1	-6
685.867	1	-11
687.053	1	11
688.238	1	-4
688.746	1	-9