File: Data/GaN_150K_450ms/GaN_sample D_spot15_UVVIS_150 K_200um_450 ms 2x2mm1_111.txt
340.368	1	3
341.565	1	9
342.763	1	3
343.960	1	10
345.157	1	8
346.354	1	5
347.552	1	14
348.749	1	14
349.946	1	9
351.143	1	10
352.340	1	19
353.537	1	2
354.734	1	11
355.931	1	8
357.127	1	21
358.324	1	8
359.521	1	26
360.718	1	20
361.914	1	32
363.111	1	29
364.308	1	39
365.504	1	52
366.701	1	69
367.897	1	77
369.093	1	77
370.290	1	71
371.486	1	63
372.682	1	46
373.879	1	42
375.075	1	32
376.271	1	24
377.467	1	37
378.663	1	15
379.859	1	11
381.055	1	11
382.251	1	5
383.447	1	8
384.643	1	15
385.839	1	10
387.035	1	15
388.230	1	10
389.426	1	7
390.622	1	5
391.817	1	4
393.013	1	12
394.208	1	8
395.404	1	9
396.599	1	12
397.795	1	12
398.990	1	15
400.186	1	12
401.381	1	13
402.576	1	9
403.771	1	1
404.967	1	8
406.162	1	3
407.357	1	14
408.552	1	17
409.747	1	4
410.942	1	22
412.137	1	2
413.332	1	18
414.526	1	9
415.721	1	8
416.916	1	13
418.111	1	23
419.305	1	12
420.500	1	11
421.695	1	19
422.889	1	17
424.084	1	9
425.278	1	14
426.472	1	21
427.667	1	15
428.861	1	21
430.055	1	20
431.250	1	15
432.444	1	17
433.638	1	14
434.832	1	6
436.026	1	5
437.220	1	17
438.414	1	19
439.608	1	5
440.802	1	5
441.996	1	9
443.190	1	22
444.384	1	14
445.578	1	2
446.771	1	1
447.965	1	12
449.159	1	3
450.352	1	6
451.546	1	14
452.739	1	3
453.933	1	6
455.126	1	8
456.320	1	12
457.513	1	5
458.706	1	15
459.899	1	10
461.093	1	9
462.286	1	-1
463.479	1	5
464.672	1	9
465.865	1	7
467.058	1	8
468.251	1	1
469.444	1	15
470.637	1	13
471.830	1	9
473.023	1	10
474.215	1	7
475.408	1	6
476.601	1	11
477.793	1	5
478.986	1	10
480.179	1	6
481.371	1	7
482.564	1	12
483.756	1	12
484.948	1	10
486.141	1	11
487.333	1	6
488.525	1	11
489.718	1	-11
490.910	1	10
492.102	1	4
493.294	1	4
494.486	1	6
495.678	1	8
496.870	1	19
498.062	1	6
499.254	1	11
500.446	1	2
501.638	1	17
502.829	1	2
504.021	1	8
505.213	1	3
506.404	1	24
507.596	1	18
508.788	1	17
509.979	1	14
511.171	1	21
512.362	1	19
513.553	1	24
514.745	1	18
515.936	1	21
517.127	1	21
518.319	1	23
519.510	1	4
520.701	1	17
521.892	1	15
523.083	1	15
524.274	1	16
525.465	1	24
526.656	1	16
527.847	1	12
529.038	1	23
530.229	1	24
531.419	1	6
532.610	1	20
533.801	1	20
534.991	1	20
536.182	1	15
537.373	1	18
538.563	1	7
539.754	1	13
540.944	1	18
542.134	1	17
543.325	1	16
544.515	1	17
545.705	1	9
546.896	1	16
548.086	1	28
549.276	1	14
550.466	1	12
551.656	1	13
552.846	1	16
554.036	1	19
555.226	1	19
556.416	1	13
557.606	1	5
558.796	1	20
559.986	1	18
561.175	1	15
562.365	1	9
563.555	1	12
564.744	1	19
565.934	1	23
567.123	1	10
568.313	1	12
569.502	1	10
570.692	1	19
571.881	1	9
573.070	1	9
574.260	1	18
575.449	1	7
576.638	1	14
577.827	1	8
579.016	1	3
580.205	1	14
581.394	1	11
582.583	1	12
583.772	1	17
584.961	1	1
586.150	1	3
587.339	1	9
588.528	1	6
589.717	1	5
590.905	1	4
592.094	1	19
593.283	1	6
594.471	1	4
595.660	1	13
596.848	1	13
598.037	1	4
599.225	1	2
600.413	1	7
601.602	1	1
602.790	1	10
603.978	1	3
605.166	1	1
606.355	1	-4
607.543	1	10
608.731	1	-4
609.919	1	1
611.107	1	14
612.295	1	12
613.483	1	1
614.671	1	9
615.858	1	1
617.046	1	4
618.234	1	2
619.422	1	18
620.609	1	0
621.797	1	3
622.985	1	11
624.172	1	2
625.360	1	4
626.547	1	0
627.735	1	1
628.922	1	9
630.109	1	-1
631.297	1	5
632.484	1	10
633.671	1	6
634.858	1	9
636.045	1	-1
637.232	1	11
638.419	1	4
639.606	1	9
640.793	1	6
641.980	1	11
643.167	1	4
644.354	1	6
645.541	1	1
646.728	1	6
647.914	1	-4
649.101	1	0
650.288	1	7
651.474	1	14
652.661	1	16
653.847	1	4
655.034	1	-3
656.220	1	9
657.406	1	-4
658.593	1	17
659.779	1	7
660.965	1	8
662.152	1	0
663.338	1	5
664.524	1	15
665.710	1	9
666.896	1	1
668.082	1	2
669.268	1	7
670.454	1	12
671.640	1	12
672.826	1	-5
674.011	1	12
675.197	1	8
676.383	1	-11
677.569	1	7
678.754	1	5
679.940	1	-7
681.125	1	1
682.311	1	7
683.496	1	8
684.682	1	14
685.867	1	2
687.053	1	21
688.238	1	14
688.746	1	7