File: Data/GaN_150K_450ms/GaN_sample D_spot15_UVVIS_150 K_200um_450 ms 2x2mm1_80.txt
340.368	1	7
341.565	1	6
342.763	1	8
343.960	1	8
345.157	1	10
346.354	1	17
347.552	1	21
348.749	1	13
349.946	1	2
351.143	1	4
352.340	1	11
353.537	1	1
354.734	1	16
355.931	1	27
357.127	1	25
358.324	1	25
359.521	1	33
360.718	1	33
361.914	1	52
363.111	1	59
364.308	1	92
365.504	1	108
366.701	1	150
367.897	1	176
369.093	1	177
370.290	1	154
371.486	1	112
372.682	1	102
373.879	1	80
375.075	1	58
376.271	1	70
377.467	1	54
378.663	1	45
379.859	1	43
381.055	1	34
382.251	1	25
383.447	1	29
384.643	1	33
385.839	1	21
387.035	1	29
388.230	1	22
389.426	1	-2
390.622	1	10
391.817	1	1
393.013	1	22
394.208	1	17
395.404	1	16
396.599	1	15
397.795	1	9
398.990	1	24
400.186	1	12
401.381	1	12
402.576	1	20
403.771	1	5
404.967	1	18
406.162	1	10
407.357	1	20
408.552	1	10
409.747	1	19
410.942	1	24
412.137	1	17
413.332	1	26
414.526	1	7
415.721	1	13
416.916	1	7
418.111	1	11
419.305	1	17
420.500	1	18
421.695	1	18
422.889	1	16
424.084	1	20
425.278	1	21
426.472	1	21
427.667	1	11
428.861	1	23
430.055	1	14
431.250	1	23
432.444	1	14
433.638	1	14
434.832	1	10
436.026	1	12
437.220	1	13
438.414	1	25
439.608	1	7
440.802	1	17
441.996	1	10
443.190	1	16
444.384	1	24
445.578	1	7
446.771	1	8
447.965	1	13
449.159	1	1
450.352	1	13
451.546	1	6
452.739	1	13
453.933	1	7
455.126	1	18
456.320	1	24
457.513	1	9
458.706	1	15
459.899	1	8
461.093	1	13
462.286	1	2
463.479	1	7
464.672	1	2
465.865	1	16
467.058	1	16
468.251	1	-1
469.444	1	18
470.637	1	13
471.830	1	11
473.023	1	20
474.215	1	13
475.408	1	14
476.601	1	5
477.793	1	3
478.986	1	12
480.179	1	15
481.371	1	-1
482.564	1	10
483.756	1	12
484.948	1	20
486.141	1	14
487.333	1	13
488.525	1	9
489.718	1	10
490.910	1	22
492.102	1	18
493.294	1	11
494.486	1	15
495.678	1	26
496.870	1	22
498.062	1	24
499.254	1	18
500.446	1	11
501.638	1	26
502.829	1	27
504.021	1	29
505.213	1	25
506.404	1	28
507.596	1	42
508.788	1	36
509.979	1	27
511.171	1	42
512.362	1	40
513.553	1	43
514.745	1	47
515.936	1	38
517.127	1	39
518.319	1	36
519.510	1	38
520.701	1	47
521.892	1	46
523.083	1	41
524.274	1	38
525.465	1	48
526.656	1	54
527.847	1	39
529.038	1	39
530.229	1	44
531.419	1	42
532.610	1	61
533.801	1	38
534.991	1	38
536.182	1	32
537.373	1	35
538.563	1	43
539.754	1	31
540.944	1	38
542.134	1	46
543.325	1	48
544.515	1	38
545.705	1	40
546.896	1	43
548.086	1	42
549.276	1	43
550.466	1	35
551.656	1	31
552.846	1	39
554.036	1	44
555.226	1	38
556.416	1	42
557.606	1	28
558.796	1	43
559.986	1	36
561.175	1	27
562.365	1	34
563.555	1	18
564.744	1	33
565.934	1	38
567.123	1	22
568.313	1	24
569.502	1	30
570.692	1	23
571.881	1	12
573.070	1	24
574.260	1	24
575.449	1	13
576.638	1	26
577.827	1	27
579.016	1	20
580.205	1	11
581.394	1	12
582.583	1	24
583.772	1	27
584.961	1	9
586.150	1	15
587.339	1	19
588.528	1	9
589.717	1	19
590.905	1	10
592.094	1	18
593.283	1	9
594.471	1	4
595.660	1	4
596.848	1	16
598.037	1	11
599.225	1	8
600.413	1	16
601.602	1	8
602.790	1	8
603.978	1	19
605.166	1	20
606.355	1	-3
607.543	1	9
608.731	1	4
609.919	1	-3
611.107	1	17
612.295	1	6
613.483	1	15
614.671	1	17
615.858	1	9
617.046	1	12
618.234	1	1
619.422	1	25
620.609	1	3
621.797	1	6
622.985	1	11
624.172	1	7
625.360	1	11
626.547	1	9
627.735	1	17
628.922	1	14
630.109	1	3
631.297	1	9
632.484	1	12
633.671	1	10
634.858	1	11
636.045	1	-9
637.232	1	16
638.419	1	8
639.606	1	17
640.793	1	9
641.980	1	14
643.167	1	6
644.354	1	9
645.541	1	3
646.728	1	4
647.914	1	14
649.101	1	2
650.288	1	10
651.474	1	12
652.661	1	13
653.847	1	4
655.034	1	7
656.220	1	11
657.406	1	-6
658.593	1	15
659.779	1	8
660.965	1	4
662.152	1	5
663.338	1	3
664.524	1	11
665.710	1	18
666.896	1	12
668.082	1	8
669.268	1	3
670.454	1	11
671.640	1	11
672.826	1	3
674.011	1	14
675.197	1	8
676.383	1	4
677.569	1	11
678.754	1	6
679.940	1	5
681.125	1	-2
682.311	1	5
683.496	1	6
684.682	1	15
685.867	1	7
687.053	1	22
688.238	1	17
688.746	1	13