File: Data/GaN_150K_450ms/GaN_sample D_spot15_UVVIS_150 K_200um_450 ms 2x2mm1_201.txt
340.368	1	7
341.565	1	11
342.763	1	11
343.960	1	5
345.157	1	13
346.354	1	9
347.552	1	14
348.749	1	14
349.946	1	6
351.143	1	6
352.340	1	7
353.537	1	-3
354.734	1	5
355.931	1	10
357.127	1	16
358.324	1	1
359.521	1	9
360.718	1	10
361.914	1	12
363.111	1	1
364.308	1	18
365.504	1	13
366.701	1	17
367.897	1	13
369.093	1	15
370.290	1	20
371.486	1	24
372.682	1	27
373.879	1	12
375.075	1	10
376.271	1	2
377.467	1	14
378.663	1	4
379.859	1	6
381.055	1	5
382.251	1	2
383.447	1	11
384.643	1	8
385.839	1	10
387.035	1	16
388.230	1	7
389.426	1	5
390.622	1	-5
391.817	1	2
393.013	1	10
394.208	1	1
395.404	1	5
396.599	1	7
397.795	1	8
398.990	1	13
400.186	1	10
401.381	1	3
402.576	1	5
403.771	1	-5
404.967	1	6
406.162	1	-6
407.357	1	2
408.552	1	5
409.747	1	5
410.942	1	3
412.137	1	5
413.332	1	7
414.526	1	2
415.721	1	0
416.916	1	1
418.111	1	14
419.305	1	12
420.500	1	6
421.695	1	15
422.889	1	6
424.084	1	9
425.278	1	0
426.472	1	7
427.667	1	3
428.861	1	14
430.055	1	4
431.250	1	5
432.444	1	6
433.638	1	5
434.832	1	-2
436.026	1	10
437.220	1	11
438.414	1	14
439.608	1	0
440.802	1	14
441.996	1	-9
443.190	1	8
444.384	1	10
445.578	1	3
446.771	1	9
447.965	1	6
449.159	1	1
450.352	1	4
451.546	1	-2
452.739	1	4
453.933	1	-9
455.126	1	0
456.320	1	2
457.513	1	3
458.706	1	8
459.899	1	-4
461.093	1	11
462.286	1	4
463.479	1	1
464.672	1	8
465.865	1	0
467.058	1	1
468.251	1	0
469.444	1	5
470.637	1	4
471.830	1	9
473.023	1	3
474.215	1	-1
475.408	1	2
476.601	1	-3
477.793	1	1
478.986	1	8
480.179	1	6
481.371	1	-1
482.564	1	4
483.756	1	9
484.948	1	8
486.141	1	5
487.333	1	0
488.525	1	-2
489.718	1	4
490.910	1	2
492.102	1	2
493.294	1	-7
494.486	1	11
495.678	1	0
496.870	1	-2
498.062	1	7
499.254	1	-1
500.446	1	-5
501.638	1	7
502.829	1	9
504.021	1	6
505.213	1	6
506.404	1	10
507.596	1	10
508.788	1	9
509.979	1	3
511.171	1	8
512.362	1	13
513.553	1	2
514.745	1	-2
515.936	1	3
517.127	1	17
518.319	1	-2
519.510	1	1
520.701	1	0
521.892	1	0
523.083	1	10
524.274	1	2
525.465	1	2
526.656	1	12
527.847	1	5
529.038	1	4
530.229	1	14
531.419	1	0
532.610	1	8
533.801	1	9
534.991	1	2
536.182	1	3
537.373	1	8
538.563	1	8
539.754	1	5
540.944	1	4
542.134	1	-5
543.325	1	9
544.515	1	8
545.705	1	8
546.896	1	3
548.086	1	8
549.276	1	4
550.466	1	10
551.656	1	13
552.846	1	6
554.036	1	14
555.226	1	12
556.416	1	15
557.606	1	1
558.796	1	2
559.986	1	15
561.175	1	-3
562.365	1	3
563.555	1	12
564.744	1	11
565.934	1	12
567.123	1	0
568.313	1	-2
569.502	1	2
570.692	1	1
571.881	1	-4
573.070	1	4
574.260	1	3
575.449	1	3
576.638	1	7
577.827	1	-7
579.016	1	2
580.205	1	5
581.394	1	7
582.583	1	3
583.772	1	17
584.961	1	-6
586.150	1	1
587.339	1	6
588.528	1	-1
589.717	1	5
590.905	1	-1
592.094	1	7
593.283	1	2
594.471	1	-2
595.660	1	-2
596.848	1	6
598.037	1	-3
599.225	1	5
600.413	1	0
601.602	1	7
602.790	1	3
603.978	1	-3
605.166	1	7
606.355	1	-12
607.543	1	1
608.731	1	-10
609.919	1	-11
611.107	1	12
612.295	1	-2
613.483	1	4
614.671	1	3
615.858	1	-10
617.046	1	8
618.234	1	3
619.422	1	12
620.609	1	-3
621.797	1	5
622.985	1	1
624.172	1	2
625.360	1	5
626.547	1	-5
627.735	1	5
628.922	1	10
630.109	1	-7
631.297	1	7
632.484	1	12
633.671	1	13
634.858	1	8
636.045	1	-5
637.232	1	1
638.419	1	-7
639.606	1	15
640.793	1	6
641.980	1	6
643.167	1	3
644.354	1	11
645.541	1	2
646.728	1	5
647.914	1	-1
649.101	1	0
650.288	1	10
651.474	1	12
652.661	1	3
653.847	1	0
655.034	1	-8
656.220	1	5
657.406	1	-2
658.593	1	4
659.779	1	6
660.965	1	12
662.152	1	-1
663.338	1	-12
664.524	1	7
665.710	1	3
666.896	1	9
668.082	1	0
669.268	1	-2
670.454	1	11
671.640	1	5
672.826	1	1
674.011	1	2
675.197	1	11
676.383	1	5
677.569	1	9
678.754	1	3
679.940	1	5
681.125	1	3
682.311	1	6
683.496	1	-5
684.682	1	8
685.867	1	2
687.053	1	15
688.238	1	0
688.746	1	3