File: Data/GaN_150K_450ms/GaN_sample D_spot15_UVVIS_150 K_200um_450 ms 2x2mm1_149.txt
340.368	1	-2
341.565	1	4
342.763	1	7
343.960	1	2
345.157	1	8
346.354	1	6
347.552	1	16
348.749	1	9
349.946	1	-1
351.143	1	9
352.340	1	15
353.537	1	0
354.734	1	1
355.931	1	8
357.127	1	20
358.324	1	13
359.521	1	11
360.718	1	23
361.914	1	13
363.111	1	11
364.308	1	26
365.504	1	23
366.701	1	35
367.897	1	41
369.093	1	41
370.290	1	40
371.486	1	45
372.682	1	33
373.879	1	18
375.075	1	17
376.271	1	16
377.467	1	26
378.663	1	18
379.859	1	5
381.055	1	5
382.251	1	7
383.447	1	18
384.643	1	8
385.839	1	7
387.035	1	5
388.230	1	3
389.426	1	3
390.622	1	-2
391.817	1	-2
393.013	1	7
394.208	1	8
395.404	1	10
396.599	1	11
397.795	1	1
398.990	1	12
400.186	1	7
401.381	1	10
402.576	1	13
403.771	1	0
404.967	1	7
406.162	1	1
407.357	1	9
408.552	1	3
409.747	1	6
410.942	1	18
412.137	1	-2
413.332	1	7
414.526	1	5
415.721	1	14
416.916	1	12
418.111	1	13
419.305	1	10
420.500	1	13
421.695	1	9
422.889	1	11
424.084	1	14
425.278	1	9
426.472	1	12
427.667	1	11
428.861	1	8
430.055	1	18
431.250	1	21
432.444	1	17
433.638	1	18
434.832	1	-3
436.026	1	11
437.220	1	8
438.414	1	24
439.608	1	0
440.802	1	6
441.996	1	14
443.190	1	8
444.384	1	13
445.578	1	7
446.771	1	10
447.965	1	3
449.159	1	6
450.352	1	2
451.546	1	-2
452.739	1	5
453.933	1	-5
455.126	1	3
456.320	1	8
457.513	1	6
458.706	1	9
459.899	1	4
461.093	1	7
462.286	1	8
463.479	1	-3
464.672	1	13
465.865	1	6
467.058	1	9
468.251	1	1
469.444	1	-3
470.637	1	14
471.830	1	12
473.023	1	8
474.215	1	6
475.408	1	14
476.601	1	7
477.793	1	1
478.986	1	12
480.179	1	11
481.371	1	-7
482.564	1	5
483.756	1	3
484.948	1	5
486.141	1	9
487.333	1	-5
488.525	1	0
489.718	1	-4
490.910	1	6
492.102	1	12
493.294	1	-7
494.486	1	8
495.678	1	7
496.870	1	8
498.062	1	4
499.254	1	-1
500.446	1	8
501.638	1	8
502.829	1	4
504.021	1	3
505.213	1	6
506.404	1	8
507.596	1	12
508.788	1	18
509.979	1	8
511.171	1	8
512.362	1	14
513.553	1	6
514.745	1	8
515.936	1	2
517.127	1	19
518.319	1	4
519.510	1	10
520.701	1	12
521.892	1	10
523.083	1	7
524.274	1	7
525.465	1	15
526.656	1	13
527.847	1	3
529.038	1	10
530.229	1	4
531.419	1	8
532.610	1	11
533.801	1	13
534.991	1	8
536.182	1	5
537.373	1	6
538.563	1	2
539.754	1	7
540.944	1	7
542.134	1	11
543.325	1	16
544.515	1	9
545.705	1	9
546.896	1	10
548.086	1	16
549.276	1	15
550.466	1	3
551.656	1	10
552.846	1	14
554.036	1	20
555.226	1	10
556.416	1	13
557.606	1	2
558.796	1	15
559.986	1	9
561.175	1	5
562.365	1	-3
563.555	1	11
564.744	1	15
565.934	1	12
567.123	1	-1
568.313	1	2
569.502	1	11
570.692	1	10
571.881	1	-1
573.070	1	10
574.260	1	11
575.449	1	-7
576.638	1	14
577.827	1	-1
579.016	1	13
580.205	1	4
581.394	1	2
582.583	1	0
583.772	1	4
584.961	1	1
586.150	1	7
587.339	1	4
588.528	1	-2
589.717	1	10
590.905	1	6
592.094	1	18
593.283	1	11
594.471	1	3
595.660	1	6
596.848	1	5
598.037	1	-8
599.225	1	8
600.413	1	6
601.602	1	5
602.790	1	9
603.978	1	-4
605.166	1	0
606.355	1	1
607.543	1	11
608.731	1	-7
609.919	1	-4
611.107	1	8
612.295	1	6
613.483	1	6
614.671	1	3
615.858	1	-7
617.046	1	5
618.234	1	0
619.422	1	14
620.609	1	-5
621.797	1	2
622.985	1	5
624.172	1	8
625.360	1	0
626.547	1	-2
627.735	1	6
628.922	1	5
630.109	1	3
631.297	1	11
632.484	1	14
633.671	1	11
634.858	1	4
636.045	1	0
637.232	1	3
638.419	1	3
639.606	1	9
640.793	1	5
641.980	1	11
643.167	1	5
644.354	1	9
645.541	1	8
646.728	1	11
647.914	1	6
649.101	1	-9
650.288	1	9
651.474	1	4
652.661	1	7
653.847	1	2
655.034	1	7
656.220	1	13
657.406	1	-2
658.593	1	8
659.779	1	6
660.965	1	8
662.152	1	7
663.338	1	-1
664.524	1	10
665.710	1	8
666.896	1	6
668.082	1	6
669.268	1	-6
670.454	1	8
671.640	1	8
672.826	1	13
674.011	1	10
675.197	1	4
676.383	1	5
677.569	1	14
678.754	1	6
679.940	1	-2
681.125	1	-2
682.311	1	11
683.496	1	-2
684.682	1	11
685.867	1	2
687.053	1	22
688.238	1	10
688.746	1	1