File: Data/GaN_150K_450ms/GaN_sample D_spot15_UVVIS_150 K_200um_450 ms 2x2mm1_53.txt
340.368	1	6
341.565	1	10
342.763	1	8
343.960	1	0
345.157	1	21
346.354	1	5
347.552	1	20
348.749	1	10
349.946	1	9
351.143	1	8
352.340	1	18
353.537	1	5
354.734	1	17
355.931	1	32
357.127	1	40
358.324	1	43
359.521	1	62
360.718	1	88
361.914	1	139
363.111	1	199
364.308	1	359
365.504	1	562
366.701	1	822
367.897	1	992
369.093	1	943
370.290	1	756
371.486	1	596
372.682	1	457
373.879	1	375
375.075	1	309
376.271	1	248
377.467	1	203
378.663	1	165
379.859	1	132
381.055	1	118
382.251	1	108
383.447	1	119
384.643	1	134
385.839	1	131
387.035	1	117
388.230	1	111
389.426	1	97
390.622	1	83
391.817	1	76
393.013	1	77
394.208	1	74
395.404	1	73
396.599	1	84
397.795	1	74
398.990	1	82
400.186	1	59
401.381	1	65
402.576	1	60
403.771	1	48
404.967	1	65
406.162	1	49
407.357	1	65
408.552	1	46
409.747	1	45
410.942	1	61
412.137	1	42
413.332	1	47
414.526	1	35
415.721	1	38
416.916	1	42
418.111	1	43
419.305	1	48
420.500	1	26
421.695	1	42
422.889	1	37
424.084	1	27
425.278	1	31
426.472	1	45
427.667	1	39
428.861	1	40
430.055	1	45
431.250	1	37
432.444	1	22
433.638	1	39
434.832	1	13
436.026	1	13
437.220	1	44
438.414	1	24
439.608	1	14
440.802	1	28
441.996	1	28
443.190	1	18
444.384	1	32
445.578	1	27
446.771	1	25
447.965	1	23
449.159	1	17
450.352	1	25
451.546	1	18
452.739	1	22
453.933	1	15
455.126	1	24
456.320	1	41
457.513	1	13
458.706	1	17
459.899	1	24
461.093	1	24
462.286	1	14
463.479	1	19
464.672	1	26
465.865	1	21
467.058	1	28
468.251	1	18
469.444	1	33
470.637	1	17
471.830	1	27
473.023	1	25
474.215	1	29
475.408	1	20
476.601	1	32
477.793	1	29
478.986	1	44
480.179	1	39
481.371	1	30
482.564	1	32
483.756	1	43
484.948	1	42
486.141	1	54
487.333	1	44
488.525	1	48
489.718	1	45
490.910	1	69
492.102	1	63
493.294	1	56
494.486	1	70
495.678	1	70
496.870	1	79
498.062	1	78
499.254	1	80
500.446	1	83
501.638	1	99
502.829	1	101
504.021	1	105
505.213	1	116
506.404	1	124
507.596	1	127
508.788	1	122
509.979	1	130
511.171	1	134
512.362	1	141
513.553	1	140
514.745	1	143
515.936	1	153
517.127	1	148
518.319	1	158
519.510	1	139
520.701	1	171
521.892	1	169
523.083	1	178
524.274	1	168
525.465	1	192
526.656	1	187
527.847	1	170
529.038	1	189
530.229	1	205
531.419	1	208
532.610	1	218
533.801	1	193
534.991	1	204
536.182	1	177
537.373	1	173
538.563	1	167
539.754	1	178
540.944	1	177
542.134	1	166
543.325	1	174
544.515	1	176
545.705	1	160
546.896	1	179
548.086	1	170
549.276	1	176
550.466	1	167
551.656	1	162
552.846	1	160
554.036	1	174
555.226	1	137
556.416	1	147
557.606	1	131
558.796	1	146
559.986	1	143
561.175	1	132
562.365	1	145
563.555	1	144
564.744	1	135
565.934	1	133
567.123	1	119
568.313	1	111
569.502	1	118
570.692	1	110
571.881	1	100
573.070	1	112
574.260	1	111
575.449	1	81
576.638	1	97
577.827	1	89
579.016	1	103
580.205	1	100
581.394	1	103
582.583	1	93
583.772	1	97
584.961	1	79
586.150	1	85
587.339	1	83
588.528	1	83
589.717	1	77
590.905	1	75
592.094	1	82
593.283	1	75
594.471	1	62
595.660	1	79
596.848	1	73
598.037	1	69
599.225	1	70
600.413	1	71
601.602	1	74
602.790	1	85
603.978	1	71
605.166	1	69
606.355	1	52
607.543	1	63
608.731	1	57
609.919	1	62
611.107	1	64
612.295	1	61
613.483	1	56
614.671	1	67
615.858	1	41
617.046	1	52
618.234	1	45
619.422	1	65
620.609	1	49
621.797	1	48
622.985	1	53
624.172	1	46
625.360	1	47
626.547	1	46
627.735	1	46
628.922	1	50
630.109	1	45
631.297	1	49
632.484	1	49
633.671	1	54
634.858	1	44
636.045	1	39
637.232	1	49
638.419	1	35
639.606	1	51
640.793	1	37
641.980	1	51
643.167	1	32
644.354	1	44
645.541	1	38
646.728	1	40
647.914	1	39
649.101	1	28
650.288	1	40
651.474	1	53
652.661	1	40
653.847	1	46
655.034	1	27
656.220	1	33
657.406	1	38
658.593	1	41
659.779	1	46
660.965	1	29
662.152	1	38
663.338	1	36
664.524	1	47
665.710	1	32
666.896	1	36
668.082	1	27
669.268	1	38
670.454	1	34
671.640	1	38
672.826	1	34
674.011	1	36
675.197	1	31
676.383	1	39
677.569	1	44
678.754	1	36
679.940	1	34
681.125	1	38
682.311	1	33
683.496	1	32
684.682	1	38
685.867	1	26
687.053	1	43
688.238	1	44
688.746	1	40