File: Data/GaN_150K_450ms/GaN_sample D_spot15_UVVIS_150 K_200um_450 ms 2x2mm1_52.txt
340.368	1	3
341.565	1	1
342.763	1	9
343.960	1	10
345.157	1	18
346.354	1	5
347.552	1	18
348.749	1	21
349.946	1	7
351.143	1	9
352.340	1	14
353.537	1	1
354.734	1	19
355.931	1	27
357.127	1	42
358.324	1	54
359.521	1	74
360.718	1	89
361.914	1	146
363.111	1	240
364.308	1	407
365.504	1	662
366.701	1	957
367.897	1	1150
369.093	1	1086
370.290	1	886
371.486	1	678
372.682	1	522
373.879	1	427
375.075	1	357
376.271	1	285
377.467	1	252
378.663	1	191
379.859	1	150
381.055	1	143
382.251	1	136
383.447	1	157
384.643	1	163
385.839	1	155
387.035	1	156
388.230	1	127
389.426	1	124
390.622	1	116
391.817	1	110
393.013	1	112
394.208	1	99
395.404	1	105
396.599	1	105
397.795	1	105
398.990	1	118
400.186	1	86
401.381	1	87
402.576	1	72
403.771	1	67
404.967	1	72
406.162	1	69
407.357	1	63
408.552	1	56
409.747	1	67
410.942	1	67
412.137	1	63
413.332	1	54
414.526	1	39
415.721	1	54
416.916	1	46
418.111	1	53
419.305	1	47
420.500	1	46
421.695	1	44
422.889	1	48
424.084	1	41
425.278	1	34
426.472	1	48
427.667	1	43
428.861	1	38
430.055	1	45
431.250	1	44
432.444	1	43
433.638	1	34
434.832	1	30
436.026	1	23
437.220	1	31
438.414	1	40
439.608	1	19
440.802	1	35
441.996	1	27
443.190	1	31
444.384	1	40
445.578	1	26
446.771	1	16
447.965	1	27
449.159	1	18
450.352	1	25
451.546	1	34
452.739	1	28
453.933	1	32
455.126	1	29
456.320	1	22
457.513	1	27
458.706	1	38
459.899	1	20
461.093	1	29
462.286	1	23
463.479	1	20
464.672	1	32
465.865	1	23
467.058	1	33
468.251	1	27
469.444	1	22
470.637	1	22
471.830	1	25
473.023	1	38
474.215	1	26
475.408	1	25
476.601	1	28
477.793	1	26
478.986	1	43
480.179	1	39
481.371	1	35
482.564	1	48
483.756	1	43
484.948	1	35
486.141	1	50
487.333	1	42
488.525	1	50
489.718	1	53
490.910	1	63
492.102	1	67
493.294	1	43
494.486	1	73
495.678	1	78
496.870	1	86
498.062	1	86
499.254	1	96
500.446	1	95
501.638	1	116
502.829	1	114
504.021	1	130
505.213	1	124
506.404	1	130
507.596	1	146
508.788	1	140
509.979	1	141
511.171	1	150
512.362	1	168
513.553	1	175
514.745	1	171
515.936	1	168
517.127	1	198
518.319	1	193
519.510	1	183
520.701	1	209
521.892	1	203
523.083	1	203
524.274	1	202
525.465	1	212
526.656	1	196
527.847	1	212
529.038	1	222
530.229	1	238
531.419	1	228
532.610	1	244
533.801	1	241
534.991	1	211
536.182	1	225
537.373	1	207
538.563	1	195
539.754	1	194
540.944	1	204
542.134	1	202
543.325	1	201
544.515	1	197
545.705	1	209
546.896	1	203
548.086	1	199
549.276	1	209
550.466	1	198
551.656	1	191
552.846	1	202
554.036	1	187
555.226	1	179
556.416	1	168
557.606	1	161
558.796	1	159
559.986	1	168
561.175	1	147
562.365	1	158
563.555	1	156
564.744	1	162
565.934	1	164
567.123	1	145
568.313	1	148
569.502	1	144
570.692	1	134
571.881	1	142
573.070	1	131
574.260	1	135
575.449	1	127
576.638	1	139
577.827	1	119
579.016	1	112
580.205	1	109
581.394	1	122
582.583	1	127
583.772	1	126
584.961	1	108
586.150	1	108
587.339	1	101
588.528	1	101
589.717	1	97
590.905	1	97
592.094	1	103
593.283	1	94
594.471	1	81
595.660	1	99
596.848	1	84
598.037	1	77
599.225	1	90
600.413	1	87
601.602	1	91
602.790	1	88
603.978	1	84
605.166	1	84
606.355	1	79
607.543	1	86
608.731	1	81
609.919	1	65
611.107	1	95
612.295	1	72
613.483	1	69
614.671	1	77
615.858	1	58
617.046	1	74
618.234	1	58
619.422	1	76
620.609	1	59
621.797	1	72
622.985	1	58
624.172	1	59
625.360	1	59
626.547	1	56
627.735	1	68
628.922	1	67
630.109	1	51
631.297	1	62
632.484	1	68
633.671	1	64
634.858	1	64
636.045	1	46
637.232	1	70
638.419	1	52
639.606	1	55
640.793	1	59
641.980	1	53
643.167	1	57
644.354	1	67
645.541	1	57
646.728	1	61
647.914	1	44
649.101	1	48
650.288	1	62
651.474	1	59
652.661	1	51
653.847	1	48
655.034	1	39
656.220	1	40
657.406	1	47
658.593	1	48
659.779	1	47
660.965	1	51
662.152	1	41
663.338	1	42
664.524	1	47
665.710	1	45
666.896	1	39
668.082	1	36
669.268	1	39
670.454	1	42
671.640	1	44
672.826	1	39
674.011	1	40
675.197	1	45
676.383	1	38
677.569	1	53
678.754	1	40
679.940	1	44
681.125	1	35
682.311	1	46
683.496	1	36
684.682	1	48
685.867	1	43
687.053	1	56
688.238	1	54
688.746	1	52