File: Data/GaN_150K_450ms/GaN_sample D_spot15_UVVIS_150 K_200um_450 ms 2x2mm1_113.txt
340.368	1	8
341.565	1	8
342.763	1	1
343.960	1	2
345.157	1	12
346.354	1	8
347.552	1	17
348.749	1	25
349.946	1	2
351.143	1	8
352.340	1	14
353.537	1	-3
354.734	1	8
355.931	1	16
357.127	1	8
358.324	1	9
359.521	1	28
360.718	1	11
361.914	1	33
363.111	1	30
364.308	1	42
365.504	1	47
366.701	1	78
367.897	1	77
369.093	1	84
370.290	1	66
371.486	1	54
372.682	1	49
373.879	1	37
375.075	1	33
376.271	1	36
377.467	1	38
378.663	1	31
379.859	1	19
381.055	1	16
382.251	1	14
383.447	1	13
384.643	1	14
385.839	1	17
387.035	1	19
388.230	1	10
389.426	1	0
390.622	1	9
391.817	1	4
393.013	1	18
394.208	1	7
395.404	1	10
396.599	1	2
397.795	1	11
398.990	1	9
400.186	1	16
401.381	1	4
402.576	1	19
403.771	1	2
404.967	1	11
406.162	1	4
407.357	1	18
408.552	1	5
409.747	1	14
410.942	1	22
412.137	1	8
413.332	1	11
414.526	1	6
415.721	1	19
416.916	1	12
418.111	1	10
419.305	1	16
420.500	1	10
421.695	1	15
422.889	1	16
424.084	1	8
425.278	1	8
426.472	1	24
427.667	1	15
428.861	1	15
430.055	1	20
431.250	1	25
432.444	1	13
433.638	1	11
434.832	1	13
436.026	1	9
437.220	1	22
438.414	1	16
439.608	1	2
440.802	1	6
441.996	1	-3
443.190	1	11
444.384	1	14
445.578	1	2
446.771	1	8
447.965	1	9
449.159	1	0
450.352	1	-2
451.546	1	7
452.739	1	14
453.933	1	2
455.126	1	3
456.320	1	10
457.513	1	5
458.706	1	13
459.899	1	7
461.093	1	11
462.286	1	2
463.479	1	3
464.672	1	3
465.865	1	9
467.058	1	12
468.251	1	-1
469.444	1	7
470.637	1	7
471.830	1	0
473.023	1	13
474.215	1	21
475.408	1	5
476.601	1	13
477.793	1	-4
478.986	1	11
480.179	1	13
481.371	1	3
482.564	1	14
483.756	1	18
484.948	1	9
486.141	1	4
487.333	1	0
488.525	1	6
489.718	1	4
490.910	1	17
492.102	1	15
493.294	1	-7
494.486	1	7
495.678	1	3
496.870	1	10
498.062	1	0
499.254	1	8
500.446	1	4
501.638	1	16
502.829	1	4
504.021	1	21
505.213	1	15
506.404	1	14
507.596	1	18
508.788	1	15
509.979	1	21
511.171	1	19
512.362	1	15
513.553	1	20
514.745	1	19
515.936	1	8
517.127	1	26
518.319	1	16
519.510	1	4
520.701	1	32
521.892	1	16
523.083	1	20
524.274	1	12
525.465	1	29
526.656	1	19
527.847	1	3
529.038	1	20
530.229	1	30
531.419	1	23
532.610	1	22
533.801	1	24
534.991	1	19
536.182	1	19
537.373	1	20
538.563	1	16
539.754	1	12
540.944	1	16
542.134	1	21
543.325	1	24
544.515	1	23
545.705	1	19
546.896	1	20
548.086	1	18
549.276	1	25
550.466	1	18
551.656	1	13
552.846	1	16
554.036	1	25
555.226	1	15
556.416	1	18
557.606	1	5
558.796	1	19
559.986	1	18
561.175	1	13
562.365	1	6
563.555	1	17
564.744	1	18
565.934	1	27
567.123	1	7
568.313	1	13
569.502	1	6
570.692	1	8
571.881	1	15
573.070	1	5
574.260	1	8
575.449	1	5
576.638	1	7
577.827	1	9
579.016	1	3
580.205	1	6
581.394	1	10
582.583	1	7
583.772	1	15
584.961	1	7
586.150	1	11
587.339	1	11
588.528	1	4
589.717	1	2
590.905	1	-1
592.094	1	19
593.283	1	12
594.471	1	0
595.660	1	7
596.848	1	9
598.037	1	5
599.225	1	11
600.413	1	8
601.602	1	7
602.790	1	1
603.978	1	5
605.166	1	7
606.355	1	3
607.543	1	9
608.731	1	-12
609.919	1	-1
611.107	1	18
612.295	1	7
613.483	1	4
614.671	1	18
615.858	1	-5
617.046	1	-2
618.234	1	-3
619.422	1	15
620.609	1	5
621.797	1	10
622.985	1	6
624.172	1	6
625.360	1	12
626.547	1	2
627.735	1	6
628.922	1	12
630.109	1	2
631.297	1	8
632.484	1	7
633.671	1	11
634.858	1	7
636.045	1	-3
637.232	1	9
638.419	1	-1
639.606	1	8
640.793	1	7
641.980	1	7
643.167	1	4
644.354	1	5
645.541	1	4
646.728	1	10
647.914	1	8
649.101	1	4
650.288	1	10
651.474	1	6
652.661	1	2
653.847	1	2
655.034	1	10
656.220	1	6
657.406	1	9
658.593	1	10
659.779	1	10
660.965	1	1
662.152	1	-1
663.338	1	-5
664.524	1	15
665.710	1	3
666.896	1	7
668.082	1	9
669.268	1	4
670.454	1	11
671.640	1	17
672.826	1	8
674.011	1	11
675.197	1	3
676.383	1	1
677.569	1	10
678.754	1	6
679.940	1	4
681.125	1	-4
682.311	1	15
683.496	1	3
684.682	1	9
685.867	1	7
687.053	1	19
688.238	1	10
688.746	1	4