File: Data/GaN_150K_450ms/GaN_sample D_spot15_UVVIS_150 K_200um_450 ms 2x2mm1_319.txt
340.368	1	-4
341.565	1	7
342.763	1	-4
343.960	1	8
345.157	1	5
346.354	1	-1
347.552	1	16
348.749	1	7
349.946	1	-3
351.143	1	7
352.340	1	8
353.537	1	-6
354.734	1	-3
355.931	1	2
357.127	1	8
358.324	1	-3
359.521	1	11
360.718	1	4
361.914	1	-2
363.111	1	2
364.308	1	1
365.504	1	0
366.701	1	2
367.897	1	19
369.093	1	6
370.290	1	3
371.486	1	15
372.682	1	11
373.879	1	8
375.075	1	-6
376.271	1	-9
377.467	1	8
378.663	1	5
379.859	1	-1
381.055	1	0
382.251	1	-7
383.447	1	4
384.643	1	-4
385.839	1	5
387.035	1	-5
388.230	1	3
389.426	1	-4
390.622	1	-2
391.817	1	-7
393.013	1	8
394.208	1	4
395.404	1	5
396.599	1	1
397.795	1	3
398.990	1	10
400.186	1	6
401.381	1	4
402.576	1	0
403.771	1	-7
404.967	1	7
406.162	1	-7
407.357	1	7
408.552	1	-2
409.747	1	3
410.942	1	6
412.137	1	-5
413.332	1	7
414.526	1	-8
415.721	1	1
416.916	1	-6
418.111	1	0
419.305	1	1
420.500	1	13
421.695	1	5
422.889	1	3
424.084	1	8
425.278	1	5
426.472	1	10
427.667	1	-2
428.861	1	-1
430.055	1	5
431.250	1	8
432.444	1	1
433.638	1	13
434.832	1	-3
436.026	1	-3
437.220	1	9
438.414	1	10
439.608	1	-11
440.802	1	-1
441.996	1	1
443.190	1	3
444.384	1	5
445.578	1	-2
446.771	1	0
447.965	1	2
449.159	1	-4
450.352	1	-1
451.546	1	2
452.739	1	3
453.933	1	-9
455.126	1	2
456.320	1	4
457.513	1	-3
458.706	1	3
459.899	1	-3
461.093	1	10
462.286	1	-5
463.479	1	0
464.672	1	-1
465.865	1	9
467.058	1	4
468.251	1	-2
469.444	1	4
470.637	1	4
471.830	1	-7
473.023	1	2
474.215	1	2
475.408	1	1
476.601	1	4
477.793	1	3
478.986	1	8
480.179	1	-2
481.371	1	-18
482.564	1	3
483.756	1	12
484.948	1	7
486.141	1	17
487.333	1	-3
488.525	1	-4
489.718	1	-10
490.910	1	14
492.102	1	0
493.294	1	-8
494.486	1	0
495.678	1	4
496.870	1	2
498.062	1	3
499.254	1	-7
500.446	1	-6
501.638	1	-1
502.829	1	-8
504.021	1	7
505.213	1	1
506.404	1	9
507.596	1	5
508.788	1	-1
509.979	1	9
511.171	1	9
512.362	1	7
513.553	1	-3
514.745	1	2
515.936	1	6
517.127	1	8
518.319	1	4
519.510	1	-4
520.701	1	10
521.892	1	2
523.083	1	-3
524.274	1	2
525.465	1	12
526.656	1	2
527.847	1	-9
529.038	1	-1
530.229	1	3
531.419	1	5
532.610	1	6
533.801	1	5
534.991	1	3
536.182	1	-6
537.373	1	1
538.563	1	-9
539.754	1	4
540.944	1	7
542.134	1	-2
543.325	1	13
544.515	1	6
545.705	1	7
546.896	1	12
548.086	1	-5
549.276	1	2
550.466	1	-2
551.656	1	9
552.846	1	5
554.036	1	1
555.226	1	-1
556.416	1	1
557.606	1	-6
558.796	1	17
559.986	1	4
561.175	1	-1
562.365	1	-9
563.555	1	-1
564.744	1	11
565.934	1	13
567.123	1	-5
568.313	1	5
569.502	1	12
570.692	1	-2
571.881	1	6
573.070	1	-3
574.260	1	-1
575.449	1	-3
576.638	1	-1
577.827	1	-1
579.016	1	2
580.205	1	-2
581.394	1	-9
582.583	1	-1
583.772	1	12
584.961	1	1
586.150	1	4
587.339	1	5
588.528	1	4
589.717	1	2
590.905	1	7
592.094	1	2
593.283	1	-1
594.471	1	-2
595.660	1	4
596.848	1	2
598.037	1	0
599.225	1	-1
600.413	1	9
601.602	1	15
602.790	1	2
603.978	1	3
605.166	1	2
606.355	1	-3
607.543	1	9
608.731	1	-12
609.919	1	-2
611.107	1	1
612.295	1	11
613.483	1	4
614.671	1	10
615.858	1	-6
617.046	1	1
618.234	1	-8
619.422	1	1
620.609	1	-5
621.797	1	0
622.985	1	-2
624.172	1	3
625.360	1	0
626.547	1	-8
627.735	1	3
628.922	1	1
630.109	1	-13
631.297	1	9
632.484	1	2
633.671	1	12
634.858	1	5
636.045	1	-8
637.232	1	6
638.419	1	0
639.606	1	9
640.793	1	5
641.980	1	15
643.167	1	-4
644.354	1	8
645.541	1	-2
646.728	1	4
647.914	1	-6
649.101	1	-10
650.288	1	10
651.474	1	9
652.661	1	7
653.847	1	7
655.034	1	3
656.220	1	-3
657.406	1	-3
658.593	1	16
659.779	1	2
660.965	1	1
662.152	1	-6
663.338	1	4
664.524	1	8
665.710	1	4
666.896	1	-2
668.082	1	5
669.268	1	-1
670.454	1	9
671.640	1	5
672.826	1	0
674.011	1	-1
675.197	1	1
676.383	1	-8
677.569	1	14
678.754	1	-4
679.940	1	-11
681.125	1	-2
682.311	1	2
683.496	1	5
684.682	1	0
685.867	1	-4
687.053	1	9
688.238	1	7
688.746	1	-5