File: Data/GaN_150K_450ms/GaN_sample D_spot15_UVVIS_150 K_200um_450 ms 2x2mm1_282.txt
340.368	1	2
341.565	1	4
342.763	1	4
343.960	1	10
345.157	1	15
346.354	1	2
347.552	1	11
348.749	1	12
349.946	1	-1
351.143	1	5
352.340	1	12
353.537	1	-5
354.734	1	4
355.931	1	2
357.127	1	-1
358.324	1	13
359.521	1	12
360.718	1	4
361.914	1	8
363.111	1	1
364.308	1	1
365.504	1	2
366.701	1	4
367.897	1	17
369.093	1	12
370.290	1	10
371.486	1	12
372.682	1	12
373.879	1	4
375.075	1	-3
376.271	1	5
377.467	1	16
378.663	1	13
379.859	1	5
381.055	1	-3
382.251	1	-6
383.447	1	0
384.643	1	10
385.839	1	8
387.035	1	8
388.230	1	4
389.426	1	2
390.622	1	-11
391.817	1	-6
393.013	1	14
394.208	1	-1
395.404	1	0
396.599	1	7
397.795	1	2
398.990	1	15
400.186	1	2
401.381	1	-2
402.576	1	-6
403.771	1	-13
404.967	1	5
406.162	1	-6
407.357	1	1
408.552	1	-6
409.747	1	5
410.942	1	4
412.137	1	-2
413.332	1	11
414.526	1	-3
415.721	1	11
416.916	1	0
418.111	1	5
419.305	1	4
420.500	1	-2
421.695	1	6
422.889	1	12
424.084	1	2
425.278	1	10
426.472	1	14
427.667	1	-2
428.861	1	12
430.055	1	6
431.250	1	5
432.444	1	8
433.638	1	11
434.832	1	-2
436.026	1	-1
437.220	1	11
438.414	1	10
439.608	1	-6
440.802	1	-4
441.996	1	-8
443.190	1	2
444.384	1	-1
445.578	1	-8
446.771	1	7
447.965	1	7
449.159	1	-5
450.352	1	2
451.546	1	-7
452.739	1	-1
453.933	1	5
455.126	1	3
456.320	1	13
457.513	1	-3
458.706	1	7
459.899	1	2
461.093	1	6
462.286	1	-6
463.479	1	-8
464.672	1	6
465.865	1	3
467.058	1	7
468.251	1	1
469.444	1	1
470.637	1	5
471.830	1	-5
473.023	1	11
474.215	1	0
475.408	1	4
476.601	1	2
477.793	1	6
478.986	1	5
480.179	1	10
481.371	1	-11
482.564	1	8
483.756	1	-4
484.948	1	6
486.141	1	7
487.333	1	-3
488.525	1	-3
489.718	1	-1
490.910	1	8
492.102	1	-2
493.294	1	-11
494.486	1	-3
495.678	1	-1
496.870	1	4
498.062	1	2
499.254	1	-9
500.446	1	-4
501.638	1	3
502.829	1	4
504.021	1	-4
505.213	1	-6
506.404	1	4
507.596	1	15
508.788	1	7
509.979	1	4
511.171	1	4
512.362	1	8
513.553	1	-3
514.745	1	1
515.936	1	8
517.127	1	6
518.319	1	0
519.510	1	-6
520.701	1	0
521.892	1	0
523.083	1	-1
524.274	1	6
525.465	1	11
526.656	1	1
527.847	1	-7
529.038	1	2
530.229	1	1
531.419	1	4
532.610	1	3
533.801	1	-2
534.991	1	-4
536.182	1	-2
537.373	1	4
538.563	1	0
539.754	1	5
540.944	1	5
542.134	1	4
543.325	1	10
544.515	1	0
545.705	1	9
546.896	1	9
548.086	1	2
549.276	1	11
550.466	1	0
551.656	1	-4
552.846	1	4
554.036	1	9
555.226	1	-5
556.416	1	8
557.606	1	-3
558.796	1	2
559.986	1	4
561.175	1	2
562.365	1	-7
563.555	1	5
564.744	1	5
565.934	1	12
567.123	1	0
568.313	1	7
569.502	1	-5
570.692	1	-2
571.881	1	4
573.070	1	11
574.260	1	-2
575.449	1	-10
576.638	1	7
577.827	1	0
579.016	1	3
580.205	1	-3
581.394	1	10
582.583	1	-1
583.772	1	4
584.961	1	-1
586.150	1	7
587.339	1	3
588.528	1	-12
589.717	1	3
590.905	1	-3
592.094	1	4
593.283	1	6
594.471	1	-4
595.660	1	2
596.848	1	2
598.037	1	-4
599.225	1	9
600.413	1	-1
601.602	1	5
602.790	1	8
603.978	1	-2
605.166	1	3
606.355	1	-12
607.543	1	3
608.731	1	0
609.919	1	-6
611.107	1	9
612.295	1	3
613.483	1	1
614.671	1	-5
615.858	1	-3
617.046	1	2
618.234	1	-11
619.422	1	12
620.609	1	-3
621.797	1	-6
622.985	1	-7
624.172	1	3
625.360	1	4
626.547	1	4
627.735	1	-1
628.922	1	5
630.109	1	-16
631.297	1	3
632.484	1	-2
633.671	1	12
634.858	1	5
636.045	1	-14
637.232	1	7
638.419	1	-5
639.606	1	10
640.793	1	-1
641.980	1	3
643.167	1	5
644.354	1	1
645.541	1	7
646.728	1	2
647.914	1	4
649.101	1	2
650.288	1	4
651.474	1	3
652.661	1	0
653.847	1	6
655.034	1	6
656.220	1	2
657.406	1	-10
658.593	1	4
659.779	1	2
660.965	1	-1
662.152	1	4
663.338	1	-2
664.524	1	1
665.710	1	-2
666.896	1	6
668.082	1	-6
669.268	1	-2
670.454	1	10
671.640	1	8
672.826	1	1
674.011	1	1
675.197	1	12
676.383	1	-4
677.569	1	7
678.754	1	-11
679.940	1	-13
681.125	1	0
682.311	1	-6
683.496	1	3
684.682	1	6
685.867	1	8
687.053	1	11
688.238	1	3
688.746	1	-4