File: Data/GaN_150K_450ms/GaN_sample D_spot15_UVVIS_150 K_200um_450 ms 2x2mm1_71.txt
340.368	1	-4
341.565	1	3
342.763	1	6
343.960	1	1
345.157	1	10
346.354	1	-5
347.552	1	21
348.749	1	13
349.946	1	2
351.143	1	11
352.340	1	9
353.537	1	5
354.734	1	19
355.931	1	23
357.127	1	24
358.324	1	21
359.521	1	31
360.718	1	38
361.914	1	57
363.111	1	66
364.308	1	119
365.504	1	148
366.701	1	216
367.897	1	237
369.093	1	244
370.290	1	212
371.486	1	174
372.682	1	141
373.879	1	115
375.075	1	94
376.271	1	74
377.467	1	81
378.663	1	59
379.859	1	51
381.055	1	48
382.251	1	27
383.447	1	31
384.643	1	36
385.839	1	33
387.035	1	42
388.230	1	26
389.426	1	22
390.622	1	28
391.817	1	11
393.013	1	25
394.208	1	11
395.404	1	18
396.599	1	26
397.795	1	16
398.990	1	26
400.186	1	24
401.381	1	23
402.576	1	14
403.771	1	-1
404.967	1	19
406.162	1	13
407.357	1	13
408.552	1	5
409.747	1	18
410.942	1	14
412.137	1	11
413.332	1	16
414.526	1	8
415.721	1	13
416.916	1	18
418.111	1	17
419.305	1	20
420.500	1	19
421.695	1	21
422.889	1	16
424.084	1	19
425.278	1	13
426.472	1	20
427.667	1	12
428.861	1	30
430.055	1	21
431.250	1	25
432.444	1	21
433.638	1	23
434.832	1	11
436.026	1	17
437.220	1	20
438.414	1	16
439.608	1	13
440.802	1	15
441.996	1	8
443.190	1	13
444.384	1	10
445.578	1	5
446.771	1	14
447.965	1	15
449.159	1	14
450.352	1	14
451.546	1	7
452.739	1	14
453.933	1	5
455.126	1	14
456.320	1	12
457.513	1	12
458.706	1	21
459.899	1	8
461.093	1	21
462.286	1	12
463.479	1	10
464.672	1	11
465.865	1	10
467.058	1	13
468.251	1	4
469.444	1	9
470.637	1	10
471.830	1	4
473.023	1	20
474.215	1	14
475.408	1	15
476.601	1	10
477.793	1	5
478.986	1	26
480.179	1	13
481.371	1	10
482.564	1	12
483.756	1	14
484.948	1	19
486.141	1	25
487.333	1	12
488.525	1	18
489.718	1	12
490.910	1	27
492.102	1	21
493.294	1	10
494.486	1	12
495.678	1	24
496.870	1	26
498.062	1	23
499.254	1	37
500.446	1	28
501.638	1	35
502.829	1	37
504.021	1	39
505.213	1	45
506.404	1	39
507.596	1	53
508.788	1	45
509.979	1	53
511.171	1	51
512.362	1	50
513.553	1	40
514.745	1	41
515.936	1	51
517.127	1	57
518.319	1	59
519.510	1	55
520.701	1	57
521.892	1	60
523.083	1	53
524.274	1	66
525.465	1	76
526.656	1	57
527.847	1	50
529.038	1	69
530.229	1	61
531.419	1	61
532.610	1	70
533.801	1	61
534.991	1	51
536.182	1	57
537.373	1	51
538.563	1	48
539.754	1	45
540.944	1	52
542.134	1	59
543.325	1	51
544.515	1	59
545.705	1	51
546.896	1	47
548.086	1	54
549.276	1	54
550.466	1	48
551.656	1	51
552.846	1	48
554.036	1	51
555.226	1	43
556.416	1	44
557.606	1	41
558.796	1	44
559.986	1	38
561.175	1	27
562.365	1	38
563.555	1	32
564.744	1	33
565.934	1	45
567.123	1	36
568.313	1	30
569.502	1	38
570.692	1	35
571.881	1	11
573.070	1	39
574.260	1	33
575.449	1	30
576.638	1	35
577.827	1	21
579.016	1	31
580.205	1	28
581.394	1	12
582.583	1	35
583.772	1	38
584.961	1	11
586.150	1	19
587.339	1	20
588.528	1	17
589.717	1	21
590.905	1	12
592.094	1	28
593.283	1	19
594.471	1	7
595.660	1	20
596.848	1	14
598.037	1	17
599.225	1	18
600.413	1	9
601.602	1	8
602.790	1	12
603.978	1	10
605.166	1	11
606.355	1	0
607.543	1	12
608.731	1	4
609.919	1	-2
611.107	1	21
612.295	1	20
613.483	1	17
614.671	1	13
615.858	1	2
617.046	1	8
618.234	1	4
619.422	1	27
620.609	1	10
621.797	1	9
622.985	1	10
624.172	1	6
625.360	1	13
626.547	1	7
627.735	1	2
628.922	1	16
630.109	1	6
631.297	1	10
632.484	1	23
633.671	1	15
634.858	1	7
636.045	1	3
637.232	1	16
638.419	1	10
639.606	1	29
640.793	1	6
641.980	1	11
643.167	1	7
644.354	1	17
645.541	1	4
646.728	1	22
647.914	1	11
649.101	1	5
650.288	1	7
651.474	1	14
652.661	1	10
653.847	1	5
655.034	1	9
656.220	1	9
657.406	1	7
658.593	1	21
659.779	1	6
660.965	1	9
662.152	1	13
663.338	1	0
664.524	1	18
665.710	1	14
666.896	1	14
668.082	1	16
669.268	1	4
670.454	1	7
671.640	1	13
672.826	1	12
674.011	1	17
675.197	1	19
676.383	1	5
677.569	1	14
678.754	1	9
679.940	1	0
681.125	1	6
682.311	1	16
683.496	1	4
684.682	1	12
685.867	1	9
687.053	1	25
688.238	1	23
688.746	1	6