File: Data/GaN_150K_450ms/GaN_sample D_spot15_UVVIS_150 K_200um_450 ms 2x2mm1_128.txt
340.368	1	6
341.565	1	5
342.763	1	3
343.960	1	12
345.157	1	18
346.354	1	2
347.552	1	13
348.749	1	8
349.946	1	-3
351.143	1	4
352.340	1	7
353.537	1	-4
354.734	1	16
355.931	1	4
357.127	1	23
358.324	1	6
359.521	1	16
360.718	1	19
361.914	1	22
363.111	1	15
364.308	1	41
365.504	1	36
366.701	1	51
367.897	1	54
369.093	1	44
370.290	1	49
371.486	1	49
372.682	1	44
373.879	1	20
375.075	1	12
376.271	1	17
377.467	1	16
378.663	1	16
379.859	1	17
381.055	1	8
382.251	1	13
383.447	1	15
384.643	1	15
385.839	1	15
387.035	1	10
388.230	1	11
389.426	1	8
390.622	1	-4
391.817	1	0
393.013	1	21
394.208	1	0
395.404	1	15
396.599	1	16
397.795	1	6
398.990	1	18
400.186	1	10
401.381	1	10
402.576	1	16
403.771	1	-7
404.967	1	12
406.162	1	1
407.357	1	9
408.552	1	11
409.747	1	7
410.942	1	17
412.137	1	7
413.332	1	18
414.526	1	3
415.721	1	13
416.916	1	5
418.111	1	9
419.305	1	1
420.500	1	9
421.695	1	18
422.889	1	9
424.084	1	23
425.278	1	12
426.472	1	22
427.667	1	14
428.861	1	20
430.055	1	12
431.250	1	5
432.444	1	15
433.638	1	16
434.832	1	9
436.026	1	14
437.220	1	17
438.414	1	11
439.608	1	1
440.802	1	18
441.996	1	7
443.190	1	14
444.384	1	8
445.578	1	0
446.771	1	14
447.965	1	9
449.159	1	1
450.352	1	3
451.546	1	1
452.739	1	14
453.933	1	-2
455.126	1	5
456.320	1	13
457.513	1	2
458.706	1	16
459.899	1	6
461.093	1	11
462.286	1	4
463.479	1	6
464.672	1	9
465.865	1	3
467.058	1	16
468.251	1	-6
469.444	1	12
470.637	1	4
471.830	1	10
473.023	1	7
474.215	1	7
475.408	1	6
476.601	1	10
477.793	1	7
478.986	1	9
480.179	1	0
481.371	1	-5
482.564	1	12
483.756	1	7
484.948	1	6
486.141	1	14
487.333	1	-1
488.525	1	3
489.718	1	2
490.910	1	13
492.102	1	18
493.294	1	-1
494.486	1	8
495.678	1	13
496.870	1	10
498.062	1	0
499.254	1	1
500.446	1	1
501.638	1	5
502.829	1	-1
504.021	1	9
505.213	1	11
506.404	1	11
507.596	1	16
508.788	1	6
509.979	1	4
511.171	1	7
512.362	1	10
513.553	1	11
514.745	1	12
515.936	1	3
517.127	1	23
518.319	1	16
519.510	1	8
520.701	1	19
521.892	1	14
523.083	1	15
524.274	1	10
525.465	1	18
526.656	1	5
527.847	1	11
529.038	1	11
530.229	1	29
531.419	1	11
532.610	1	15
533.801	1	17
534.991	1	10
536.182	1	4
537.373	1	11
538.563	1	11
539.754	1	5
540.944	1	16
542.134	1	8
543.325	1	16
544.515	1	19
545.705	1	16
546.896	1	12
548.086	1	10
549.276	1	16
550.466	1	23
551.656	1	16
552.846	1	13
554.036	1	21
555.226	1	14
556.416	1	11
557.606	1	2
558.796	1	13
559.986	1	17
561.175	1	5
562.365	1	4
563.555	1	12
564.744	1	17
565.934	1	14
567.123	1	5
568.313	1	7
569.502	1	20
570.692	1	7
571.881	1	1
573.070	1	11
574.260	1	3
575.449	1	3
576.638	1	13
577.827	1	3
579.016	1	9
580.205	1	3
581.394	1	7
582.583	1	4
583.772	1	13
584.961	1	1
586.150	1	11
587.339	1	2
588.528	1	1
589.717	1	8
590.905	1	3
592.094	1	12
593.283	1	1
594.471	1	1
595.660	1	13
596.848	1	11
598.037	1	3
599.225	1	-3
600.413	1	-1
601.602	1	9
602.790	1	16
603.978	1	8
605.166	1	7
606.355	1	-1
607.543	1	5
608.731	1	2
609.919	1	-1
611.107	1	9
612.295	1	1
613.483	1	-1
614.671	1	13
615.858	1	-6
617.046	1	-2
618.234	1	0
619.422	1	18
620.609	1	-2
621.797	1	3
622.985	1	0
624.172	1	12
625.360	1	2
626.547	1	-4
627.735	1	6
628.922	1	18
630.109	1	-2
631.297	1	11
632.484	1	15
633.671	1	8
634.858	1	5
636.045	1	-4
637.232	1	9
638.419	1	6
639.606	1	13
640.793	1	2
641.980	1	17
643.167	1	7
644.354	1	15
645.541	1	4
646.728	1	12
647.914	1	6
649.101	1	2
650.288	1	-1
651.474	1	9
652.661	1	-2
653.847	1	11
655.034	1	5
656.220	1	4
657.406	1	0
658.593	1	6
659.779	1	16
660.965	1	-1
662.152	1	2
663.338	1	1
664.524	1	17
665.710	1	-1
666.896	1	6
668.082	1	4
669.268	1	1
670.454	1	7
671.640	1	5
672.826	1	12
674.011	1	8
675.197	1	6
676.383	1	2
677.569	1	7
678.754	1	0
679.940	1	-9
681.125	1	5
682.311	1	13
683.496	1	4
684.682	1	5
685.867	1	1
687.053	1	20
688.238	1	13
688.746	1	-4