File: Data/GaN_150K_450ms/GaN_sample D_spot15_UVVIS_150 K_200um_450 ms 2x2mm1_210.txt
340.368	1	10
341.565	1	0
342.763	1	7
343.960	1	4
345.157	1	10
346.354	1	3
347.552	1	12
348.749	1	9
349.946	1	1
351.143	1	5
352.340	1	14
353.537	1	-1
354.734	1	12
355.931	1	3
357.127	1	11
358.324	1	9
359.521	1	10
360.718	1	3
361.914	1	14
363.111	1	4
364.308	1	13
365.504	1	19
366.701	1	3
367.897	1	20
369.093	1	25
370.290	1	22
371.486	1	23
372.682	1	13
373.879	1	13
375.075	1	4
376.271	1	16
377.467	1	21
378.663	1	8
379.859	1	5
381.055	1	4
382.251	1	0
383.447	1	0
384.643	1	1
385.839	1	7
387.035	1	8
388.230	1	1
389.426	1	-1
390.622	1	-2
391.817	1	-13
393.013	1	13
394.208	1	5
395.404	1	3
396.599	1	6
397.795	1	-7
398.990	1	12
400.186	1	6
401.381	1	-3
402.576	1	5
403.771	1	-2
404.967	1	6
406.162	1	-2
407.357	1	10
408.552	1	5
409.747	1	-5
410.942	1	13
412.137	1	1
413.332	1	9
414.526	1	-6
415.721	1	11
416.916	1	6
418.111	1	16
419.305	1	16
420.500	1	-3
421.695	1	17
422.889	1	4
424.084	1	13
425.278	1	4
426.472	1	8
427.667	1	3
428.861	1	15
430.055	1	15
431.250	1	9
432.444	1	5
433.638	1	12
434.832	1	4
436.026	1	-3
437.220	1	11
438.414	1	9
439.608	1	5
440.802	1	6
441.996	1	8
443.190	1	3
444.384	1	10
445.578	1	-2
446.771	1	7
447.965	1	0
449.159	1	-7
450.352	1	2
451.546	1	7
452.739	1	6
453.933	1	-4
455.126	1	1
456.320	1	12
457.513	1	5
458.706	1	14
459.899	1	-2
461.093	1	7
462.286	1	-2
463.479	1	-5
464.672	1	7
465.865	1	2
467.058	1	8
468.251	1	0
469.444	1	5
470.637	1	0
471.830	1	8
473.023	1	1
474.215	1	0
475.408	1	7
476.601	1	9
477.793	1	3
478.986	1	9
480.179	1	1
481.371	1	-8
482.564	1	1
483.756	1	13
484.948	1	9
486.141	1	6
487.333	1	-7
488.525	1	-3
489.718	1	-6
490.910	1	11
492.102	1	2
493.294	1	-12
494.486	1	-5
495.678	1	5
496.870	1	-3
498.062	1	-4
499.254	1	-3
500.446	1	-1
501.638	1	7
502.829	1	1
504.021	1	4
505.213	1	-2
506.404	1	9
507.596	1	19
508.788	1	7
509.979	1	0
511.171	1	14
512.362	1	5
513.553	1	13
514.745	1	1
515.936	1	-1
517.127	1	12
518.319	1	9
519.510	1	-3
520.701	1	5
521.892	1	1
523.083	1	4
524.274	1	2
525.465	1	6
526.656	1	6
527.847	1	1
529.038	1	7
530.229	1	4
531.419	1	2
532.610	1	4
533.801	1	9
534.991	1	1
536.182	1	10
537.373	1	6
538.563	1	1
539.754	1	1
540.944	1	10
542.134	1	11
543.325	1	8
544.515	1	5
545.705	1	-1
546.896	1	4
548.086	1	1
549.276	1	11
550.466	1	5
551.656	1	3
552.846	1	9
554.036	1	7
555.226	1	-1
556.416	1	16
557.606	1	-8
558.796	1	12
559.986	1	10
561.175	1	4
562.365	1	6
563.555	1	9
564.744	1	4
565.934	1	17
567.123	1	3
568.313	1	8
569.502	1	16
570.692	1	8
571.881	1	7
573.070	1	12
574.260	1	6
575.449	1	2
576.638	1	5
577.827	1	9
579.016	1	3
580.205	1	0
581.394	1	8
582.583	1	8
583.772	1	-1
584.961	1	-3
586.150	1	0
587.339	1	7
588.528	1	0
589.717	1	0
590.905	1	1
592.094	1	11
593.283	1	11
594.471	1	-10
595.660	1	3
596.848	1	-4
598.037	1	-8
599.225	1	4
600.413	1	-5
601.602	1	10
602.790	1	6
603.978	1	-1
605.166	1	2
606.355	1	-12
607.543	1	1
608.731	1	0
609.919	1	-12
611.107	1	7
612.295	1	8
613.483	1	3
614.671	1	6
615.858	1	-7
617.046	1	-6
618.234	1	-4
619.422	1	15
620.609	1	-1
621.797	1	12
622.985	1	-3
624.172	1	4
625.360	1	13
626.547	1	-4
627.735	1	-1
628.922	1	12
630.109	1	-5
631.297	1	4
632.484	1	4
633.671	1	7
634.858	1	3
636.045	1	1
637.232	1	-4
638.419	1	4
639.606	1	11
640.793	1	5
641.980	1	15
643.167	1	-4
644.354	1	8
645.541	1	5
646.728	1	7
647.914	1	7
649.101	1	-4
650.288	1	0
651.474	1	2
652.661	1	2
653.847	1	-2
655.034	1	0
656.220	1	3
657.406	1	5
658.593	1	11
659.779	1	-4
660.965	1	4
662.152	1	-1
663.338	1	4
664.524	1	7
665.710	1	3
666.896	1	4
668.082	1	6
669.268	1	0
670.454	1	0
671.640	1	1
672.826	1	6
674.011	1	6
675.197	1	0
676.383	1	9
677.569	1	7
678.754	1	-2
679.940	1	5
681.125	1	3
682.311	1	9
683.496	1	0
684.682	1	6
685.867	1	6
687.053	1	22
688.238	1	4
688.746	1	-3