File: Data/GaN_150K_450ms/GaN_sample D_spot15_UVVIS_150 K_200um_450 ms 2x2mm1_152.txt
340.368	1	-1
341.565	1	1
342.763	1	9
343.960	1	17
345.157	1	13
346.354	1	7
347.552	1	11
348.749	1	17
349.946	1	3
351.143	1	4
352.340	1	12
353.537	1	-7
354.734	1	12
355.931	1	9
357.127	1	10
358.324	1	15
359.521	1	20
360.718	1	10
361.914	1	13
363.111	1	12
364.308	1	12
365.504	1	13
366.701	1	39
367.897	1	39
369.093	1	36
370.290	1	44
371.486	1	38
372.682	1	30
373.879	1	24
375.075	1	15
376.271	1	21
377.467	1	23
378.663	1	14
379.859	1	10
381.055	1	3
382.251	1	1
383.447	1	-1
384.643	1	12
385.839	1	10
387.035	1	16
388.230	1	8
389.426	1	-2
390.622	1	2
391.817	1	-4
393.013	1	10
394.208	1	15
395.404	1	11
396.599	1	4
397.795	1	2
398.990	1	11
400.186	1	13
401.381	1	8
402.576	1	1
403.771	1	-8
404.967	1	8
406.162	1	3
407.357	1	11
408.552	1	3
409.747	1	2
410.942	1	12
412.137	1	0
413.332	1	14
414.526	1	-2
415.721	1	13
416.916	1	4
418.111	1	9
419.305	1	3
420.500	1	6
421.695	1	20
422.889	1	12
424.084	1	5
425.278	1	13
426.472	1	7
427.667	1	3
428.861	1	19
430.055	1	12
431.250	1	11
432.444	1	4
433.638	1	14
434.832	1	9
436.026	1	6
437.220	1	14
438.414	1	21
439.608	1	4
440.802	1	8
441.996	1	6
443.190	1	12
444.384	1	9
445.578	1	-1
446.771	1	7
447.965	1	-1
449.159	1	3
450.352	1	4
451.546	1	1
452.739	1	1
453.933	1	1
455.126	1	6
456.320	1	5
457.513	1	7
458.706	1	15
459.899	1	-3
461.093	1	10
462.286	1	8
463.479	1	-3
464.672	1	-2
465.865	1	11
467.058	1	2
468.251	1	-9
469.444	1	3
470.637	1	5
471.830	1	3
473.023	1	12
474.215	1	7
475.408	1	12
476.601	1	12
477.793	1	-1
478.986	1	5
480.179	1	6
481.371	1	5
482.564	1	3
483.756	1	10
484.948	1	13
486.141	1	13
487.333	1	5
488.525	1	-1
489.718	1	-5
490.910	1	9
492.102	1	6
493.294	1	-3
494.486	1	3
495.678	1	3
496.870	1	2
498.062	1	12
499.254	1	7
500.446	1	-2
501.638	1	10
502.829	1	4
504.021	1	8
505.213	1	6
506.404	1	10
507.596	1	17
508.788	1	9
509.979	1	2
511.171	1	9
512.362	1	11
513.553	1	10
514.745	1	7
515.936	1	8
517.127	1	20
518.319	1	-3
519.510	1	-1
520.701	1	11
521.892	1	7
523.083	1	5
524.274	1	6
525.465	1	13
526.656	1	7
527.847	1	-1
529.038	1	14
530.229	1	9
531.419	1	5
532.610	1	10
533.801	1	11
534.991	1	4
536.182	1	11
537.373	1	12
538.563	1	0
539.754	1	9
540.944	1	14
542.134	1	17
543.325	1	13
544.515	1	7
545.705	1	12
546.896	1	18
548.086	1	12
549.276	1	18
550.466	1	0
551.656	1	13
552.846	1	5
554.036	1	14
555.226	1	-3
556.416	1	6
557.606	1	-6
558.796	1	15
559.986	1	3
561.175	1	10
562.365	1	7
563.555	1	7
564.744	1	18
565.934	1	9
567.123	1	7
568.313	1	9
569.502	1	0
570.692	1	9
571.881	1	-2
573.070	1	10
574.260	1	6
575.449	1	1
576.638	1	19
577.827	1	8
579.016	1	11
580.205	1	4
581.394	1	-3
582.583	1	5
583.772	1	12
584.961	1	-1
586.150	1	3
587.339	1	7
588.528	1	4
589.717	1	5
590.905	1	-1
592.094	1	15
593.283	1	6
594.471	1	-4
595.660	1	8
596.848	1	7
598.037	1	2
599.225	1	7
600.413	1	9
601.602	1	-6
602.790	1	3
603.978	1	0
605.166	1	10
606.355	1	-11
607.543	1	11
608.731	1	-9
609.919	1	-10
611.107	1	19
612.295	1	12
613.483	1	5
614.671	1	4
615.858	1	-11
617.046	1	-2
618.234	1	-4
619.422	1	18
620.609	1	-4
621.797	1	4
622.985	1	9
624.172	1	7
625.360	1	14
626.547	1	-8
627.735	1	3
628.922	1	7
630.109	1	-6
631.297	1	7
632.484	1	4
633.671	1	11
634.858	1	7
636.045	1	-7
637.232	1	11
638.419	1	-2
639.606	1	7
640.793	1	-10
641.980	1	6
643.167	1	8
644.354	1	6
645.541	1	9
646.728	1	6
647.914	1	4
649.101	1	-2
650.288	1	5
651.474	1	6
652.661	1	10
653.847	1	7
655.034	1	-3
656.220	1	9
657.406	1	-2
658.593	1	8
659.779	1	13
660.965	1	0
662.152	1	0
663.338	1	-7
664.524	1	11
665.710	1	16
666.896	1	7
668.082	1	1
669.268	1	2
670.454	1	10
671.640	1	6
672.826	1	4
674.011	1	8
675.197	1	5
676.383	1	5
677.569	1	10
678.754	1	5
679.940	1	-8
681.125	1	-9
682.311	1	13
683.496	1	-2
684.682	1	6
685.867	1	-5
687.053	1	24
688.238	1	2
688.746	1	-1