File: Data/GaN_150K_450ms/GaN_sample D_spot15_UVVIS_150 K_200um_450 ms 2x2mm1_289.txt
340.368	1	8
341.565	1	5
342.763	1	4
343.960	1	-3
345.157	1	12
346.354	1	-5
347.552	1	19
348.749	1	8
349.946	1	6
351.143	1	11
352.340	1	7
353.537	1	0
354.734	1	0
355.931	1	0
357.127	1	11
358.324	1	1
359.521	1	4
360.718	1	9
361.914	1	11
363.111	1	0
364.308	1	15
365.504	1	1
366.701	1	3
367.897	1	17
369.093	1	10
370.290	1	6
371.486	1	17
372.682	1	13
373.879	1	-1
375.075	1	-9
376.271	1	5
377.467	1	14
378.663	1	8
379.859	1	1
381.055	1	-3
382.251	1	-7
383.447	1	-1
384.643	1	5
385.839	1	4
387.035	1	11
388.230	1	-2
389.426	1	5
390.622	1	4
391.817	1	-7
393.013	1	3
394.208	1	-1
395.404	1	5
396.599	1	-1
397.795	1	-1
398.990	1	7
400.186	1	2
401.381	1	1
402.576	1	7
403.771	1	-15
404.967	1	1
406.162	1	-2
407.357	1	9
408.552	1	0
409.747	1	-5
410.942	1	7
412.137	1	-2
413.332	1	-2
414.526	1	-1
415.721	1	-3
416.916	1	7
418.111	1	4
419.305	1	0
420.500	1	-2
421.695	1	0
422.889	1	-5
424.084	1	8
425.278	1	2
426.472	1	14
427.667	1	-1
428.861	1	13
430.055	1	5
431.250	1	2
432.444	1	4
433.638	1	11
434.832	1	7
436.026	1	-2
437.220	1	6
438.414	1	4
439.608	1	-5
440.802	1	0
441.996	1	0
443.190	1	7
444.384	1	-5
445.578	1	-5
446.771	1	0
447.965	1	3
449.159	1	-8
450.352	1	-5
451.546	1	3
452.739	1	-1
453.933	1	-2
455.126	1	6
456.320	1	5
457.513	1	2
458.706	1	9
459.899	1	-2
461.093	1	2
462.286	1	-5
463.479	1	-3
464.672	1	6
465.865	1	-4
467.058	1	0
468.251	1	-1
469.444	1	3
470.637	1	1
471.830	1	-4
473.023	1	0
474.215	1	3
475.408	1	-2
476.601	1	-2
477.793	1	2
478.986	1	11
480.179	1	1
481.371	1	-3
482.564	1	8
483.756	1	1
484.948	1	0
486.141	1	6
487.333	1	0
488.525	1	-4
489.718	1	-4
490.910	1	5
492.102	1	4
493.294	1	-9
494.486	1	0
495.678	1	5
496.870	1	-1
498.062	1	-3
499.254	1	2
500.446	1	-7
501.638	1	-3
502.829	1	-11
504.021	1	4
505.213	1	-5
506.404	1	-5
507.596	1	14
508.788	1	9
509.979	1	-1
511.171	1	6
512.362	1	6
513.553	1	-5
514.745	1	-4
515.936	1	1
517.127	1	9
518.319	1	5
519.510	1	-7
520.701	1	-1
521.892	1	-4
523.083	1	-1
524.274	1	5
525.465	1	14
526.656	1	9
527.847	1	-15
529.038	1	5
530.229	1	9
531.419	1	-7
532.610	1	4
533.801	1	5
534.991	1	1
536.182	1	3
537.373	1	1
538.563	1	3
539.754	1	2
540.944	1	1
542.134	1	4
543.325	1	1
544.515	1	4
545.705	1	6
546.896	1	5
548.086	1	7
549.276	1	-5
550.466	1	3
551.656	1	4
552.846	1	4
554.036	1	6
555.226	1	8
556.416	1	9
557.606	1	-14
558.796	1	4
559.986	1	4
561.175	1	-3
562.365	1	6
563.555	1	5
564.744	1	9
565.934	1	15
567.123	1	2
568.313	1	7
569.502	1	-4
570.692	1	2
571.881	1	1
573.070	1	-2
574.260	1	6
575.449	1	-4
576.638	1	9
577.827	1	0
579.016	1	8
580.205	1	1
581.394	1	-5
582.583	1	3
583.772	1	-1
584.961	1	-2
586.150	1	-3
587.339	1	0
588.528	1	0
589.717	1	-13
590.905	1	-7
592.094	1	8
593.283	1	5
594.471	1	-4
595.660	1	14
596.848	1	3
598.037	1	-3
599.225	1	-1
600.413	1	0
601.602	1	3
602.790	1	4
603.978	1	0
605.166	1	-6
606.355	1	-16
607.543	1	-2
608.731	1	-13
609.919	1	2
611.107	1	7
612.295	1	11
613.483	1	-4
614.671	1	-1
615.858	1	-6
617.046	1	-2
618.234	1	-6
619.422	1	16
620.609	1	1
621.797	1	11
622.985	1	1
624.172	1	6
625.360	1	6
626.547	1	-2
627.735	1	1
628.922	1	11
630.109	1	-12
631.297	1	15
632.484	1	6
633.671	1	12
634.858	1	1
636.045	1	-3
637.232	1	-3
638.419	1	5
639.606	1	7
640.793	1	-4
641.980	1	4
643.167	1	-1
644.354	1	5
645.541	1	6
646.728	1	10
647.914	1	-4
649.101	1	-11
650.288	1	2
651.474	1	7
652.661	1	5
653.847	1	8
655.034	1	0
656.220	1	4
657.406	1	1
658.593	1	14
659.779	1	0
660.965	1	6
662.152	1	-5
663.338	1	-6
664.524	1	10
665.710	1	1
666.896	1	1
668.082	1	5
669.268	1	-7
670.454	1	1
671.640	1	7
672.826	1	1
674.011	1	0
675.197	1	5
676.383	1	-6
677.569	1	8
678.754	1	5
679.940	1	-6
681.125	1	-2
682.311	1	7
683.496	1	-4
684.682	1	13
685.867	1	-2
687.053	1	13
688.238	1	6
688.746	1	6