File: Data/GaN_150K_450ms/GaN_sample D_spot15_UVVIS_150 K_200um_450 ms 2x2mm1_76.txt
340.368	1	3
341.565	1	3
342.763	1	9
343.960	1	9
345.157	1	17
346.354	1	3
347.552	1	19
348.749	1	18
349.946	1	2
351.143	1	9
352.340	1	5
353.537	1	1
354.734	1	9
355.931	1	23
357.127	1	21
358.324	1	19
359.521	1	45
360.718	1	49
361.914	1	43
363.111	1	62
364.308	1	97
365.504	1	128
366.701	1	171
367.897	1	180
369.093	1	176
370.290	1	158
371.486	1	139
372.682	1	113
373.879	1	93
375.075	1	64
376.271	1	71
377.467	1	65
378.663	1	50
379.859	1	37
381.055	1	43
382.251	1	26
383.447	1	40
384.643	1	28
385.839	1	37
387.035	1	26
388.230	1	27
389.426	1	20
390.622	1	12
391.817	1	6
393.013	1	16
394.208	1	13
395.404	1	28
396.599	1	18
397.795	1	11
398.990	1	27
400.186	1	13
401.381	1	11
402.576	1	12
403.771	1	10
404.967	1	23
406.162	1	4
407.357	1	12
408.552	1	24
409.747	1	14
410.942	1	22
412.137	1	14
413.332	1	22
414.526	1	13
415.721	1	17
416.916	1	16
418.111	1	24
419.305	1	22
420.500	1	23
421.695	1	22
422.889	1	11
424.084	1	18
425.278	1	28
426.472	1	23
427.667	1	13
428.861	1	10
430.055	1	16
431.250	1	21
432.444	1	14
433.638	1	16
434.832	1	9
436.026	1	4
437.220	1	13
438.414	1	17
439.608	1	6
440.802	1	6
441.996	1	9
443.190	1	7
444.384	1	10
445.578	1	15
446.771	1	17
447.965	1	14
449.159	1	5
450.352	1	12
451.546	1	7
452.739	1	4
453.933	1	9
455.126	1	8
456.320	1	17
457.513	1	11
458.706	1	12
459.899	1	5
461.093	1	15
462.286	1	4
463.479	1	4
464.672	1	9
465.865	1	13
467.058	1	11
468.251	1	7
469.444	1	9
470.637	1	0
471.830	1	13
473.023	1	18
474.215	1	12
475.408	1	5
476.601	1	11
477.793	1	10
478.986	1	11
480.179	1	11
481.371	1	10
482.564	1	11
483.756	1	6
484.948	1	14
486.141	1	8
487.333	1	1
488.525	1	13
489.718	1	6
490.910	1	21
492.102	1	23
493.294	1	6
494.486	1	10
495.678	1	23
496.870	1	33
498.062	1	28
499.254	1	28
500.446	1	18
501.638	1	33
502.829	1	33
504.021	1	35
505.213	1	33
506.404	1	39
507.596	1	37
508.788	1	36
509.979	1	36
511.171	1	38
512.362	1	52
513.553	1	43
514.745	1	40
515.936	1	41
517.127	1	59
518.319	1	35
519.510	1	52
520.701	1	48
521.892	1	53
523.083	1	44
524.274	1	45
525.465	1	53
526.656	1	50
527.847	1	37
529.038	1	48
530.229	1	53
531.419	1	52
532.610	1	54
533.801	1	47
534.991	1	48
536.182	1	45
537.373	1	47
538.563	1	41
539.754	1	45
540.944	1	45
542.134	1	49
543.325	1	48
544.515	1	45
545.705	1	36
546.896	1	42
548.086	1	43
549.276	1	43
550.466	1	45
551.656	1	41
552.846	1	41
554.036	1	47
555.226	1	39
556.416	1	43
557.606	1	25
558.796	1	37
559.986	1	41
561.175	1	24
562.365	1	38
563.555	1	38
564.744	1	39
565.934	1	34
567.123	1	30
568.313	1	25
569.502	1	28
570.692	1	35
571.881	1	24
573.070	1	27
574.260	1	24
575.449	1	15
576.638	1	22
577.827	1	17
579.016	1	8
580.205	1	17
581.394	1	26
582.583	1	13
583.772	1	25
584.961	1	11
586.150	1	17
587.339	1	7
588.528	1	17
589.717	1	17
590.905	1	9
592.094	1	13
593.283	1	19
594.471	1	10
595.660	1	17
596.848	1	11
598.037	1	17
599.225	1	12
600.413	1	18
601.602	1	13
602.790	1	18
603.978	1	7
605.166	1	16
606.355	1	2
607.543	1	16
608.731	1	0
609.919	1	9
611.107	1	23
612.295	1	16
613.483	1	10
614.671	1	10
615.858	1	1
617.046	1	10
618.234	1	1
619.422	1	22
620.609	1	6
621.797	1	2
622.985	1	12
624.172	1	13
625.360	1	15
626.547	1	10
627.735	1	7
628.922	1	14
630.109	1	3
631.297	1	14
632.484	1	15
633.671	1	18
634.858	1	8
636.045	1	4
637.232	1	9
638.419	1	8
639.606	1	16
640.793	1	13
641.980	1	25
643.167	1	11
644.354	1	19
645.541	1	0
646.728	1	13
647.914	1	6
649.101	1	-3
650.288	1	14
651.474	1	11
652.661	1	14
653.847	1	14
655.034	1	4
656.220	1	13
657.406	1	9
658.593	1	15
659.779	1	17
660.965	1	8
662.152	1	2
663.338	1	1
664.524	1	19
665.710	1	12
666.896	1	7
668.082	1	0
669.268	1	0
670.454	1	12
671.640	1	12
672.826	1	-1
674.011	1	11
675.197	1	14
676.383	1	8
677.569	1	23
678.754	1	14
679.940	1	-3
681.125	1	9
682.311	1	10
683.496	1	4
684.682	1	9
685.867	1	6
687.053	1	20
688.238	1	11
688.746	1	0