File: Data/GaN_150K_450ms/GaN_sample D_spot15_UVVIS_150 K_200um_450 ms 2x2mm1_290.txt
340.368	1	5
341.565	1	4
342.763	1	4
343.960	1	7
345.157	1	10
346.354	1	2
347.552	1	16
348.749	1	16
349.946	1	0
351.143	1	6
352.340	1	7
353.537	1	3
354.734	1	11
355.931	1	-3
357.127	1	8
358.324	1	2
359.521	1	11
360.718	1	-1
361.914	1	14
363.111	1	-2
364.308	1	2
365.504	1	5
366.701	1	9
367.897	1	11
369.093	1	14
370.290	1	16
371.486	1	16
372.682	1	6
373.879	1	5
375.075	1	2
376.271	1	11
377.467	1	14
378.663	1	4
379.859	1	-3
381.055	1	-2
382.251	1	-2
383.447	1	7
384.643	1	7
385.839	1	-3
387.035	1	14
388.230	1	-9
389.426	1	-3
390.622	1	5
391.817	1	-8
393.013	1	14
394.208	1	0
395.404	1	8
396.599	1	7
397.795	1	-6
398.990	1	-1
400.186	1	9
401.381	1	1
402.576	1	-3
403.771	1	-9
404.967	1	-2
406.162	1	-7
407.357	1	8
408.552	1	-1
409.747	1	1
410.942	1	9
412.137	1	4
413.332	1	6
414.526	1	3
415.721	1	0
416.916	1	-1
418.111	1	7
419.305	1	9
420.500	1	-1
421.695	1	3
422.889	1	1
424.084	1	3
425.278	1	-2
426.472	1	9
427.667	1	9
428.861	1	1
430.055	1	-1
431.250	1	11
432.444	1	-1
433.638	1	-3
434.832	1	-3
436.026	1	1
437.220	1	9
438.414	1	13
439.608	1	0
440.802	1	6
441.996	1	-2
443.190	1	9
444.384	1	5
445.578	1	-8
446.771	1	1
447.965	1	6
449.159	1	-4
450.352	1	5
451.546	1	-6
452.739	1	3
453.933	1	-7
455.126	1	7
456.320	1	13
457.513	1	-3
458.706	1	5
459.899	1	-2
461.093	1	4
462.286	1	5
463.479	1	3
464.672	1	8
465.865	1	1
467.058	1	4
468.251	1	-6
469.444	1	0
470.637	1	10
471.830	1	6
473.023	1	2
474.215	1	-1
475.408	1	1
476.601	1	2
477.793	1	-2
478.986	1	9
480.179	1	4
481.371	1	6
482.564	1	7
483.756	1	0
484.948	1	6
486.141	1	1
487.333	1	-5
488.525	1	-8
489.718	1	-13
490.910	1	1
492.102	1	-6
493.294	1	-8
494.486	1	-7
495.678	1	-2
496.870	1	5
498.062	1	0
499.254	1	-4
500.446	1	-3
501.638	1	3
502.829	1	1
504.021	1	5
505.213	1	-10
506.404	1	-5
507.596	1	10
508.788	1	5
509.979	1	-2
511.171	1	5
512.362	1	3
513.553	1	1
514.745	1	4
515.936	1	0
517.127	1	16
518.319	1	5
519.510	1	0
520.701	1	-2
521.892	1	8
523.083	1	1
524.274	1	-3
525.465	1	6
526.656	1	13
527.847	1	-6
529.038	1	5
530.229	1	5
531.419	1	3
532.610	1	9
533.801	1	4
534.991	1	1
536.182	1	-5
537.373	1	-4
538.563	1	-2
539.754	1	9
540.944	1	2
542.134	1	5
543.325	1	5
544.515	1	0
545.705	1	-4
546.896	1	0
548.086	1	6
549.276	1	9
550.466	1	-2
551.656	1	0
552.846	1	3
554.036	1	6
555.226	1	-2
556.416	1	10
557.606	1	-15
558.796	1	12
559.986	1	6
561.175	1	0
562.365	1	0
563.555	1	1
564.744	1	11
565.934	1	14
567.123	1	-11
568.313	1	2
569.502	1	10
570.692	1	3
571.881	1	-1
573.070	1	5
574.260	1	-3
575.449	1	4
576.638	1	7
577.827	1	1
579.016	1	2
580.205	1	7
581.394	1	-4
582.583	1	7
583.772	1	10
584.961	1	-11
586.150	1	0
587.339	1	4
588.528	1	0
589.717	1	3
590.905	1	0
592.094	1	9
593.283	1	5
594.471	1	-6
595.660	1	4
596.848	1	7
598.037	1	-11
599.225	1	1
600.413	1	-2
601.602	1	7
602.790	1	2
603.978	1	-6
605.166	1	11
606.355	1	-12
607.543	1	1
608.731	1	-15
609.919	1	1
611.107	1	7
612.295	1	0
613.483	1	3
614.671	1	7
615.858	1	-2
617.046	1	-1
618.234	1	-3
619.422	1	15
620.609	1	-8
621.797	1	-5
622.985	1	3
624.172	1	4
625.360	1	4
626.547	1	-9
627.735	1	2
628.922	1	6
630.109	1	-2
631.297	1	5
632.484	1	1
633.671	1	14
634.858	1	8
636.045	1	0
637.232	1	7
638.419	1	6
639.606	1	5
640.793	1	-5
641.980	1	15
643.167	1	9
644.354	1	10
645.541	1	4
646.728	1	9
647.914	1	2
649.101	1	-4
650.288	1	11
651.474	1	1
652.661	1	5
653.847	1	4
655.034	1	-5
656.220	1	3
657.406	1	-6
658.593	1	3
659.779	1	2
660.965	1	2
662.152	1	4
663.338	1	3
664.524	1	13
665.710	1	-1
666.896	1	7
668.082	1	-2
669.268	1	0
670.454	1	3
671.640	1	5
672.826	1	-2
674.011	1	7
675.197	1	5
676.383	1	0
677.569	1	15
678.754	1	-8
679.940	1	-2
681.125	1	1
682.311	1	16
683.496	1	-4
684.682	1	12
685.867	1	5
687.053	1	15
688.238	1	12
688.746	1	6