File: Data/GaN_150K_450ms/GaN_sample D_spot15_UVVIS_150 K_200um_450 ms 2x2mm1_99.txt
340.368	1	-3
341.565	1	7
342.763	1	18
343.960	1	5
345.157	1	13
346.354	1	9
347.552	1	16
348.749	1	4
349.946	1	4
351.143	1	11
352.340	1	8
353.537	1	9
354.734	1	15
355.931	1	8
357.127	1	19
358.324	1	14
359.521	1	34
360.718	1	23
361.914	1	26
363.111	1	39
364.308	1	53
365.504	1	56
366.701	1	82
367.897	1	107
369.093	1	100
370.290	1	89
371.486	1	69
372.682	1	56
373.879	1	46
375.075	1	41
376.271	1	47
377.467	1	38
378.663	1	28
379.859	1	28
381.055	1	23
382.251	1	10
383.447	1	24
384.643	1	16
385.839	1	18
387.035	1	16
388.230	1	19
389.426	1	5
390.622	1	8
391.817	1	1
393.013	1	14
394.208	1	10
395.404	1	22
396.599	1	14
397.795	1	13
398.990	1	22
400.186	1	9
401.381	1	8
402.576	1	11
403.771	1	-6
404.967	1	11
406.162	1	12
407.357	1	1
408.552	1	7
409.747	1	12
410.942	1	21
412.137	1	12
413.332	1	16
414.526	1	5
415.721	1	2
416.916	1	10
418.111	1	12
419.305	1	11
420.500	1	15
421.695	1	27
422.889	1	21
424.084	1	16
425.278	1	20
426.472	1	21
427.667	1	11
428.861	1	17
430.055	1	19
431.250	1	21
432.444	1	15
433.638	1	21
434.832	1	11
436.026	1	9
437.220	1	22
438.414	1	19
439.608	1	12
440.802	1	11
441.996	1	9
443.190	1	8
444.384	1	8
445.578	1	8
446.771	1	11
447.965	1	8
449.159	1	2
450.352	1	5
451.546	1	10
452.739	1	13
453.933	1	4
455.126	1	3
456.320	1	16
457.513	1	6
458.706	1	14
459.899	1	3
461.093	1	14
462.286	1	3
463.479	1	-3
464.672	1	11
465.865	1	12
467.058	1	13
468.251	1	7
469.444	1	10
470.637	1	7
471.830	1	3
473.023	1	16
474.215	1	11
475.408	1	13
476.601	1	3
477.793	1	0
478.986	1	14
480.179	1	13
481.371	1	-3
482.564	1	14
483.756	1	4
484.948	1	17
486.141	1	12
487.333	1	1
488.525	1	4
489.718	1	2
490.910	1	25
492.102	1	24
493.294	1	-2
494.486	1	17
495.678	1	9
496.870	1	13
498.062	1	18
499.254	1	10
500.446	1	-6
501.638	1	14
502.829	1	10
504.021	1	24
505.213	1	15
506.404	1	21
507.596	1	30
508.788	1	19
509.979	1	20
511.171	1	26
512.362	1	24
513.553	1	29
514.745	1	18
515.936	1	26
517.127	1	28
518.319	1	17
519.510	1	17
520.701	1	24
521.892	1	27
523.083	1	22
524.274	1	18
525.465	1	33
526.656	1	19
527.847	1	24
529.038	1	32
530.229	1	31
531.419	1	18
532.610	1	32
533.801	1	29
534.991	1	28
536.182	1	19
537.373	1	33
538.563	1	18
539.754	1	17
540.944	1	17
542.134	1	30
543.325	1	30
544.515	1	19
545.705	1	21
546.896	1	16
548.086	1	25
549.276	1	31
550.466	1	19
551.656	1	13
552.846	1	21
554.036	1	32
555.226	1	26
556.416	1	23
557.606	1	6
558.796	1	29
559.986	1	23
561.175	1	21
562.365	1	15
563.555	1	26
564.744	1	29
565.934	1	29
567.123	1	8
568.313	1	16
569.502	1	21
570.692	1	11
571.881	1	6
573.070	1	18
574.260	1	14
575.449	1	10
576.638	1	20
577.827	1	6
579.016	1	22
580.205	1	15
581.394	1	14
582.583	1	16
583.772	1	18
584.961	1	-4
586.150	1	10
587.339	1	16
588.528	1	-4
589.717	1	10
590.905	1	1
592.094	1	11
593.283	1	3
594.471	1	-3
595.660	1	18
596.848	1	6
598.037	1	4
599.225	1	2
600.413	1	17
601.602	1	16
602.790	1	10
603.978	1	3
605.166	1	14
606.355	1	-6
607.543	1	10
608.731	1	1
609.919	1	1
611.107	1	16
612.295	1	7
613.483	1	11
614.671	1	9
615.858	1	2
617.046	1	0
618.234	1	1
619.422	1	12
620.609	1	1
621.797	1	5
622.985	1	8
624.172	1	6
625.360	1	13
626.547	1	-1
627.735	1	1
628.922	1	8
630.109	1	4
631.297	1	13
632.484	1	14
633.671	1	12
634.858	1	8
636.045	1	3
637.232	1	9
638.419	1	1
639.606	1	14
640.793	1	6
641.980	1	18
643.167	1	7
644.354	1	8
645.541	1	10
646.728	1	9
647.914	1	2
649.101	1	7
650.288	1	11
651.474	1	9
652.661	1	7
653.847	1	10
655.034	1	2
656.220	1	10
657.406	1	8
658.593	1	5
659.779	1	8
660.965	1	8
662.152	1	6
663.338	1	-4
664.524	1	17
665.710	1	8
666.896	1	9
668.082	1	6
669.268	1	8
670.454	1	9
671.640	1	14
672.826	1	10
674.011	1	17
675.197	1	6
676.383	1	9
677.569	1	18
678.754	1	11
679.940	1	1
681.125	1	-4
682.311	1	10
683.496	1	0
684.682	1	10
685.867	1	6
687.053	1	14
688.238	1	16
688.746	1	9