File: Data/GaN_150K_450ms/GaN_sample D_spot15_UVVIS_150 K_200um_450 ms 2x2mm1_157.txt
340.368	1	14
341.565	1	-2
342.763	1	0
343.960	1	11
345.157	1	7
346.354	1	8
347.552	1	14
348.749	1	24
349.946	1	1
351.143	1	8
352.340	1	11
353.537	1	8
354.734	1	8
355.931	1	9
357.127	1	7
358.324	1	5
359.521	1	12
360.718	1	1
361.914	1	18
363.111	1	9
364.308	1	23
365.504	1	23
366.701	1	26
367.897	1	40
369.093	1	40
370.290	1	45
371.486	1	38
372.682	1	38
373.879	1	14
375.075	1	15
376.271	1	15
377.467	1	20
378.663	1	15
379.859	1	17
381.055	1	9
382.251	1	8
383.447	1	4
384.643	1	2
385.839	1	5
387.035	1	11
388.230	1	4
389.426	1	9
390.622	1	3
391.817	1	-7
393.013	1	9
394.208	1	8
395.404	1	16
396.599	1	14
397.795	1	6
398.990	1	13
400.186	1	9
401.381	1	0
402.576	1	0
403.771	1	-7
404.967	1	14
406.162	1	2
407.357	1	10
408.552	1	2
409.747	1	7
410.942	1	18
412.137	1	9
413.332	1	15
414.526	1	-4
415.721	1	14
416.916	1	7
418.111	1	8
419.305	1	18
420.500	1	8
421.695	1	11
422.889	1	10
424.084	1	16
425.278	1	7
426.472	1	14
427.667	1	7
428.861	1	19
430.055	1	19
431.250	1	9
432.444	1	18
433.638	1	19
434.832	1	8
436.026	1	-4
437.220	1	16
438.414	1	17
439.608	1	0
440.802	1	5
441.996	1	9
443.190	1	7
444.384	1	12
445.578	1	8
446.771	1	7
447.965	1	6
449.159	1	-2
450.352	1	0
451.546	1	6
452.739	1	9
453.933	1	1
455.126	1	7
456.320	1	11
457.513	1	4
458.706	1	13
459.899	1	4
461.093	1	8
462.286	1	8
463.479	1	3
464.672	1	5
465.865	1	2
467.058	1	10
468.251	1	-6
469.444	1	3
470.637	1	3
471.830	1	4
473.023	1	9
474.215	1	6
475.408	1	14
476.601	1	3
477.793	1	3
478.986	1	11
480.179	1	15
481.371	1	7
482.564	1	8
483.756	1	1
484.948	1	9
486.141	1	8
487.333	1	-8
488.525	1	3
489.718	1	-2
490.910	1	7
492.102	1	7
493.294	1	-5
494.486	1	9
495.678	1	-8
496.870	1	8
498.062	1	18
499.254	1	-1
500.446	1	-1
501.638	1	13
502.829	1	3
504.021	1	10
505.213	1	9
506.404	1	17
507.596	1	22
508.788	1	20
509.979	1	2
511.171	1	2
512.362	1	17
513.553	1	6
514.745	1	-1
515.936	1	14
517.127	1	12
518.319	1	12
519.510	1	-3
520.701	1	17
521.892	1	14
523.083	1	5
524.274	1	12
525.465	1	17
526.656	1	12
527.847	1	-3
529.038	1	12
530.229	1	12
531.419	1	6
532.610	1	10
533.801	1	16
534.991	1	3
536.182	1	4
537.373	1	11
538.563	1	6
539.754	1	-1
540.944	1	10
542.134	1	15
543.325	1	16
544.515	1	2
545.705	1	9
546.896	1	12
548.086	1	8
549.276	1	11
550.466	1	6
551.656	1	8
552.846	1	10
554.036	1	10
555.226	1	7
556.416	1	9
557.606	1	3
558.796	1	20
559.986	1	14
561.175	1	6
562.365	1	2
563.555	1	13
564.744	1	12
565.934	1	12
567.123	1	5
568.313	1	11
569.502	1	13
570.692	1	1
571.881	1	4
573.070	1	7
574.260	1	5
575.449	1	0
576.638	1	8
577.827	1	5
579.016	1	4
580.205	1	5
581.394	1	4
582.583	1	9
583.772	1	16
584.961	1	3
586.150	1	3
587.339	1	7
588.528	1	-5
589.717	1	6
590.905	1	3
592.094	1	10
593.283	1	11
594.471	1	-4
595.660	1	14
596.848	1	12
598.037	1	4
599.225	1	7
600.413	1	3
601.602	1	12
602.790	1	15
603.978	1	5
605.166	1	4
606.355	1	-9
607.543	1	13
608.731	1	-8
609.919	1	-7
611.107	1	7
612.295	1	15
613.483	1	6
614.671	1	7
615.858	1	-3
617.046	1	-2
618.234	1	-2
619.422	1	21
620.609	1	-3
621.797	1	2
622.985	1	4
624.172	1	11
625.360	1	10
626.547	1	4
627.735	1	0
628.922	1	10
630.109	1	3
631.297	1	3
632.484	1	10
633.671	1	12
634.858	1	1
636.045	1	1
637.232	1	4
638.419	1	1
639.606	1	8
640.793	1	-2
641.980	1	8
643.167	1	1
644.354	1	11
645.541	1	2
646.728	1	1
647.914	1	5
649.101	1	-5
650.288	1	6
651.474	1	9
652.661	1	12
653.847	1	1
655.034	1	-3
656.220	1	11
657.406	1	1
658.593	1	7
659.779	1	1
660.965	1	3
662.152	1	8
663.338	1	-1
664.524	1	15
665.710	1	9
666.896	1	8
668.082	1	5
669.268	1	2
670.454	1	7
671.640	1	11
672.826	1	6
674.011	1	12
675.197	1	9
676.383	1	3
677.569	1	15
678.754	1	3
679.940	1	1
681.125	1	-9
682.311	1	8
683.496	1	-2
684.682	1	10
685.867	1	1
687.053	1	17
688.238	1	5
688.746	1	2