File: Data/GaN_150K_450ms/GaN_sample D_spot15_UVVIS_150 K_200um_450 ms 2x2mm1_160.txt
340.368	1	0
341.565	1	7
342.763	1	11
343.960	1	1
345.157	1	10
346.354	1	4
347.552	1	19
348.749	1	19
349.946	1	11
351.143	1	8
352.340	1	6
353.537	1	-4
354.734	1	6
355.931	1	11
357.127	1	11
358.324	1	7
359.521	1	8
360.718	1	14
361.914	1	24
363.111	1	18
364.308	1	18
365.504	1	23
366.701	1	29
367.897	1	31
369.093	1	39
370.290	1	37
371.486	1	39
372.682	1	32
373.879	1	17
375.075	1	5
376.271	1	14
377.467	1	13
378.663	1	10
379.859	1	17
381.055	1	3
382.251	1	-1
383.447	1	1
384.643	1	8
385.839	1	7
387.035	1	12
388.230	1	2
389.426	1	-5
390.622	1	-9
391.817	1	-4
393.013	1	17
394.208	1	5
395.404	1	14
396.599	1	13
397.795	1	7
398.990	1	11
400.186	1	10
401.381	1	10
402.576	1	7
403.771	1	0
404.967	1	7
406.162	1	4
407.357	1	6
408.552	1	-1
409.747	1	3
410.942	1	24
412.137	1	-1
413.332	1	13
414.526	1	5
415.721	1	5
416.916	1	-3
418.111	1	14
419.305	1	7
420.500	1	6
421.695	1	9
422.889	1	6
424.084	1	15
425.278	1	12
426.472	1	12
427.667	1	6
428.861	1	12
430.055	1	13
431.250	1	14
432.444	1	4
433.638	1	1
434.832	1	6
436.026	1	13
437.220	1	10
438.414	1	12
439.608	1	-6
440.802	1	7
441.996	1	8
443.190	1	11
444.384	1	11
445.578	1	4
446.771	1	6
447.965	1	4
449.159	1	3
450.352	1	2
451.546	1	3
452.739	1	9
453.933	1	3
455.126	1	3
456.320	1	10
457.513	1	10
458.706	1	13
459.899	1	2
461.093	1	12
462.286	1	-3
463.479	1	10
464.672	1	8
465.865	1	9
467.058	1	12
468.251	1	2
469.444	1	10
470.637	1	10
471.830	1	5
473.023	1	5
474.215	1	11
475.408	1	7
476.601	1	2
477.793	1	1
478.986	1	6
480.179	1	3
481.371	1	0
482.564	1	14
483.756	1	5
484.948	1	13
486.141	1	5
487.333	1	-7
488.525	1	-2
489.718	1	2
490.910	1	7
492.102	1	7
493.294	1	-7
494.486	1	4
495.678	1	-2
496.870	1	8
498.062	1	5
499.254	1	-3
500.446	1	-4
501.638	1	12
502.829	1	-4
504.021	1	6
505.213	1	-4
506.404	1	5
507.596	1	5
508.788	1	12
509.979	1	5
511.171	1	7
512.362	1	8
513.553	1	9
514.745	1	8
515.936	1	10
517.127	1	19
518.319	1	10
519.510	1	0
520.701	1	11
521.892	1	7
523.083	1	7
524.274	1	11
525.465	1	18
526.656	1	14
527.847	1	0
529.038	1	10
530.229	1	20
531.419	1	6
532.610	1	13
533.801	1	17
534.991	1	0
536.182	1	8
537.373	1	-2
538.563	1	5
539.754	1	2
540.944	1	12
542.134	1	11
543.325	1	9
544.515	1	10
545.705	1	3
546.896	1	9
548.086	1	10
549.276	1	15
550.466	1	12
551.656	1	8
552.846	1	8
554.036	1	16
555.226	1	8
556.416	1	14
557.606	1	3
558.796	1	9
559.986	1	16
561.175	1	5
562.365	1	0
563.555	1	1
564.744	1	8
565.934	1	16
567.123	1	3
568.313	1	8
569.502	1	6
570.692	1	14
571.881	1	9
573.070	1	13
574.260	1	7
575.449	1	0
576.638	1	17
577.827	1	7
579.016	1	6
580.205	1	4
581.394	1	7
582.583	1	7
583.772	1	15
584.961	1	-4
586.150	1	8
587.339	1	7
588.528	1	-4
589.717	1	6
590.905	1	0
592.094	1	13
593.283	1	9
594.471	1	-3
595.660	1	8
596.848	1	11
598.037	1	5
599.225	1	3
600.413	1	10
601.602	1	4
602.790	1	8
603.978	1	7
605.166	1	4
606.355	1	-6
607.543	1	3
608.731	1	-9
609.919	1	-3
611.107	1	12
612.295	1	5
613.483	1	5
614.671	1	5
615.858	1	-6
617.046	1	3
618.234	1	-10
619.422	1	17
620.609	1	-1
621.797	1	2
622.985	1	-5
624.172	1	10
625.360	1	2
626.547	1	2
627.735	1	4
628.922	1	6
630.109	1	-11
631.297	1	5
632.484	1	3
633.671	1	6
634.858	1	9
636.045	1	-15
637.232	1	1
638.419	1	2
639.606	1	7
640.793	1	4
641.980	1	9
643.167	1	5
644.354	1	9
645.541	1	3
646.728	1	8
647.914	1	2
649.101	1	-9
650.288	1	5
651.474	1	9
652.661	1	5
653.847	1	2
655.034	1	4
656.220	1	7
657.406	1	6
658.593	1	9
659.779	1	7
660.965	1	-2
662.152	1	3
663.338	1	1
664.524	1	12
665.710	1	2
666.896	1	7
668.082	1	10
669.268	1	-4
670.454	1	4
671.640	1	7
672.826	1	8
674.011	1	4
675.197	1	7
676.383	1	2
677.569	1	24
678.754	1	1
679.940	1	-2
681.125	1	-6
682.311	1	3
683.496	1	-6
684.682	1	11
685.867	1	1
687.053	1	12
688.238	1	6
688.746	1	4