File: Data/GaN_150K_450ms/GaN_sample D_spot15_UVVIS_150 K_200um_450 ms 2x2mm1_120.txt
340.368	1	12
341.565	1	12
342.763	1	8
343.960	1	1
345.157	1	16
346.354	1	3
347.552	1	25
348.749	1	12
349.946	1	-3
351.143	1	3
352.340	1	17
353.537	1	4
354.734	1	16
355.931	1	13
357.127	1	9
358.324	1	5
359.521	1	22
360.718	1	17
361.914	1	26
363.111	1	27
364.308	1	34
365.504	1	39
366.701	1	58
367.897	1	66
369.093	1	62
370.290	1	66
371.486	1	49
372.682	1	51
373.879	1	47
375.075	1	33
376.271	1	24
377.467	1	27
378.663	1	16
379.859	1	17
381.055	1	13
382.251	1	14
383.447	1	17
384.643	1	8
385.839	1	8
387.035	1	15
388.230	1	5
389.426	1	6
390.622	1	1
391.817	1	0
393.013	1	4
394.208	1	19
395.404	1	9
396.599	1	16
397.795	1	7
398.990	1	15
400.186	1	13
401.381	1	3
402.576	1	4
403.771	1	-1
404.967	1	9
406.162	1	-2
407.357	1	9
408.552	1	6
409.747	1	14
410.942	1	23
412.137	1	7
413.332	1	11
414.526	1	7
415.721	1	13
416.916	1	14
418.111	1	13
419.305	1	5
420.500	1	14
421.695	1	19
422.889	1	15
424.084	1	19
425.278	1	17
426.472	1	16
427.667	1	6
428.861	1	19
430.055	1	18
431.250	1	20
432.444	1	9
433.638	1	18
434.832	1	8
436.026	1	8
437.220	1	17
438.414	1	18
439.608	1	7
440.802	1	10
441.996	1	12
443.190	1	7
444.384	1	13
445.578	1	4
446.771	1	8
447.965	1	15
449.159	1	3
450.352	1	6
451.546	1	8
452.739	1	4
453.933	1	-1
455.126	1	17
456.320	1	8
457.513	1	5
458.706	1	13
459.899	1	6
461.093	1	13
462.286	1	5
463.479	1	-1
464.672	1	-2
465.865	1	3
467.058	1	4
468.251	1	-3
469.444	1	6
470.637	1	7
471.830	1	9
473.023	1	9
474.215	1	9
475.408	1	0
476.601	1	11
477.793	1	7
478.986	1	7
480.179	1	11
481.371	1	0
482.564	1	8
483.756	1	12
484.948	1	16
486.141	1	4
487.333	1	6
488.525	1	8
489.718	1	2
490.910	1	12
492.102	1	7
493.294	1	-3
494.486	1	1
495.678	1	-4
496.870	1	6
498.062	1	12
499.254	1	-3
500.446	1	6
501.638	1	17
502.829	1	2
504.021	1	15
505.213	1	8
506.404	1	5
507.596	1	14
508.788	1	18
509.979	1	5
511.171	1	20
512.362	1	17
513.553	1	12
514.745	1	20
515.936	1	15
517.127	1	36
518.319	1	6
519.510	1	6
520.701	1	27
521.892	1	14
523.083	1	9
524.274	1	11
525.465	1	27
526.656	1	19
527.847	1	14
529.038	1	19
530.229	1	14
531.419	1	22
532.610	1	30
533.801	1	13
534.991	1	14
536.182	1	18
537.373	1	16
538.563	1	7
539.754	1	4
540.944	1	24
542.134	1	12
543.325	1	17
544.515	1	13
545.705	1	14
546.896	1	7
548.086	1	25
549.276	1	22
550.466	1	5
551.656	1	13
552.846	1	12
554.036	1	18
555.226	1	18
556.416	1	15
557.606	1	-3
558.796	1	27
559.986	1	13
561.175	1	13
562.365	1	6
563.555	1	13
564.744	1	15
565.934	1	17
567.123	1	5
568.313	1	15
569.502	1	10
570.692	1	15
571.881	1	5
573.070	1	14
574.260	1	9
575.449	1	2
576.638	1	16
577.827	1	9
579.016	1	5
580.205	1	6
581.394	1	17
582.583	1	8
583.772	1	16
584.961	1	4
586.150	1	11
587.339	1	13
588.528	1	14
589.717	1	-1
590.905	1	9
592.094	1	19
593.283	1	7
594.471	1	0
595.660	1	16
596.848	1	5
598.037	1	2
599.225	1	6
600.413	1	7
601.602	1	8
602.790	1	2
603.978	1	3
605.166	1	5
606.355	1	1
607.543	1	11
608.731	1	-5
609.919	1	-11
611.107	1	15
612.295	1	9
613.483	1	2
614.671	1	11
615.858	1	-3
617.046	1	4
618.234	1	3
619.422	1	22
620.609	1	2
621.797	1	9
622.985	1	5
624.172	1	9
625.360	1	5
626.547	1	5
627.735	1	6
628.922	1	7
630.109	1	4
631.297	1	3
632.484	1	9
633.671	1	16
634.858	1	4
636.045	1	0
637.232	1	8
638.419	1	9
639.606	1	10
640.793	1	6
641.980	1	9
643.167	1	4
644.354	1	18
645.541	1	8
646.728	1	15
647.914	1	5
649.101	1	2
650.288	1	10
651.474	1	17
652.661	1	12
653.847	1	10
655.034	1	1
656.220	1	5
657.406	1	2
658.593	1	14
659.779	1	16
660.965	1	1
662.152	1	8
663.338	1	1
664.524	1	11
665.710	1	1
666.896	1	14
668.082	1	12
669.268	1	-1
670.454	1	6
671.640	1	13
672.826	1	2
674.011	1	10
675.197	1	14
676.383	1	5
677.569	1	17
678.754	1	-3
679.940	1	5
681.125	1	7
682.311	1	5
683.496	1	0
684.682	1	11
685.867	1	3
687.053	1	11
688.238	1	8
688.746	1	7