File: Data/GaN_150K_450ms/GaN_sample D_spot15_UVVIS_150 K_200um_450 ms 2x2mm1_334.txt
340.368	1	-5
341.565	1	5
342.763	1	-9
343.960	1	2
345.157	1	6
346.354	1	9
347.552	1	11
348.749	1	10
349.946	1	-6
351.143	1	4
352.340	1	7
353.537	1	-6
354.734	1	12
355.931	1	10
357.127	1	6
358.324	1	-3
359.521	1	7
360.718	1	0
361.914	1	4
363.111	1	-9
364.308	1	4
365.504	1	4
366.701	1	1
367.897	1	10
369.093	1	9
370.290	1	12
371.486	1	15
372.682	1	8
373.879	1	0
375.075	1	-4
376.271	1	1
377.467	1	12
378.663	1	5
379.859	1	-2
381.055	1	6
382.251	1	-3
383.447	1	3
384.643	1	5
385.839	1	1
387.035	1	4
388.230	1	7
389.426	1	-4
390.622	1	0
391.817	1	-3
393.013	1	12
394.208	1	0
395.404	1	4
396.599	1	-1
397.795	1	-5
398.990	1	3
400.186	1	-2
401.381	1	-8
402.576	1	3
403.771	1	-8
404.967	1	7
406.162	1	-5
407.357	1	7
408.552	1	2
409.747	1	2
410.942	1	2
412.137	1	-15
413.332	1	8
414.526	1	-13
415.721	1	4
416.916	1	1
418.111	1	0
419.305	1	6
420.500	1	15
421.695	1	5
422.889	1	-5
424.084	1	6
425.278	1	-2
426.472	1	2
427.667	1	-1
428.861	1	2
430.055	1	6
431.250	1	2
432.444	1	0
433.638	1	8
434.832	1	-3
436.026	1	-5
437.220	1	4
438.414	1	11
439.608	1	-5
440.802	1	5
441.996	1	-4
443.190	1	4
444.384	1	3
445.578	1	-6
446.771	1	-5
447.965	1	1
449.159	1	0
450.352	1	4
451.546	1	0
452.739	1	8
453.933	1	-1
455.126	1	3
456.320	1	8
457.513	1	-2
458.706	1	11
459.899	1	1
461.093	1	14
462.286	1	-3
463.479	1	3
464.672	1	-3
465.865	1	-1
467.058	1	3
468.251	1	0
469.444	1	2
470.637	1	1
471.830	1	7
473.023	1	3
474.215	1	5
475.408	1	-1
476.601	1	0
477.793	1	11
478.986	1	1
480.179	1	8
481.371	1	-12
482.564	1	0
483.756	1	3
484.948	1	3
486.141	1	2
487.333	1	-13
488.525	1	-1
489.718	1	-8
490.910	1	-4
492.102	1	-1
493.294	1	-7
494.486	1	-8
495.678	1	-3
496.870	1	3
498.062	1	-6
499.254	1	-5
500.446	1	-3
501.638	1	3
502.829	1	-3
504.021	1	0
505.213	1	-2
506.404	1	6
507.596	1	10
508.788	1	3
509.979	1	-1
511.171	1	4
512.362	1	5
513.553	1	14
514.745	1	-3
515.936	1	-1
517.127	1	7
518.319	1	-2
519.510	1	-8
520.701	1	5
521.892	1	2
523.083	1	4
524.274	1	2
525.465	1	3
526.656	1	1
527.847	1	-7
529.038	1	-4
530.229	1	6
531.419	1	-1
532.610	1	7
533.801	1	5
534.991	1	2
536.182	1	-2
537.373	1	-4
538.563	1	-4
539.754	1	4
540.944	1	2
542.134	1	5
543.325	1	8
544.515	1	0
545.705	1	4
546.896	1	8
548.086	1	1
549.276	1	10
550.466	1	-1
551.656	1	2
552.846	1	-1
554.036	1	9
555.226	1	1
556.416	1	0
557.606	1	-19
558.796	1	9
559.986	1	9
561.175	1	1
562.365	1	-3
563.555	1	8
564.744	1	18
565.934	1	11
567.123	1	12
568.313	1	2
569.502	1	9
570.692	1	5
571.881	1	1
573.070	1	3
574.260	1	7
575.449	1	-8
576.638	1	12
577.827	1	1
579.016	1	1
580.205	1	4
581.394	1	-1
582.583	1	0
583.772	1	14
584.961	1	-4
586.150	1	-3
587.339	1	-1
588.528	1	3
589.717	1	5
590.905	1	-7
592.094	1	5
593.283	1	5
594.471	1	-3
595.660	1	13
596.848	1	4
598.037	1	4
599.225	1	2
600.413	1	-5
601.602	1	13
602.790	1	0
603.978	1	-7
605.166	1	-3
606.355	1	-8
607.543	1	4
608.731	1	-11
609.919	1	-5
611.107	1	9
612.295	1	-1
613.483	1	4
614.671	1	8
615.858	1	-10
617.046	1	2
618.234	1	-6
619.422	1	11
620.609	1	-5
621.797	1	0
622.985	1	1
624.172	1	0
625.360	1	4
626.547	1	-5
627.735	1	3
628.922	1	4
630.109	1	-2
631.297	1	11
632.484	1	2
633.671	1	0
634.858	1	6
636.045	1	-2
637.232	1	1
638.419	1	-2
639.606	1	9
640.793	1	5
641.980	1	5
643.167	1	1
644.354	1	8
645.541	1	3
646.728	1	3
647.914	1	3
649.101	1	3
650.288	1	8
651.474	1	9
652.661	1	3
653.847	1	16
655.034	1	-1
656.220	1	-3
657.406	1	3
658.593	1	6
659.779	1	3
660.965	1	4
662.152	1	4
663.338	1	-5
664.524	1	3
665.710	1	3
666.896	1	10
668.082	1	-6
669.268	1	-11
670.454	1	6
671.640	1	9
672.826	1	-7
674.011	1	-2
675.197	1	2
676.383	1	3
677.569	1	7
678.754	1	-3
679.940	1	-1
681.125	1	-3
682.311	1	9
683.496	1	-4
684.682	1	3
685.867	1	0
687.053	1	13
688.238	1	3
688.746	1	5