File: Data/GaN_150K_450ms/GaN_sample D_spot15_UVVIS_150 K_200um_450 ms 2x2mm1_66.txt
340.368	1	2
341.565	1	17
342.763	1	0
343.960	1	8
345.157	1	14
346.354	1	8
347.552	1	19
348.749	1	18
349.946	1	4
351.143	1	7
352.340	1	15
353.537	1	11
354.734	1	17
355.931	1	15
357.127	1	32
358.324	1	37
359.521	1	44
360.718	1	45
361.914	1	77
363.111	1	105
364.308	1	153
365.504	1	221
366.701	1	278
367.897	1	327
369.093	1	320
370.290	1	272
371.486	1	212
372.682	1	168
373.879	1	134
375.075	1	113
376.271	1	84
377.467	1	96
378.663	1	71
379.859	1	60
381.055	1	53
382.251	1	39
383.447	1	37
384.643	1	37
385.839	1	37
387.035	1	33
388.230	1	36
389.426	1	30
390.622	1	19
391.817	1	18
393.013	1	28
394.208	1	31
395.404	1	23
396.599	1	23
397.795	1	20
398.990	1	33
400.186	1	29
401.381	1	12
402.576	1	15
403.771	1	6
404.967	1	25
406.162	1	18
407.357	1	24
408.552	1	18
409.747	1	14
410.942	1	22
412.137	1	17
413.332	1	20
414.526	1	10
415.721	1	18
416.916	1	17
418.111	1	15
419.305	1	16
420.500	1	7
421.695	1	20
422.889	1	25
424.084	1	9
425.278	1	15
426.472	1	24
427.667	1	14
428.861	1	29
430.055	1	31
431.250	1	15
432.444	1	18
433.638	1	22
434.832	1	13
436.026	1	2
437.220	1	18
438.414	1	20
439.608	1	15
440.802	1	13
441.996	1	15
443.190	1	19
444.384	1	21
445.578	1	15
446.771	1	14
447.965	1	13
449.159	1	15
450.352	1	13
451.546	1	14
452.739	1	13
453.933	1	5
455.126	1	11
456.320	1	17
457.513	1	7
458.706	1	19
459.899	1	-1
461.093	1	9
462.286	1	11
463.479	1	3
464.672	1	15
465.865	1	10
467.058	1	4
468.251	1	13
469.444	1	12
470.637	1	13
471.830	1	17
473.023	1	22
474.215	1	8
475.408	1	9
476.601	1	20
477.793	1	12
478.986	1	15
480.179	1	25
481.371	1	5
482.564	1	20
483.756	1	20
484.948	1	15
486.141	1	26
487.333	1	10
488.525	1	22
489.718	1	6
490.910	1	35
492.102	1	33
493.294	1	18
494.486	1	27
495.678	1	34
496.870	1	34
498.062	1	30
499.254	1	44
500.446	1	42
501.638	1	47
502.829	1	38
504.021	1	47
505.213	1	43
506.404	1	51
507.596	1	61
508.788	1	46
509.979	1	54
511.171	1	61
512.362	1	61
513.553	1	60
514.745	1	55
515.936	1	61
517.127	1	76
518.319	1	64
519.510	1	63
520.701	1	65
521.892	1	79
523.083	1	71
524.274	1	74
525.465	1	73
526.656	1	70
527.847	1	67
529.038	1	82
530.229	1	84
531.419	1	86
532.610	1	71
533.801	1	72
534.991	1	69
536.182	1	65
537.373	1	71
538.563	1	65
539.754	1	66
540.944	1	72
542.134	1	79
543.325	1	77
544.515	1	59
545.705	1	74
546.896	1	71
548.086	1	65
549.276	1	54
550.466	1	66
551.656	1	69
552.846	1	70
554.036	1	61
555.226	1	60
556.416	1	60
557.606	1	39
558.796	1	59
559.986	1	48
561.175	1	53
562.365	1	42
563.555	1	44
564.744	1	48
565.934	1	52
567.123	1	37
568.313	1	49
569.502	1	50
570.692	1	46
571.881	1	29
573.070	1	32
574.260	1	41
575.449	1	39
576.638	1	45
577.827	1	28
579.016	1	30
580.205	1	34
581.394	1	36
582.583	1	33
583.772	1	28
584.961	1	27
586.150	1	37
587.339	1	17
588.528	1	9
589.717	1	34
590.905	1	23
592.094	1	21
593.283	1	18
594.471	1	7
595.660	1	27
596.848	1	25
598.037	1	18
599.225	1	22
600.413	1	16
601.602	1	24
602.790	1	24
603.978	1	23
605.166	1	18
606.355	1	3
607.543	1	29
608.731	1	14
609.919	1	6
611.107	1	23
612.295	1	19
613.483	1	18
614.671	1	13
615.858	1	10
617.046	1	12
618.234	1	8
619.422	1	22
620.609	1	20
621.797	1	9
622.985	1	7
624.172	1	6
625.360	1	9
626.547	1	12
627.735	1	14
628.922	1	16
630.109	1	4
631.297	1	16
632.484	1	21
633.671	1	21
634.858	1	13
636.045	1	0
637.232	1	7
638.419	1	6
639.606	1	20
640.793	1	8
641.980	1	14
643.167	1	12
644.354	1	15
645.541	1	14
646.728	1	20
647.914	1	10
649.101	1	11
650.288	1	12
651.474	1	14
652.661	1	12
653.847	1	15
655.034	1	7
656.220	1	14
657.406	1	8
658.593	1	8
659.779	1	15
660.965	1	10
662.152	1	15
663.338	1	0
664.524	1	20
665.710	1	17
666.896	1	1
668.082	1	11
669.268	1	6
670.454	1	19
671.640	1	15
672.826	1	12
674.011	1	9
675.197	1	16
676.383	1	3
677.569	1	22
678.754	1	8
679.940	1	7
681.125	1	10
682.311	1	18
683.496	1	5
684.682	1	10
685.867	1	15
687.053	1	27
688.238	1	24
688.746	1	18