File: Data/GaN_150K_450ms/GaN_sample D_spot15_UVVIS_150 K_200um_450 ms 2x2mm1_280.txt
340.368	1	4
341.565	1	6
342.763	1	-1
343.960	1	4
345.157	1	14
346.354	1	6
347.552	1	17
348.749	1	10
349.946	1	2
351.143	1	-5
352.340	1	5
353.537	1	7
354.734	1	6
355.931	1	6
357.127	1	12
358.324	1	5
359.521	1	16
360.718	1	9
361.914	1	12
363.111	1	6
364.308	1	7
365.504	1	3
366.701	1	10
367.897	1	7
369.093	1	12
370.290	1	14
371.486	1	11
372.682	1	13
373.879	1	12
375.075	1	-6
376.271	1	-1
377.467	1	15
378.663	1	7
379.859	1	2
381.055	1	-6
382.251	1	-9
383.447	1	4
384.643	1	6
385.839	1	5
387.035	1	2
388.230	1	7
389.426	1	-5
390.622	1	1
391.817	1	-7
393.013	1	8
394.208	1	-10
395.404	1	4
396.599	1	6
397.795	1	2
398.990	1	12
400.186	1	7
401.381	1	0
402.576	1	0
403.771	1	-11
404.967	1	3
406.162	1	-6
407.357	1	3
408.552	1	-1
409.747	1	-4
410.942	1	8
412.137	1	-4
413.332	1	5
414.526	1	-4
415.721	1	-2
416.916	1	2
418.111	1	6
419.305	1	6
420.500	1	5
421.695	1	11
422.889	1	0
424.084	1	3
425.278	1	7
426.472	1	5
427.667	1	4
428.861	1	1
430.055	1	6
431.250	1	-1
432.444	1	11
433.638	1	11
434.832	1	0
436.026	1	-7
437.220	1	9
438.414	1	10
439.608	1	-9
440.802	1	4
441.996	1	1
443.190	1	7
444.384	1	5
445.578	1	-10
446.771	1	0
447.965	1	2
449.159	1	-3
450.352	1	-5
451.546	1	9
452.739	1	8
453.933	1	-5
455.126	1	2
456.320	1	9
457.513	1	-5
458.706	1	16
459.899	1	4
461.093	1	-1
462.286	1	2
463.479	1	1
464.672	1	1
465.865	1	0
467.058	1	5
468.251	1	-10
469.444	1	1
470.637	1	3
471.830	1	1
473.023	1	9
474.215	1	1
475.408	1	6
476.601	1	5
477.793	1	-4
478.986	1	7
480.179	1	4
481.371	1	-7
482.564	1	4
483.756	1	10
484.948	1	4
486.141	1	8
487.333	1	0
488.525	1	0
489.718	1	-2
490.910	1	4
492.102	1	2
493.294	1	-6
494.486	1	-3
495.678	1	-5
496.870	1	10
498.062	1	0
499.254	1	-7
500.446	1	-3
501.638	1	-3
502.829	1	-5
504.021	1	0
505.213	1	-7
506.404	1	1
507.596	1	10
508.788	1	4
509.979	1	-14
511.171	1	5
512.362	1	3
513.553	1	-2
514.745	1	-1
515.936	1	6
517.127	1	9
518.319	1	6
519.510	1	-4
520.701	1	9
521.892	1	8
523.083	1	8
524.274	1	-2
525.465	1	12
526.656	1	9
527.847	1	-11
529.038	1	5
530.229	1	9
531.419	1	6
532.610	1	8
533.801	1	1
534.991	1	6
536.182	1	6
537.373	1	3
538.563	1	-1
539.754	1	2
540.944	1	2
542.134	1	1
543.325	1	2
544.515	1	0
545.705	1	4
546.896	1	9
548.086	1	4
549.276	1	3
550.466	1	0
551.656	1	-1
552.846	1	6
554.036	1	1
555.226	1	6
556.416	1	6
557.606	1	-9
558.796	1	6
559.986	1	13
561.175	1	-7
562.365	1	-2
563.555	1	9
564.744	1	2
565.934	1	14
567.123	1	1
568.313	1	-8
569.502	1	7
570.692	1	2
571.881	1	-4
573.070	1	3
574.260	1	-1
575.449	1	4
576.638	1	14
577.827	1	-1
579.016	1	-3
580.205	1	7
581.394	1	2
582.583	1	1
583.772	1	16
584.961	1	-2
586.150	1	-1
587.339	1	4
588.528	1	-2
589.717	1	5
590.905	1	-4
592.094	1	5
593.283	1	6
594.471	1	-17
595.660	1	3
596.848	1	13
598.037	1	4
599.225	1	2
600.413	1	4
601.602	1	5
602.790	1	7
603.978	1	2
605.166	1	-3
606.355	1	-9
607.543	1	9
608.731	1	-7
609.919	1	0
611.107	1	13
612.295	1	10
613.483	1	5
614.671	1	-2
615.858	1	-1
617.046	1	-11
618.234	1	-3
619.422	1	17
620.609	1	-5
621.797	1	6
622.985	1	9
624.172	1	7
625.360	1	5
626.547	1	-1
627.735	1	3
628.922	1	16
630.109	1	-7
631.297	1	10
632.484	1	8
633.671	1	8
634.858	1	3
636.045	1	0
637.232	1	4
638.419	1	-6
639.606	1	8
640.793	1	-5
641.980	1	10
643.167	1	-4
644.354	1	3
645.541	1	4
646.728	1	3
647.914	1	3
649.101	1	-4
650.288	1	17
651.474	1	3
652.661	1	4
653.847	1	4
655.034	1	-4
656.220	1	12
657.406	1	-4
658.593	1	7
659.779	1	6
660.965	1	0
662.152	1	-4
663.338	1	-5
664.524	1	5
665.710	1	13
666.896	1	11
668.082	1	4
669.268	1	-3
670.454	1	3
671.640	1	1
672.826	1	-1
674.011	1	2
675.197	1	10
676.383	1	-1
677.569	1	8
678.754	1	-1
679.940	1	-5
681.125	1	3
682.311	1	5
683.496	1	-11
684.682	1	5
685.867	1	2
687.053	1	16
688.238	1	8
688.746	1	1