File: Data/GaN_150K_450ms/GaN_sample D_spot15_UVVIS_150 K_200um_450 ms 2x2mm1_339.txt
340.368	1	4
341.565	1	-2
342.763	1	-3
343.960	1	8
345.157	1	20
346.354	1	-3
347.552	1	5
348.749	1	10
349.946	1	0
351.143	1	4
352.340	1	7
353.537	1	-6
354.734	1	-3
355.931	1	4
357.127	1	11
358.324	1	2
359.521	1	5
360.718	1	5
361.914	1	7
363.111	1	-6
364.308	1	2
365.504	1	-4
366.701	1	-3
367.897	1	4
369.093	1	17
370.290	1	5
371.486	1	7
372.682	1	15
373.879	1	11
375.075	1	-4
376.271	1	3
377.467	1	15
378.663	1	5
379.859	1	9
381.055	1	4
382.251	1	-8
383.447	1	5
384.643	1	-6
385.839	1	0
387.035	1	4
388.230	1	5
389.426	1	1
390.622	1	-6
391.817	1	1
393.013	1	11
394.208	1	-2
395.404	1	1
396.599	1	-12
397.795	1	-1
398.990	1	13
400.186	1	-2
401.381	1	-6
402.576	1	6
403.771	1	-3
404.967	1	-2
406.162	1	-7
407.357	1	4
408.552	1	-4
409.747	1	1
410.942	1	6
412.137	1	-6
413.332	1	4
414.526	1	-2
415.721	1	-2
416.916	1	3
418.111	1	3
419.305	1	9
420.500	1	-1
421.695	1	6
422.889	1	4
424.084	1	-1
425.278	1	2
426.472	1	8
427.667	1	0
428.861	1	12
430.055	1	5
431.250	1	-4
432.444	1	0
433.638	1	4
434.832	1	3
436.026	1	-8
437.220	1	8
438.414	1	8
439.608	1	-1
440.802	1	-1
441.996	1	-6
443.190	1	4
444.384	1	10
445.578	1	-9
446.771	1	9
447.965	1	3
449.159	1	-4
450.352	1	-1
451.546	1	6
452.739	1	6
453.933	1	-6
455.126	1	3
456.320	1	4
457.513	1	-10
458.706	1	5
459.899	1	-7
461.093	1	2
462.286	1	-4
463.479	1	3
464.672	1	6
465.865	1	3
467.058	1	0
468.251	1	0
469.444	1	-1
470.637	1	8
471.830	1	4
473.023	1	4
474.215	1	-7
475.408	1	-1
476.601	1	0
477.793	1	3
478.986	1	8
480.179	1	5
481.371	1	-7
482.564	1	-3
483.756	1	5
484.948	1	1
486.141	1	2
487.333	1	-13
488.525	1	-3
489.718	1	-3
490.910	1	-3
492.102	1	3
493.294	1	-8
494.486	1	4
495.678	1	-3
496.870	1	7
498.062	1	0
499.254	1	-1
500.446	1	-14
501.638	1	2
502.829	1	-3
504.021	1	7
505.213	1	0
506.404	1	2
507.596	1	15
508.788	1	4
509.979	1	3
511.171	1	6
512.362	1	5
513.553	1	12
514.745	1	3
515.936	1	3
517.127	1	4
518.319	1	2
519.510	1	-13
520.701	1	3
521.892	1	-3
523.083	1	-2
524.274	1	4
525.465	1	15
526.656	1	5
527.847	1	-9
529.038	1	4
530.229	1	7
531.419	1	-5
532.610	1	4
533.801	1	13
534.991	1	1
536.182	1	-1
537.373	1	3
538.563	1	-1
539.754	1	3
540.944	1	5
542.134	1	-2
543.325	1	5
544.515	1	6
545.705	1	0
546.896	1	-1
548.086	1	-2
549.276	1	0
550.466	1	-1
551.656	1	1
552.846	1	8
554.036	1	7
555.226	1	3
556.416	1	11
557.606	1	-8
558.796	1	1
559.986	1	6
561.175	1	0
562.365	1	0
563.555	1	12
564.744	1	11
565.934	1	12
567.123	1	0
568.313	1	-5
569.502	1	6
570.692	1	4
571.881	1	-6
573.070	1	-3
574.260	1	-2
575.449	1	-5
576.638	1	17
577.827	1	1
579.016	1	-1
580.205	1	-3
581.394	1	-2
582.583	1	2
583.772	1	8
584.961	1	-3
586.150	1	3
587.339	1	0
588.528	1	-1
589.717	1	-3
590.905	1	-2
592.094	1	9
593.283	1	5
594.471	1	-12
595.660	1	10
596.848	1	3
598.037	1	2
599.225	1	-4
600.413	1	2
601.602	1	5
602.790	1	0
603.978	1	-9
605.166	1	-3
606.355	1	-4
607.543	1	7
608.731	1	-2
609.919	1	-9
611.107	1	7
612.295	1	-7
613.483	1	-2
614.671	1	-4
615.858	1	-10
617.046	1	-2
618.234	1	-5
619.422	1	14
620.609	1	4
621.797	1	-7
622.985	1	-4
624.172	1	10
625.360	1	-6
626.547	1	-2
627.735	1	0
628.922	1	4
630.109	1	-6
631.297	1	6
632.484	1	6
633.671	1	7
634.858	1	2
636.045	1	-6
637.232	1	3
638.419	1	1
639.606	1	8
640.793	1	2
641.980	1	0
643.167	1	7
644.354	1	11
645.541	1	4
646.728	1	5
647.914	1	2
649.101	1	-2
650.288	1	-4
651.474	1	9
652.661	1	14
653.847	1	4
655.034	1	-5
656.220	1	7
657.406	1	-4
658.593	1	4
659.779	1	3
660.965	1	6
662.152	1	8
663.338	1	-6
664.524	1	2
665.710	1	12
666.896	1	-4
668.082	1	12
669.268	1	4
670.454	1	3
671.640	1	-4
672.826	1	-6
674.011	1	-2
675.197	1	6
676.383	1	-7
677.569	1	6
678.754	1	2
679.940	1	-4
681.125	1	-1
682.311	1	6
683.496	1	0
684.682	1	5
685.867	1	-1
687.053	1	15
688.238	1	8
688.746	1	5