File: Data/GaN_150K_450ms/GaN_sample D_spot15_UVVIS_150 K_200um_450 ms 2x2mm1_39.txt
340.368	1	-2
341.565	1	3
342.763	1	2
343.960	1	8
345.157	1	2
346.354	1	-6
347.552	1	18
348.749	1	10
349.946	1	-2
351.143	1	11
352.340	1	13
353.537	1	0
354.734	1	0
355.931	1	1
357.127	1	8
358.324	1	0
359.521	1	8
360.718	1	5
361.914	1	5
363.111	1	1
364.308	1	-6
365.504	1	-3
366.701	1	-4
367.897	1	1
369.093	1	1
370.290	1	10
371.486	1	9
372.682	1	4
373.879	1	-4
375.075	1	-5
376.271	1	-1
377.467	1	6
378.663	1	6
379.859	1	2
381.055	1	2
382.251	1	-5
383.447	1	-1
384.643	1	2
385.839	1	2
387.035	1	1
388.230	1	6
389.426	1	-5
390.622	1	0
391.817	1	-11
393.013	1	6
394.208	1	3
395.404	1	8
396.599	1	0
397.795	1	2
398.990	1	5
400.186	1	3
401.381	1	4
402.576	1	-1
403.771	1	-7
404.967	1	-5
406.162	1	0
407.357	1	4
408.552	1	-9
409.747	1	-2
410.942	1	10
412.137	1	1
413.332	1	6
414.526	1	-5
415.721	1	-7
416.916	1	1
418.111	1	-4
419.305	1	4
420.500	1	1
421.695	1	8
422.889	1	2
424.084	1	8
425.278	1	-3
426.472	1	12
427.667	1	-7
428.861	1	9
430.055	1	1
431.250	1	6
432.444	1	2
433.638	1	2
434.832	1	3
436.026	1	-9
437.220	1	6
438.414	1	7
439.608	1	-9
440.802	1	-4
441.996	1	-1
443.190	1	7
444.384	1	8
445.578	1	-9
446.771	1	3
447.965	1	-5
449.159	1	-12
450.352	1	-2
451.546	1	-3
452.739	1	3
453.933	1	-10
455.126	1	8
456.320	1	3
457.513	1	-3
458.706	1	3
459.899	1	-5
461.093	1	3
462.286	1	-8
463.479	1	3
464.672	1	4
465.865	1	5
467.058	1	0
468.251	1	0
469.444	1	6
470.637	1	3
471.830	1	6
473.023	1	8
474.215	1	0
475.408	1	-1
476.601	1	0
477.793	1	7
478.986	1	4
480.179	1	15
481.371	1	-3
482.564	1	12
483.756	1	3
484.948	1	0
486.141	1	6
487.333	1	-9
488.525	1	-5
489.718	1	-4
490.910	1	0
492.102	1	1
493.294	1	-1
494.486	1	-4
495.678	1	5
496.870	1	1
498.062	1	-1
499.254	1	-5
500.446	1	-3
501.638	1	-1
502.829	1	-2
504.021	1	-4
505.213	1	-4
506.404	1	4
507.596	1	8
508.788	1	6
509.979	1	-2
511.171	1	6
512.362	1	15
513.553	1	2
514.745	1	-3
515.936	1	2
517.127	1	2
518.319	1	-6
519.510	1	1
520.701	1	5
521.892	1	5
523.083	1	2
524.274	1	3
525.465	1	6
526.656	1	-6
527.847	1	-6
529.038	1	3
530.229	1	10
531.419	1	6
532.610	1	6
533.801	1	6
534.991	1	1
536.182	1	-5
537.373	1	-6
538.563	1	2
539.754	1	4
540.944	1	9
542.134	1	9
543.325	1	8
544.515	1	10
545.705	1	14
546.896	1	4
548.086	1	6
549.276	1	4
550.466	1	1
551.656	1	5
552.846	1	7
554.036	1	10
555.226	1	4
556.416	1	1
557.606	1	-2
558.796	1	11
559.986	1	9
561.175	1	-11
562.365	1	-5
563.555	1	9
564.744	1	1
565.934	1	8
567.123	1	-2
568.313	1	2
569.502	1	9
570.692	1	6
571.881	1	-5
573.070	1	5
574.260	1	3
575.449	1	-14
576.638	1	10
577.827	1	4
579.016	1	2
580.205	1	0
581.394	1	3
582.583	1	-2
583.772	1	0
584.961	1	-11
586.150	1	6
587.339	1	2
588.528	1	7
589.717	1	6
590.905	1	-1
592.094	1	8
593.283	1	0
594.471	1	-5
595.660	1	7
596.848	1	11
598.037	1	-1
599.225	1	-4
600.413	1	10
601.602	1	13
602.790	1	9
603.978	1	-1
605.166	1	4
606.355	1	-7
607.543	1	4
608.731	1	-7
609.919	1	-9
611.107	1	2
612.295	1	2
613.483	1	1
614.671	1	5
615.858	1	-7
617.046	1	-4
618.234	1	1
619.422	1	14
620.609	1	-3
621.797	1	0
622.985	1	-3
624.172	1	-2
625.360	1	1
626.547	1	-2
627.735	1	3
628.922	1	-2
630.109	1	-7
631.297	1	6
632.484	1	8
633.671	1	8
634.858	1	-2
636.045	1	-3
637.232	1	0
638.419	1	-1
639.606	1	15
640.793	1	-1
641.980	1	10
643.167	1	3
644.354	1	-1
645.541	1	-3
646.728	1	7
647.914	1	-2
649.101	1	0
650.288	1	6
651.474	1	11
652.661	1	7
653.847	1	2
655.034	1	-1
656.220	1	11
657.406	1	0
658.593	1	0
659.779	1	7
660.965	1	8
662.152	1	-3
663.338	1	0
664.524	1	10
665.710	1	11
666.896	1	14
668.082	1	9
669.268	1	-7
670.454	1	11
671.640	1	7
672.826	1	8
674.011	1	4
675.197	1	-4
676.383	1	-8
677.569	1	5
678.754	1	4
679.940	1	0
681.125	1	2
682.311	1	12
683.496	1	3
684.682	1	10
685.867	1	1
687.053	1	18
688.238	1	11
688.746	1	-9