File: Data/GaN_150K_450ms/GaN_sample D_spot15_UVVIS_150 K_200um_450 ms 2x2mm1_78.txt
340.368	1	9
341.565	1	-2
342.763	1	5
343.960	1	10
345.157	1	20
346.354	1	7
347.552	1	16
348.749	1	16
349.946	1	5
351.143	1	9
352.340	1	18
353.537	1	4
354.734	1	16
355.931	1	8
357.127	1	20
358.324	1	12
359.521	1	30
360.718	1	41
361.914	1	55
363.111	1	62
364.308	1	90
365.504	1	113
366.701	1	168
367.897	1	177
369.093	1	183
370.290	1	163
371.486	1	128
372.682	1	112
373.879	1	81
375.075	1	64
376.271	1	67
377.467	1	67
378.663	1	53
379.859	1	35
381.055	1	34
382.251	1	24
383.447	1	30
384.643	1	27
385.839	1	33
387.035	1	26
388.230	1	13
389.426	1	13
390.622	1	20
391.817	1	11
393.013	1	22
394.208	1	14
395.404	1	17
396.599	1	14
397.795	1	13
398.990	1	27
400.186	1	24
401.381	1	4
402.576	1	25
403.771	1	4
404.967	1	26
406.162	1	14
407.357	1	13
408.552	1	2
409.747	1	18
410.942	1	17
412.137	1	22
413.332	1	16
414.526	1	3
415.721	1	18
416.916	1	17
418.111	1	17
419.305	1	14
420.500	1	12
421.695	1	21
422.889	1	11
424.084	1	14
425.278	1	26
426.472	1	23
427.667	1	11
428.861	1	13
430.055	1	13
431.250	1	10
432.444	1	15
433.638	1	20
434.832	1	15
436.026	1	18
437.220	1	20
438.414	1	15
439.608	1	22
440.802	1	5
441.996	1	17
443.190	1	8
444.384	1	24
445.578	1	4
446.771	1	9
447.965	1	13
449.159	1	13
450.352	1	3
451.546	1	9
452.739	1	21
453.933	1	4
455.126	1	9
456.320	1	13
457.513	1	6
458.706	1	18
459.899	1	9
461.093	1	18
462.286	1	6
463.479	1	8
464.672	1	13
465.865	1	15
467.058	1	9
468.251	1	9
469.444	1	19
470.637	1	12
471.830	1	5
473.023	1	7
474.215	1	9
475.408	1	14
476.601	1	19
477.793	1	17
478.986	1	21
480.179	1	11
481.371	1	7
482.564	1	14
483.756	1	8
484.948	1	-1
486.141	1	19
487.333	1	7
488.525	1	12
489.718	1	1
490.910	1	20
492.102	1	18
493.294	1	10
494.486	1	16
495.678	1	19
496.870	1	28
498.062	1	16
499.254	1	23
500.446	1	34
501.638	1	38
502.829	1	19
504.021	1	38
505.213	1	35
506.404	1	32
507.596	1	41
508.788	1	45
509.979	1	34
511.171	1	39
512.362	1	32
513.553	1	45
514.745	1	47
515.936	1	39
517.127	1	52
518.319	1	40
519.510	1	35
520.701	1	44
521.892	1	42
523.083	1	45
524.274	1	45
525.465	1	57
526.656	1	41
527.847	1	43
529.038	1	52
530.229	1	56
531.419	1	55
532.610	1	53
533.801	1	53
534.991	1	46
536.182	1	44
537.373	1	46
538.563	1	41
539.754	1	45
540.944	1	39
542.134	1	44
543.325	1	53
544.515	1	36
545.705	1	44
546.896	1	44
548.086	1	41
549.276	1	42
550.466	1	42
551.656	1	39
552.846	1	52
554.036	1	46
555.226	1	56
556.416	1	32
557.606	1	32
558.796	1	43
559.986	1	36
561.175	1	27
562.365	1	22
563.555	1	42
564.744	1	30
565.934	1	31
567.123	1	28
568.313	1	32
569.502	1	24
570.692	1	27
571.881	1	21
573.070	1	16
574.260	1	20
575.449	1	12
576.638	1	18
577.827	1	15
579.016	1	16
580.205	1	13
581.394	1	20
582.583	1	11
583.772	1	17
584.961	1	16
586.150	1	20
587.339	1	13
588.528	1	13
589.717	1	13
590.905	1	13
592.094	1	19
593.283	1	23
594.471	1	3
595.660	1	19
596.848	1	11
598.037	1	12
599.225	1	9
600.413	1	25
601.602	1	24
602.790	1	14
603.978	1	1
605.166	1	17
606.355	1	1
607.543	1	13
608.731	1	2
609.919	1	0
611.107	1	18
612.295	1	11
613.483	1	12
614.671	1	14
615.858	1	3
617.046	1	5
618.234	1	6
619.422	1	22
620.609	1	11
621.797	1	13
622.985	1	7
624.172	1	7
625.360	1	13
626.547	1	-4
627.735	1	14
628.922	1	4
630.109	1	8
631.297	1	11
632.484	1	7
633.671	1	9
634.858	1	4
636.045	1	5
637.232	1	12
638.419	1	7
639.606	1	15
640.793	1	10
641.980	1	17
643.167	1	8
644.354	1	12
645.541	1	9
646.728	1	4
647.914	1	-1
649.101	1	16
650.288	1	13
651.474	1	9
652.661	1	15
653.847	1	17
655.034	1	1
656.220	1	16
657.406	1	1
658.593	1	13
659.779	1	17
660.965	1	6
662.152	1	5
663.338	1	13
664.524	1	8
665.710	1	14
666.896	1	4
668.082	1	4
669.268	1	0
670.454	1	9
671.640	1	14
672.826	1	4
674.011	1	18
675.197	1	7
676.383	1	2
677.569	1	23
678.754	1	4
679.940	1	-2
681.125	1	2
682.311	1	22
683.496	1	5
684.682	1	18
685.867	1	4
687.053	1	21
688.238	1	16
688.746	1	12