File: Data/GaN_150K_450ms/GaN_sample D_spot15_UVVIS_150 K_200um_450 ms 2x2mm1_191.txt
340.368	1	4
341.565	1	-4
342.763	1	0
343.960	1	4
345.157	1	2
346.354	1	0
347.552	1	20
348.749	1	13
349.946	1	1
351.143	1	0
352.340	1	10
353.537	1	2
354.734	1	9
355.931	1	7
357.127	1	11
358.324	1	-1
359.521	1	15
360.718	1	10
361.914	1	12
363.111	1	13
364.308	1	13
365.504	1	7
366.701	1	19
367.897	1	22
369.093	1	17
370.290	1	25
371.486	1	27
372.682	1	16
373.879	1	12
375.075	1	7
376.271	1	4
377.467	1	20
378.663	1	12
379.859	1	4
381.055	1	-2
382.251	1	-2
383.447	1	4
384.643	1	5
385.839	1	8
387.035	1	4
388.230	1	5
389.426	1	-2
390.622	1	0
391.817	1	8
393.013	1	4
394.208	1	3
395.404	1	12
396.599	1	4
397.795	1	7
398.990	1	6
400.186	1	3
401.381	1	7
402.576	1	6
403.771	1	3
404.967	1	10
406.162	1	-1
407.357	1	12
408.552	1	3
409.747	1	10
410.942	1	10
412.137	1	6
413.332	1	8
414.526	1	-3
415.721	1	4
416.916	1	-3
418.111	1	10
419.305	1	6
420.500	1	13
421.695	1	12
422.889	1	3
424.084	1	6
425.278	1	15
426.472	1	3
427.667	1	0
428.861	1	18
430.055	1	13
431.250	1	13
432.444	1	1
433.638	1	8
434.832	1	9
436.026	1	5
437.220	1	8
438.414	1	4
439.608	1	6
440.802	1	3
441.996	1	2
443.190	1	4
444.384	1	10
445.578	1	2
446.771	1	-1
447.965	1	0
449.159	1	-7
450.352	1	7
451.546	1	6
452.739	1	0
453.933	1	-3
455.126	1	6
456.320	1	4
457.513	1	7
458.706	1	10
459.899	1	-5
461.093	1	4
462.286	1	-2
463.479	1	-2
464.672	1	4
465.865	1	5
467.058	1	5
468.251	1	8
469.444	1	0
470.637	1	6
471.830	1	9
473.023	1	7
474.215	1	2
475.408	1	4
476.601	1	5
477.793	1	2
478.986	1	0
480.179	1	10
481.371	1	-5
482.564	1	4
483.756	1	14
484.948	1	8
486.141	1	6
487.333	1	-11
488.525	1	-6
489.718	1	-6
490.910	1	5
492.102	1	3
493.294	1	-6
494.486	1	4
495.678	1	-2
496.870	1	2
498.062	1	5
499.254	1	13
500.446	1	8
501.638	1	9
502.829	1	0
504.021	1	4
505.213	1	0
506.404	1	9
507.596	1	14
508.788	1	13
509.979	1	9
511.171	1	10
512.362	1	9
513.553	1	19
514.745	1	-1
515.936	1	9
517.127	1	13
518.319	1	11
519.510	1	3
520.701	1	10
521.892	1	7
523.083	1	6
524.274	1	9
525.465	1	3
526.656	1	18
527.847	1	-6
529.038	1	11
530.229	1	17
531.419	1	4
532.610	1	17
533.801	1	6
534.991	1	2
536.182	1	5
537.373	1	3
538.563	1	4
539.754	1	6
540.944	1	4
542.134	1	11
543.325	1	2
544.515	1	8
545.705	1	-2
546.896	1	4
548.086	1	17
549.276	1	14
550.466	1	6
551.656	1	-3
552.846	1	5
554.036	1	4
555.226	1	6
556.416	1	4
557.606	1	0
558.796	1	6
559.986	1	7
561.175	1	9
562.365	1	11
563.555	1	10
564.744	1	9
565.934	1	2
567.123	1	0
568.313	1	10
569.502	1	19
570.692	1	4
571.881	1	5
573.070	1	15
574.260	1	18
575.449	1	3
576.638	1	12
577.827	1	0
579.016	1	10
580.205	1	0
581.394	1	7
582.583	1	8
583.772	1	11
584.961	1	-3
586.150	1	4
587.339	1	3
588.528	1	-3
589.717	1	1
590.905	1	5
592.094	1	7
593.283	1	3
594.471	1	-6
595.660	1	7
596.848	1	7
598.037	1	1
599.225	1	8
600.413	1	9
601.602	1	9
602.790	1	2
603.978	1	5
605.166	1	9
606.355	1	-12
607.543	1	3
608.731	1	5
609.919	1	1
611.107	1	14
612.295	1	3
613.483	1	3
614.671	1	3
615.858	1	-1
617.046	1	-2
618.234	1	-9
619.422	1	19
620.609	1	3
621.797	1	8
622.985	1	6
624.172	1	10
625.360	1	-5
626.547	1	-4
627.735	1	3
628.922	1	7
630.109	1	-2
631.297	1	5
632.484	1	4
633.671	1	4
634.858	1	2
636.045	1	2
637.232	1	0
638.419	1	1
639.606	1	5
640.793	1	-3
641.980	1	11
643.167	1	5
644.354	1	9
645.541	1	10
646.728	1	7
647.914	1	7
649.101	1	-2
650.288	1	8
651.474	1	8
652.661	1	9
653.847	1	4
655.034	1	-6
656.220	1	12
657.406	1	-1
658.593	1	14
659.779	1	8
660.965	1	1
662.152	1	4
663.338	1	0
664.524	1	1
665.710	1	10
666.896	1	11
668.082	1	4
669.268	1	5
670.454	1	16
671.640	1	0
672.826	1	6
674.011	1	1
675.197	1	8
676.383	1	4
677.569	1	11
678.754	1	0
679.940	1	2
681.125	1	2
682.311	1	1
683.496	1	2
684.682	1	5
685.867	1	5
687.053	1	17
688.238	1	10
688.746	1	4