File: Data/GaN_150K_450ms/GaN_sample D_spot15_UVVIS_150 K_200um_450 ms 2x2mm1_86.txt
340.368	1	4
341.565	1	10
342.763	1	5
343.960	1	8
345.157	1	14
346.354	1	5
347.552	1	20
348.749	1	9
349.946	1	4
351.143	1	10
352.340	1	10
353.537	1	9
354.734	1	18
355.931	1	18
357.127	1	22
358.324	1	21
359.521	1	31
360.718	1	26
361.914	1	45
363.111	1	58
364.308	1	73
365.504	1	87
366.701	1	115
367.897	1	128
369.093	1	140
370.290	1	121
371.486	1	96
372.682	1	75
373.879	1	64
375.075	1	66
376.271	1	58
377.467	1	54
378.663	1	39
379.859	1	33
381.055	1	26
382.251	1	18
383.447	1	16
384.643	1	16
385.839	1	24
387.035	1	15
388.230	1	16
389.426	1	9
390.622	1	20
391.817	1	7
393.013	1	19
394.208	1	8
395.404	1	21
396.599	1	20
397.795	1	9
398.990	1	22
400.186	1	21
401.381	1	14
402.576	1	13
403.771	1	9
404.967	1	15
406.162	1	8
407.357	1	17
408.552	1	6
409.747	1	9
410.942	1	17
412.137	1	8
413.332	1	14
414.526	1	12
415.721	1	8
416.916	1	8
418.111	1	18
419.305	1	25
420.500	1	17
421.695	1	19
422.889	1	19
424.084	1	14
425.278	1	10
426.472	1	28
427.667	1	5
428.861	1	24
430.055	1	21
431.250	1	19
432.444	1	10
433.638	1	18
434.832	1	16
436.026	1	4
437.220	1	11
438.414	1	14
439.608	1	12
440.802	1	6
441.996	1	14
443.190	1	16
444.384	1	17
445.578	1	11
446.771	1	11
447.965	1	5
449.159	1	3
450.352	1	8
451.546	1	5
452.739	1	11
453.933	1	1
455.126	1	10
456.320	1	7
457.513	1	5
458.706	1	16
459.899	1	12
461.093	1	12
462.286	1	6
463.479	1	7
464.672	1	5
465.865	1	6
467.058	1	9
468.251	1	4
469.444	1	17
470.637	1	8
471.830	1	4
473.023	1	6
474.215	1	2
475.408	1	2
476.601	1	12
477.793	1	7
478.986	1	16
480.179	1	21
481.371	1	1
482.564	1	15
483.756	1	17
484.948	1	12
486.141	1	18
487.333	1	6
488.525	1	6
489.718	1	5
490.910	1	17
492.102	1	16
493.294	1	7
494.486	1	10
495.678	1	17
496.870	1	11
498.062	1	19
499.254	1	13
500.446	1	17
501.638	1	25
502.829	1	16
504.021	1	20
505.213	1	27
506.404	1	18
507.596	1	35
508.788	1	29
509.979	1	23
511.171	1	36
512.362	1	42
513.553	1	29
514.745	1	33
515.936	1	34
517.127	1	40
518.319	1	30
519.510	1	28
520.701	1	38
521.892	1	39
523.083	1	34
524.274	1	40
525.465	1	47
526.656	1	29
527.847	1	36
529.038	1	42
530.229	1	46
531.419	1	41
532.610	1	49
533.801	1	35
534.991	1	36
536.182	1	29
537.373	1	29
538.563	1	24
539.754	1	30
540.944	1	38
542.134	1	33
543.325	1	35
544.515	1	30
545.705	1	38
546.896	1	26
548.086	1	38
549.276	1	32
550.466	1	29
551.656	1	26
552.846	1	35
554.036	1	38
555.226	1	25
556.416	1	30
557.606	1	15
558.796	1	39
559.986	1	37
561.175	1	9
562.365	1	26
563.555	1	18
564.744	1	32
565.934	1	30
567.123	1	16
568.313	1	12
569.502	1	16
570.692	1	19
571.881	1	22
573.070	1	15
574.260	1	13
575.449	1	12
576.638	1	22
577.827	1	14
579.016	1	21
580.205	1	9
581.394	1	14
582.583	1	15
583.772	1	18
584.961	1	11
586.150	1	15
587.339	1	13
588.528	1	9
589.717	1	16
590.905	1	20
592.094	1	14
593.283	1	18
594.471	1	4
595.660	1	18
596.848	1	14
598.037	1	11
599.225	1	10
600.413	1	6
601.602	1	11
602.790	1	16
603.978	1	11
605.166	1	9
606.355	1	-9
607.543	1	15
608.731	1	-3
609.919	1	-4
611.107	1	14
612.295	1	12
613.483	1	11
614.671	1	1
615.858	1	-2
617.046	1	11
618.234	1	6
619.422	1	21
620.609	1	10
621.797	1	7
622.985	1	17
624.172	1	3
625.360	1	-3
626.547	1	6
627.735	1	2
628.922	1	12
630.109	1	0
631.297	1	11
632.484	1	17
633.671	1	14
634.858	1	4
636.045	1	3
637.232	1	8
638.419	1	-1
639.606	1	8
640.793	1	11
641.980	1	15
643.167	1	12
644.354	1	14
645.541	1	7
646.728	1	12
647.914	1	11
649.101	1	1
650.288	1	6
651.474	1	15
652.661	1	12
653.847	1	17
655.034	1	8
656.220	1	14
657.406	1	1
658.593	1	11
659.779	1	10
660.965	1	11
662.152	1	1
663.338	1	3
664.524	1	17
665.710	1	12
666.896	1	9
668.082	1	10
669.268	1	1
670.454	1	16
671.640	1	13
672.826	1	5
674.011	1	6
675.197	1	8
676.383	1	5
677.569	1	17
678.754	1	11
679.940	1	5
681.125	1	8
682.311	1	9
683.496	1	3
684.682	1	20
685.867	1	9
687.053	1	16
688.238	1	14
688.746	1	7