File: Data/GaN_150K_450ms/GaN_sample D_spot15_UVVIS_150 K_200um_450 ms 2x2mm1_63.txt
340.368	1	2
341.565	1	5
342.763	1	6
343.960	1	10
345.157	1	18
346.354	1	3
347.552	1	26
348.749	1	20
349.946	1	12
351.143	1	11
352.340	1	12
353.537	1	8
354.734	1	16
355.931	1	19
357.127	1	29
358.324	1	32
359.521	1	51
360.718	1	62
361.914	1	85
363.111	1	114
364.308	1	187
365.504	1	251
366.701	1	349
367.897	1	380
369.093	1	369
370.290	1	311
371.486	1	265
372.682	1	214
373.879	1	163
375.075	1	124
376.271	1	103
377.467	1	109
378.663	1	91
379.859	1	71
381.055	1	68
382.251	1	50
383.447	1	50
384.643	1	57
385.839	1	46
387.035	1	48
388.230	1	45
389.426	1	29
390.622	1	39
391.817	1	27
393.013	1	32
394.208	1	25
395.404	1	30
396.599	1	28
397.795	1	30
398.990	1	39
400.186	1	27
401.381	1	22
402.576	1	15
403.771	1	24
404.967	1	22
406.162	1	8
407.357	1	21
408.552	1	10
409.747	1	14
410.942	1	15
412.137	1	10
413.332	1	16
414.526	1	6
415.721	1	21
416.916	1	21
418.111	1	21
419.305	1	15
420.500	1	23
421.695	1	20
422.889	1	17
424.084	1	21
425.278	1	16
426.472	1	19
427.667	1	14
428.861	1	24
430.055	1	24
431.250	1	22
432.444	1	12
433.638	1	12
434.832	1	12
436.026	1	7
437.220	1	16
438.414	1	22
439.608	1	8
440.802	1	17
441.996	1	13
443.190	1	12
444.384	1	17
445.578	1	12
446.771	1	13
447.965	1	11
449.159	1	3
450.352	1	0
451.546	1	7
452.739	1	11
453.933	1	12
455.126	1	7
456.320	1	11
457.513	1	16
458.706	1	26
459.899	1	9
461.093	1	10
462.286	1	12
463.479	1	7
464.672	1	18
465.865	1	10
467.058	1	15
468.251	1	5
469.444	1	18
470.637	1	19
471.830	1	20
473.023	1	15
474.215	1	9
475.408	1	10
476.601	1	19
477.793	1	16
478.986	1	19
480.179	1	24
481.371	1	9
482.564	1	23
483.756	1	22
484.948	1	20
486.141	1	29
487.333	1	19
488.525	1	19
489.718	1	18
490.910	1	41
492.102	1	28
493.294	1	18
494.486	1	30
495.678	1	34
496.870	1	42
498.062	1	41
499.254	1	36
500.446	1	49
501.638	1	54
502.829	1	47
504.021	1	65
505.213	1	65
506.404	1	66
507.596	1	69
508.788	1	65
509.979	1	66
511.171	1	67
512.362	1	66
513.553	1	70
514.745	1	67
515.936	1	68
517.127	1	89
518.319	1	76
519.510	1	74
520.701	1	78
521.892	1	76
523.083	1	85
524.274	1	77
525.465	1	88
526.656	1	88
527.847	1	74
529.038	1	79
530.229	1	94
531.419	1	88
532.610	1	90
533.801	1	91
534.991	1	81
536.182	1	75
537.373	1	67
538.563	1	59
539.754	1	72
540.944	1	83
542.134	1	74
543.325	1	77
544.515	1	81
545.705	1	73
546.896	1	79
548.086	1	77
549.276	1	76
550.466	1	74
551.656	1	79
552.846	1	66
554.036	1	66
555.226	1	80
556.416	1	65
557.606	1	49
558.796	1	65
559.986	1	63
561.175	1	55
562.365	1	56
563.555	1	63
564.744	1	61
565.934	1	66
567.123	1	46
568.313	1	57
569.502	1	45
570.692	1	56
571.881	1	39
573.070	1	51
574.260	1	43
575.449	1	41
576.638	1	56
577.827	1	35
579.016	1	36
580.205	1	34
581.394	1	31
582.583	1	30
583.772	1	41
584.961	1	28
586.150	1	35
587.339	1	26
588.528	1	35
589.717	1	36
590.905	1	30
592.094	1	27
593.283	1	27
594.471	1	20
595.660	1	28
596.848	1	30
598.037	1	16
599.225	1	18
600.413	1	22
601.602	1	35
602.790	1	36
603.978	1	18
605.166	1	29
606.355	1	19
607.543	1	21
608.731	1	11
609.919	1	14
611.107	1	23
612.295	1	25
613.483	1	20
614.671	1	20
615.858	1	3
617.046	1	14
618.234	1	17
619.422	1	26
620.609	1	7
621.797	1	17
622.985	1	18
624.172	1	23
625.360	1	16
626.547	1	11
627.735	1	10
628.922	1	17
630.109	1	8
631.297	1	24
632.484	1	19
633.671	1	16
634.858	1	9
636.045	1	6
637.232	1	12
638.419	1	11
639.606	1	18
640.793	1	6
641.980	1	11
643.167	1	20
644.354	1	25
645.541	1	15
646.728	1	21
647.914	1	3
649.101	1	14
650.288	1	19
651.474	1	17
652.661	1	20
653.847	1	13
655.034	1	7
656.220	1	13
657.406	1	7
658.593	1	22
659.779	1	19
660.965	1	10
662.152	1	13
663.338	1	11
664.524	1	11
665.710	1	15
666.896	1	15
668.082	1	6
669.268	1	10
670.454	1	16
671.640	1	16
672.826	1	2
674.011	1	11
675.197	1	18
676.383	1	8
677.569	1	10
678.754	1	14
679.940	1	7
681.125	1	6
682.311	1	20
683.496	1	12
684.682	1	14
685.867	1	8
687.053	1	24
688.238	1	16
688.746	1	8