File: Data/GaN_150K_450ms/GaN_sample D_spot15_UVVIS_150 K_200um_450 ms 2x2mm1_211.txt
340.368	1	6
341.565	1	-2
342.763	1	-1
343.960	1	7
345.157	1	10
346.354	1	3
347.552	1	14
348.749	1	11
349.946	1	0
351.143	1	1
352.340	1	10
353.537	1	5
354.734	1	2
355.931	1	14
357.127	1	11
358.324	1	7
359.521	1	8
360.718	1	1
361.914	1	6
363.111	1	-1
364.308	1	9
365.504	1	13
366.701	1	11
367.897	1	10
369.093	1	33
370.290	1	25
371.486	1	16
372.682	1	10
373.879	1	13
375.075	1	10
376.271	1	5
377.467	1	20
378.663	1	9
379.859	1	7
381.055	1	4
382.251	1	-15
383.447	1	4
384.643	1	-3
385.839	1	3
387.035	1	11
388.230	1	11
389.426	1	-3
390.622	1	2
391.817	1	-6
393.013	1	13
394.208	1	2
395.404	1	4
396.599	1	5
397.795	1	1
398.990	1	12
400.186	1	9
401.381	1	4
402.576	1	10
403.771	1	-16
404.967	1	7
406.162	1	7
407.357	1	14
408.552	1	3
409.747	1	-2
410.942	1	15
412.137	1	-5
413.332	1	8
414.526	1	0
415.721	1	10
416.916	1	5
418.111	1	11
419.305	1	7
420.500	1	0
421.695	1	10
422.889	1	4
424.084	1	8
425.278	1	-1
426.472	1	4
427.667	1	-1
428.861	1	9
430.055	1	12
431.250	1	-1
432.444	1	9
433.638	1	14
434.832	1	3
436.026	1	8
437.220	1	11
438.414	1	2
439.608	1	3
440.802	1	5
441.996	1	5
443.190	1	4
444.384	1	6
445.578	1	-6
446.771	1	-2
447.965	1	9
449.159	1	-5
450.352	1	4
451.546	1	11
452.739	1	5
453.933	1	-6
455.126	1	-2
456.320	1	12
457.513	1	-4
458.706	1	9
459.899	1	1
461.093	1	11
462.286	1	-5
463.479	1	-2
464.672	1	8
465.865	1	5
467.058	1	7
468.251	1	-4
469.444	1	7
470.637	1	5
471.830	1	5
473.023	1	7
474.215	1	-2
475.408	1	10
476.601	1	-2
477.793	1	7
478.986	1	2
480.179	1	6
481.371	1	-3
482.564	1	-1
483.756	1	7
484.948	1	2
486.141	1	2
487.333	1	0
488.525	1	-7
489.718	1	-5
490.910	1	4
492.102	1	6
493.294	1	-8
494.486	1	5
495.678	1	-2
496.870	1	1
498.062	1	1
499.254	1	-6
500.446	1	-3
501.638	1	12
502.829	1	0
504.021	1	12
505.213	1	-1
506.404	1	-1
507.596	1	8
508.788	1	3
509.979	1	2
511.171	1	6
512.362	1	7
513.553	1	11
514.745	1	5
515.936	1	3
517.127	1	13
518.319	1	5
519.510	1	-3
520.701	1	8
521.892	1	6
523.083	1	8
524.274	1	8
525.465	1	15
526.656	1	5
527.847	1	-5
529.038	1	5
530.229	1	10
531.419	1	5
532.610	1	4
533.801	1	10
534.991	1	10
536.182	1	1
537.373	1	1
538.563	1	5
539.754	1	3
540.944	1	4
542.134	1	2
543.325	1	13
544.515	1	5
545.705	1	13
546.896	1	9
548.086	1	1
549.276	1	6
550.466	1	10
551.656	1	3
552.846	1	6
554.036	1	7
555.226	1	12
556.416	1	9
557.606	1	-9
558.796	1	13
559.986	1	6
561.175	1	1
562.365	1	12
563.555	1	5
564.744	1	15
565.934	1	7
567.123	1	-5
568.313	1	2
569.502	1	5
570.692	1	1
571.881	1	-1
573.070	1	8
574.260	1	7
575.449	1	2
576.638	1	15
577.827	1	-4
579.016	1	5
580.205	1	3
581.394	1	1
582.583	1	11
583.772	1	2
584.961	1	-3
586.150	1	9
587.339	1	6
588.528	1	-3
589.717	1	3
590.905	1	-6
592.094	1	2
593.283	1	7
594.471	1	-3
595.660	1	8
596.848	1	4
598.037	1	0
599.225	1	2
600.413	1	-6
601.602	1	0
602.790	1	6
603.978	1	-2
605.166	1	0
606.355	1	-9
607.543	1	7
608.731	1	-4
609.919	1	-7
611.107	1	19
612.295	1	6
613.483	1	-2
614.671	1	8
615.858	1	2
617.046	1	7
618.234	1	-6
619.422	1	6
620.609	1	9
621.797	1	3
622.985	1	2
624.172	1	11
625.360	1	-6
626.547	1	-9
627.735	1	12
628.922	1	3
630.109	1	-6
631.297	1	2
632.484	1	0
633.671	1	13
634.858	1	9
636.045	1	-6
637.232	1	1
638.419	1	2
639.606	1	5
640.793	1	1
641.980	1	9
643.167	1	5
644.354	1	6
645.541	1	5
646.728	1	9
647.914	1	4
649.101	1	-6
650.288	1	5
651.474	1	16
652.661	1	6
653.847	1	-1
655.034	1	1
656.220	1	7
657.406	1	0
658.593	1	9
659.779	1	8
660.965	1	7
662.152	1	2
663.338	1	9
664.524	1	12
665.710	1	5
666.896	1	-5
668.082	1	1
669.268	1	-5
670.454	1	13
671.640	1	8
672.826	1	1
674.011	1	6
675.197	1	5
676.383	1	-3
677.569	1	20
678.754	1	2
679.940	1	-3
681.125	1	0
682.311	1	9
683.496	1	4
684.682	1	1
685.867	1	-7
687.053	1	22
688.238	1	14
688.746	1	-6