File: Data/GaN_150K_450ms/GaN_sample D_spot15_UVVIS_150 K_200um_450 ms 2x2mm1_244.txt
340.368	1	1
341.565	1	11
342.763	1	5
343.960	1	1
345.157	1	6
346.354	1	6
347.552	1	9
348.749	1	9
349.946	1	1
351.143	1	5
352.340	1	9
353.537	1	-1
354.734	1	1
355.931	1	0
357.127	1	4
358.324	1	14
359.521	1	3
360.718	1	3
361.914	1	8
363.111	1	3
364.308	1	2
365.504	1	7
366.701	1	2
367.897	1	16
369.093	1	15
370.290	1	11
371.486	1	17
372.682	1	11
373.879	1	4
375.075	1	-2
376.271	1	-2
377.467	1	16
378.663	1	9
379.859	1	6
381.055	1	4
382.251	1	1
383.447	1	4
384.643	1	5
385.839	1	14
387.035	1	5
388.230	1	7
389.426	1	2
390.622	1	-2
391.817	1	-6
393.013	1	3
394.208	1	-5
395.404	1	5
396.599	1	7
397.795	1	-8
398.990	1	7
400.186	1	3
401.381	1	0
402.576	1	0
403.771	1	-7
404.967	1	0
406.162	1	-3
407.357	1	8
408.552	1	-1
409.747	1	3
410.942	1	16
412.137	1	4
413.332	1	2
414.526	1	-4
415.721	1	11
416.916	1	-3
418.111	1	10
419.305	1	3
420.500	1	4
421.695	1	10
422.889	1	0
424.084	1	-1
425.278	1	4
426.472	1	8
427.667	1	2
428.861	1	4
430.055	1	1
431.250	1	12
432.444	1	0
433.638	1	10
434.832	1	2
436.026	1	-1
437.220	1	4
438.414	1	8
439.608	1	-2
440.802	1	-2
441.996	1	8
443.190	1	6
444.384	1	12
445.578	1	2
446.771	1	10
447.965	1	9
449.159	1	2
450.352	1	-8
451.546	1	-5
452.739	1	3
453.933	1	-8
455.126	1	6
456.320	1	10
457.513	1	7
458.706	1	11
459.899	1	-1
461.093	1	-2
462.286	1	-3
463.479	1	0
464.672	1	10
465.865	1	-5
467.058	1	-2
468.251	1	-7
469.444	1	6
470.637	1	5
471.830	1	-1
473.023	1	2
474.215	1	-3
475.408	1	3
476.601	1	0
477.793	1	-9
478.986	1	1
480.179	1	-3
481.371	1	-6
482.564	1	9
483.756	1	6
484.948	1	7
486.141	1	2
487.333	1	-1
488.525	1	-3
489.718	1	-7
490.910	1	5
492.102	1	-4
493.294	1	-10
494.486	1	7
495.678	1	0
496.870	1	5
498.062	1	-3
499.254	1	-11
500.446	1	-10
501.638	1	-1
502.829	1	-3
504.021	1	6
505.213	1	-2
506.404	1	2
507.596	1	6
508.788	1	3
509.979	1	-2
511.171	1	5
512.362	1	8
513.553	1	2
514.745	1	9
515.936	1	0
517.127	1	5
518.319	1	-2
519.510	1	-6
520.701	1	13
521.892	1	5
523.083	1	-6
524.274	1	1
525.465	1	10
526.656	1	9
527.847	1	-10
529.038	1	5
530.229	1	19
531.419	1	3
532.610	1	17
533.801	1	10
534.991	1	3
536.182	1	2
537.373	1	2
538.563	1	-7
539.754	1	7
540.944	1	5
542.134	1	6
543.325	1	11
544.515	1	6
545.705	1	3
546.896	1	8
548.086	1	-1
549.276	1	8
550.466	1	6
551.656	1	7
552.846	1	5
554.036	1	10
555.226	1	9
556.416	1	10
557.606	1	-3
558.796	1	8
559.986	1	11
561.175	1	-4
562.365	1	-6
563.555	1	0
564.744	1	2
565.934	1	10
567.123	1	-1
568.313	1	6
569.502	1	7
570.692	1	2
571.881	1	-4
573.070	1	3
574.260	1	5
575.449	1	-2
576.638	1	1
577.827	1	-5
579.016	1	1
580.205	1	-5
581.394	1	-1
582.583	1	7
583.772	1	8
584.961	1	-4
586.150	1	-4
587.339	1	6
588.528	1	-4
589.717	1	7
590.905	1	8
592.094	1	4
593.283	1	2
594.471	1	-5
595.660	1	8
596.848	1	10
598.037	1	2
599.225	1	4
600.413	1	1
601.602	1	9
602.790	1	-4
603.978	1	-2
605.166	1	9
606.355	1	-8
607.543	1	-2
608.731	1	-7
609.919	1	-1
611.107	1	4
612.295	1	6
613.483	1	7
614.671	1	3
615.858	1	-15
617.046	1	-1
618.234	1	-6
619.422	1	14
620.609	1	2
621.797	1	1
622.985	1	1
624.172	1	4
625.360	1	-7
626.547	1	-6
627.735	1	3
628.922	1	4
630.109	1	5
631.297	1	7
632.484	1	7
633.671	1	6
634.858	1	-5
636.045	1	-5
637.232	1	8
638.419	1	-8
639.606	1	7
640.793	1	1
641.980	1	6
643.167	1	5
644.354	1	4
645.541	1	0
646.728	1	7
647.914	1	2
649.101	1	-6
650.288	1	-3
651.474	1	4
652.661	1	2
653.847	1	11
655.034	1	-1
656.220	1	-1
657.406	1	3
658.593	1	11
659.779	1	-1
660.965	1	4
662.152	1	0
663.338	1	7
664.524	1	7
665.710	1	3
666.896	1	6
668.082	1	8
669.268	1	-1
670.454	1	10
671.640	1	4
672.826	1	-2
674.011	1	8
675.197	1	6
676.383	1	-2
677.569	1	14
678.754	1	5
679.940	1	-5
681.125	1	-12
682.311	1	2
683.496	1	3
684.682	1	3
685.867	1	7
687.053	1	16
688.238	1	12
688.746	1	1