File: Data/GaN_150K_450ms/GaN_sample D_spot15_UVVIS_150 K_200um_450 ms 2x2mm1_82.txt
340.368	1	4
341.565	1	8
342.763	1	7
343.960	1	9
345.157	1	19
346.354	1	3
347.552	1	23
348.749	1	14
349.946	1	8
351.143	1	5
352.340	1	7
353.537	1	9
354.734	1	15
355.931	1	14
357.127	1	20
358.324	1	15
359.521	1	19
360.718	1	41
361.914	1	45
363.111	1	56
364.308	1	82
365.504	1	105
366.701	1	133
367.897	1	150
369.093	1	150
370.290	1	145
371.486	1	110
372.682	1	96
373.879	1	75
375.075	1	55
376.271	1	63
377.467	1	58
378.663	1	49
379.859	1	49
381.055	1	33
382.251	1	32
383.447	1	33
384.643	1	29
385.839	1	29
387.035	1	24
388.230	1	13
389.426	1	13
390.622	1	7
391.817	1	8
393.013	1	12
394.208	1	10
395.404	1	20
396.599	1	16
397.795	1	18
398.990	1	18
400.186	1	19
401.381	1	9
402.576	1	23
403.771	1	5
404.967	1	8
406.162	1	8
407.357	1	20
408.552	1	8
409.747	1	11
410.942	1	23
412.137	1	9
413.332	1	21
414.526	1	8
415.721	1	20
416.916	1	7
418.111	1	24
419.305	1	20
420.500	1	20
421.695	1	16
422.889	1	22
424.084	1	25
425.278	1	14
426.472	1	29
427.667	1	10
428.861	1	27
430.055	1	18
431.250	1	18
432.444	1	11
433.638	1	22
434.832	1	11
436.026	1	25
437.220	1	16
438.414	1	14
439.608	1	10
440.802	1	12
441.996	1	18
443.190	1	20
444.384	1	16
445.578	1	3
446.771	1	12
447.965	1	5
449.159	1	8
450.352	1	8
451.546	1	17
452.739	1	13
453.933	1	4
455.126	1	10
456.320	1	11
457.513	1	6
458.706	1	18
459.899	1	10
461.093	1	19
462.286	1	10
463.479	1	0
464.672	1	6
465.865	1	5
467.058	1	24
468.251	1	3
469.444	1	13
470.637	1	18
471.830	1	15
473.023	1	17
474.215	1	11
475.408	1	4
476.601	1	13
477.793	1	12
478.986	1	11
480.179	1	14
481.371	1	1
482.564	1	16
483.756	1	12
484.948	1	16
486.141	1	18
487.333	1	8
488.525	1	3
489.718	1	0
490.910	1	19
492.102	1	19
493.294	1	10
494.486	1	22
495.678	1	11
496.870	1	23
498.062	1	16
499.254	1	30
500.446	1	25
501.638	1	22
502.829	1	19
504.021	1	33
505.213	1	23
506.404	1	31
507.596	1	39
508.788	1	37
509.979	1	28
511.171	1	39
512.362	1	43
513.553	1	42
514.745	1	36
515.936	1	39
517.127	1	39
518.319	1	33
519.510	1	33
520.701	1	40
521.892	1	45
523.083	1	31
524.274	1	47
525.465	1	41
526.656	1	47
527.847	1	35
529.038	1	48
530.229	1	49
531.419	1	43
532.610	1	45
533.801	1	47
534.991	1	43
536.182	1	45
537.373	1	27
538.563	1	43
539.754	1	39
540.944	1	39
542.134	1	35
543.325	1	33
544.515	1	42
545.705	1	40
546.896	1	44
548.086	1	40
549.276	1	42
550.466	1	37
551.656	1	41
552.846	1	39
554.036	1	31
555.226	1	36
556.416	1	28
557.606	1	18
558.796	1	41
559.986	1	34
561.175	1	28
562.365	1	29
563.555	1	32
564.744	1	38
565.934	1	31
567.123	1	27
568.313	1	31
569.502	1	27
570.692	1	26
571.881	1	14
573.070	1	22
574.260	1	25
575.449	1	14
576.638	1	19
577.827	1	16
579.016	1	10
580.205	1	17
581.394	1	26
582.583	1	24
583.772	1	25
584.961	1	7
586.150	1	16
587.339	1	12
588.528	1	7
589.717	1	12
590.905	1	16
592.094	1	13
593.283	1	14
594.471	1	10
595.660	1	11
596.848	1	11
598.037	1	15
599.225	1	14
600.413	1	4
601.602	1	4
602.790	1	6
603.978	1	6
605.166	1	19
606.355	1	1
607.543	1	8
608.731	1	9
609.919	1	6
611.107	1	9
612.295	1	20
613.483	1	13
614.671	1	5
615.858	1	-1
617.046	1	3
618.234	1	8
619.422	1	14
620.609	1	5
621.797	1	3
622.985	1	3
624.172	1	14
625.360	1	7
626.547	1	3
627.735	1	13
628.922	1	12
630.109	1	-5
631.297	1	10
632.484	1	18
633.671	1	15
634.858	1	5
636.045	1	8
637.232	1	6
638.419	1	9
639.606	1	16
640.793	1	6
641.980	1	7
643.167	1	2
644.354	1	11
645.541	1	3
646.728	1	8
647.914	1	5
649.101	1	2
650.288	1	7
651.474	1	14
652.661	1	11
653.847	1	4
655.034	1	10
656.220	1	23
657.406	1	-3
658.593	1	13
659.779	1	8
660.965	1	8
662.152	1	12
663.338	1	4
664.524	1	18
665.710	1	11
666.896	1	15
668.082	1	7
669.268	1	6
670.454	1	13
671.640	1	3
672.826	1	5
674.011	1	22
675.197	1	4
676.383	1	7
677.569	1	18
678.754	1	-1
679.940	1	-1
681.125	1	6
682.311	1	10
683.496	1	1
684.682	1	10
685.867	1	14
687.053	1	21
688.238	1	12
688.746	1	11