File: Data/GaN_150K_450ms/GaN_sample D_spot15_UVVIS_150 K_200um_450 ms 2x2mm1_305.txt
340.368	1	2
341.565	1	8
342.763	1	5
343.960	1	0
345.157	1	9
346.354	1	1
347.552	1	9
348.749	1	8
349.946	1	-4
351.143	1	9
352.340	1	11
353.537	1	-4
354.734	1	0
355.931	1	5
357.127	1	13
358.324	1	12
359.521	1	8
360.718	1	1
361.914	1	13
363.111	1	6
364.308	1	11
365.504	1	8
366.701	1	-2
367.897	1	10
369.093	1	15
370.290	1	18
371.486	1	15
372.682	1	10
373.879	1	-4
375.075	1	-5
376.271	1	1
377.467	1	11
378.663	1	6
379.859	1	-5
381.055	1	-4
382.251	1	2
383.447	1	11
384.643	1	3
385.839	1	7
387.035	1	-3
388.230	1	3
389.426	1	-2
390.622	1	-9
391.817	1	-5
393.013	1	5
394.208	1	-4
395.404	1	2
396.599	1	2
397.795	1	-2
398.990	1	7
400.186	1	6
401.381	1	0
402.576	1	0
403.771	1	-13
404.967	1	0
406.162	1	-8
407.357	1	4
408.552	1	-9
409.747	1	4
410.942	1	12
412.137	1	-4
413.332	1	5
414.526	1	-2
415.721	1	5
416.916	1	5
418.111	1	12
419.305	1	5
420.500	1	3
421.695	1	10
422.889	1	1
424.084	1	4
425.278	1	4
426.472	1	12
427.667	1	-7
428.861	1	7
430.055	1	9
431.250	1	1
432.444	1	5
433.638	1	9
434.832	1	3
436.026	1	4
437.220	1	3
438.414	1	1
439.608	1	-10
440.802	1	-5
441.996	1	-4
443.190	1	7
444.384	1	-1
445.578	1	-8
446.771	1	2
447.965	1	1
449.159	1	0
450.352	1	-9
451.546	1	4
452.739	1	7
453.933	1	-7
455.126	1	5
456.320	1	1
457.513	1	2
458.706	1	9
459.899	1	-1
461.093	1	-1
462.286	1	-7
463.479	1	-3
464.672	1	1
465.865	1	4
467.058	1	-5
468.251	1	-6
469.444	1	-3
470.637	1	-3
471.830	1	0
473.023	1	0
474.215	1	5
475.408	1	9
476.601	1	-2
477.793	1	3
478.986	1	13
480.179	1	-4
481.371	1	-12
482.564	1	2
483.756	1	3
484.948	1	9
486.141	1	5
487.333	1	-1
488.525	1	-3
489.718	1	-7
490.910	1	5
492.102	1	13
493.294	1	-8
494.486	1	2
495.678	1	-7
496.870	1	8
498.062	1	1
499.254	1	-8
500.446	1	0
501.638	1	10
502.829	1	4
504.021	1	7
505.213	1	2
506.404	1	5
507.596	1	13
508.788	1	1
509.979	1	-5
511.171	1	1
512.362	1	9
513.553	1	8
514.745	1	7
515.936	1	4
517.127	1	2
518.319	1	1
519.510	1	-3
520.701	1	3
521.892	1	-4
523.083	1	-3
524.274	1	1
525.465	1	10
526.656	1	0
527.847	1	-10
529.038	1	3
530.229	1	-7
531.419	1	2
532.610	1	0
533.801	1	8
534.991	1	-2
536.182	1	3
537.373	1	-1
538.563	1	1
539.754	1	2
540.944	1	3
542.134	1	-1
543.325	1	8
544.515	1	4
545.705	1	3
546.896	1	0
548.086	1	1
549.276	1	5
550.466	1	-3
551.656	1	1
552.846	1	8
554.036	1	16
555.226	1	0
556.416	1	8
557.606	1	-1
558.796	1	14
559.986	1	2
561.175	1	-7
562.365	1	-1
563.555	1	-1
564.744	1	6
565.934	1	12
567.123	1	16
568.313	1	8
569.502	1	7
570.692	1	8
571.881	1	-3
573.070	1	5
574.260	1	-6
575.449	1	-4
576.638	1	11
577.827	1	2
579.016	1	4
580.205	1	0
581.394	1	1
582.583	1	-5
583.772	1	1
584.961	1	-3
586.150	1	-3
587.339	1	-3
588.528	1	-4
589.717	1	-2
590.905	1	-2
592.094	1	12
593.283	1	5
594.471	1	-7
595.660	1	9
596.848	1	5
598.037	1	-3
599.225	1	1
600.413	1	4
601.602	1	5
602.790	1	-3
603.978	1	6
605.166	1	4
606.355	1	-11
607.543	1	-7
608.731	1	-9
609.919	1	0
611.107	1	11
612.295	1	2
613.483	1	-11
614.671	1	10
615.858	1	-3
617.046	1	3
618.234	1	-3
619.422	1	13
620.609	1	-2
621.797	1	-2
622.985	1	-7
624.172	1	0
625.360	1	-4
626.547	1	-3
627.735	1	10
628.922	1	5
630.109	1	1
631.297	1	6
632.484	1	12
633.671	1	1
634.858	1	4
636.045	1	1
637.232	1	6
638.419	1	-6
639.606	1	4
640.793	1	0
641.980	1	12
643.167	1	10
644.354	1	8
645.541	1	-3
646.728	1	-3
647.914	1	-2
649.101	1	1
650.288	1	4
651.474	1	4
652.661	1	10
653.847	1	7
655.034	1	-5
656.220	1	1
657.406	1	-3
658.593	1	1
659.779	1	10
660.965	1	-4
662.152	1	1
663.338	1	-8
664.524	1	12
665.710	1	-5
666.896	1	-3
668.082	1	0
669.268	1	-8
670.454	1	2
671.640	1	5
672.826	1	3
674.011	1	6
675.197	1	13
676.383	1	5
677.569	1	16
678.754	1	8
679.940	1	-1
681.125	1	-1
682.311	1	11
683.496	1	-4
684.682	1	6
685.867	1	9
687.053	1	19
688.238	1	5
688.746	1	1