File: Data/GaN_150K_450ms/GaN_sample D_spot15_UVVIS_150 K_200um_450 ms 2x2mm1_58.txt
340.368	1	6
341.565	1	5
342.763	1	10
343.960	1	8
345.157	1	10
346.354	1	3
347.552	1	9
348.749	1	21
349.946	1	4
351.143	1	18
352.340	1	16
353.537	1	2
354.734	1	9
355.931	1	17
357.127	1	32
358.324	1	39
359.521	1	59
360.718	1	71
361.914	1	102
363.111	1	145
364.308	1	235
365.504	1	343
366.701	1	497
367.897	1	557
369.093	1	541
370.290	1	453
371.486	1	354
372.682	1	278
373.879	1	227
375.075	1	201
376.271	1	140
377.467	1	139
378.663	1	97
379.859	1	85
381.055	1	84
382.251	1	64
383.447	1	71
384.643	1	61
385.839	1	72
387.035	1	61
388.230	1	48
389.426	1	53
390.622	1	52
391.817	1	39
393.013	1	44
394.208	1	42
395.404	1	41
396.599	1	43
397.795	1	36
398.990	1	38
400.186	1	34
401.381	1	32
402.576	1	29
403.771	1	14
404.967	1	31
406.162	1	18
407.357	1	27
408.552	1	17
409.747	1	28
410.942	1	26
412.137	1	23
413.332	1	15
414.526	1	8
415.721	1	18
416.916	1	15
418.111	1	22
419.305	1	18
420.500	1	20
421.695	1	26
422.889	1	19
424.084	1	19
425.278	1	26
426.472	1	25
427.667	1	18
428.861	1	18
430.055	1	27
431.250	1	18
432.444	1	19
433.638	1	9
434.832	1	11
436.026	1	19
437.220	1	24
438.414	1	10
439.608	1	14
440.802	1	18
441.996	1	11
443.190	1	15
444.384	1	22
445.578	1	8
446.771	1	3
447.965	1	15
449.159	1	3
450.352	1	10
451.546	1	16
452.739	1	12
453.933	1	14
455.126	1	11
456.320	1	17
457.513	1	19
458.706	1	16
459.899	1	12
461.093	1	15
462.286	1	14
463.479	1	9
464.672	1	16
465.865	1	13
467.058	1	16
468.251	1	9
469.444	1	15
470.637	1	16
471.830	1	15
473.023	1	14
474.215	1	11
475.408	1	23
476.601	1	19
477.793	1	20
478.986	1	21
480.179	1	19
481.371	1	17
482.564	1	26
483.756	1	15
484.948	1	30
486.141	1	29
487.333	1	16
488.525	1	39
489.718	1	23
490.910	1	38
492.102	1	36
493.294	1	34
494.486	1	45
495.678	1	37
496.870	1	40
498.062	1	42
499.254	1	46
500.446	1	54
501.638	1	81
502.829	1	74
504.021	1	73
505.213	1	65
506.404	1	81
507.596	1	86
508.788	1	75
509.979	1	89
511.171	1	87
512.362	1	95
513.553	1	105
514.745	1	98
515.936	1	90
517.127	1	110
518.319	1	114
519.510	1	97
520.701	1	117
521.892	1	114
523.083	1	105
524.274	1	112
525.465	1	123
526.656	1	114
527.847	1	109
529.038	1	115
530.229	1	135
531.419	1	127
532.610	1	141
533.801	1	117
534.991	1	116
536.182	1	111
537.373	1	110
538.563	1	98
539.754	1	102
540.944	1	102
542.134	1	116
543.325	1	103
544.515	1	106
545.705	1	116
546.896	1	116
548.086	1	109
549.276	1	110
550.466	1	102
551.656	1	101
552.846	1	99
554.036	1	98
555.226	1	91
556.416	1	99
557.606	1	66
558.796	1	80
559.986	1	79
561.175	1	64
562.365	1	83
563.555	1	81
564.744	1	82
565.934	1	77
567.123	1	61
568.313	1	65
569.502	1	73
570.692	1	66
571.881	1	59
573.070	1	59
574.260	1	55
575.449	1	51
576.638	1	64
577.827	1	48
579.016	1	53
580.205	1	53
581.394	1	57
582.583	1	50
583.772	1	53
584.961	1	41
586.150	1	50
587.339	1	48
588.528	1	34
589.717	1	44
590.905	1	28
592.094	1	33
593.283	1	39
594.471	1	27
595.660	1	31
596.848	1	37
598.037	1	36
599.225	1	33
600.413	1	33
601.602	1	36
602.790	1	38
603.978	1	31
605.166	1	33
606.355	1	20
607.543	1	31
608.731	1	28
609.919	1	26
611.107	1	43
612.295	1	40
613.483	1	31
614.671	1	37
615.858	1	23
617.046	1	21
618.234	1	37
619.422	1	38
620.609	1	24
621.797	1	29
622.985	1	13
624.172	1	22
625.360	1	22
626.547	1	15
627.735	1	21
628.922	1	20
630.109	1	19
631.297	1	23
632.484	1	30
633.671	1	17
634.858	1	25
636.045	1	30
637.232	1	11
638.419	1	27
639.606	1	30
640.793	1	10
641.980	1	25
643.167	1	21
644.354	1	26
645.541	1	18
646.728	1	23
647.914	1	12
649.101	1	12
650.288	1	17
651.474	1	17
652.661	1	19
653.847	1	22
655.034	1	17
656.220	1	27
657.406	1	13
658.593	1	20
659.779	1	17
660.965	1	19
662.152	1	10
663.338	1	3
664.524	1	15
665.710	1	11
666.896	1	16
668.082	1	17
669.268	1	12
670.454	1	22
671.640	1	21
672.826	1	14
674.011	1	25
675.197	1	26
676.383	1	14
677.569	1	22
678.754	1	14
679.940	1	14
681.125	1	10
682.311	1	14
683.496	1	16
684.682	1	16
685.867	1	16
687.053	1	33
688.238	1	26
688.746	1	15