File: Data/GaN_150K_450ms/GaN_sample D_spot15_UVVIS_150 K_200um_450 ms 2x2mm1_81.txt
340.368	1	6
341.565	1	-3
342.763	1	8
343.960	1	11
345.157	1	11
346.354	1	6
347.552	1	10
348.749	1	16
349.946	1	7
351.143	1	12
352.340	1	11
353.537	1	10
354.734	1	18
355.931	1	15
357.127	1	24
358.324	1	22
359.521	1	28
360.718	1	32
361.914	1	43
363.111	1	50
364.308	1	83
365.504	1	95
366.701	1	146
367.897	1	158
369.093	1	151
370.290	1	140
371.486	1	118
372.682	1	88
373.879	1	76
375.075	1	63
376.271	1	53
377.467	1	52
378.663	1	45
379.859	1	42
381.055	1	27
382.251	1	13
383.447	1	23
384.643	1	21
385.839	1	27
387.035	1	22
388.230	1	24
389.426	1	12
390.622	1	14
391.817	1	-2
393.013	1	18
394.208	1	17
395.404	1	13
396.599	1	12
397.795	1	7
398.990	1	19
400.186	1	10
401.381	1	19
402.576	1	20
403.771	1	2
404.967	1	12
406.162	1	9
407.357	1	32
408.552	1	12
409.747	1	14
410.942	1	23
412.137	1	17
413.332	1	21
414.526	1	8
415.721	1	22
416.916	1	5
418.111	1	21
419.305	1	27
420.500	1	17
421.695	1	19
422.889	1	15
424.084	1	23
425.278	1	19
426.472	1	23
427.667	1	12
428.861	1	20
430.055	1	17
431.250	1	8
432.444	1	10
433.638	1	18
434.832	1	14
436.026	1	9
437.220	1	18
438.414	1	20
439.608	1	15
440.802	1	11
441.996	1	11
443.190	1	15
444.384	1	16
445.578	1	5
446.771	1	12
447.965	1	20
449.159	1	21
450.352	1	10
451.546	1	7
452.739	1	16
453.933	1	5
455.126	1	18
456.320	1	15
457.513	1	14
458.706	1	15
459.899	1	7
461.093	1	6
462.286	1	7
463.479	1	9
464.672	1	5
465.865	1	7
467.058	1	15
468.251	1	-1
469.444	1	4
470.637	1	2
471.830	1	8
473.023	1	22
474.215	1	15
475.408	1	14
476.601	1	6
477.793	1	15
478.986	1	8
480.179	1	16
481.371	1	2
482.564	1	12
483.756	1	13
484.948	1	9
486.141	1	21
487.333	1	8
488.525	1	13
489.718	1	13
490.910	1	3
492.102	1	19
493.294	1	9
494.486	1	16
495.678	1	15
496.870	1	15
498.062	1	16
499.254	1	12
500.446	1	10
501.638	1	35
502.829	1	21
504.021	1	27
505.213	1	31
506.404	1	25
507.596	1	39
508.788	1	27
509.979	1	28
511.171	1	33
512.362	1	47
513.553	1	31
514.745	1	39
515.936	1	37
517.127	1	43
518.319	1	37
519.510	1	37
520.701	1	51
521.892	1	42
523.083	1	33
524.274	1	41
525.465	1	49
526.656	1	44
527.847	1	38
529.038	1	38
530.229	1	49
531.419	1	50
532.610	1	44
533.801	1	46
534.991	1	34
536.182	1	45
537.373	1	37
538.563	1	39
539.754	1	41
540.944	1	47
542.134	1	42
543.325	1	45
544.515	1	31
545.705	1	32
546.896	1	34
548.086	1	42
549.276	1	38
550.466	1	41
551.656	1	31
552.846	1	40
554.036	1	35
555.226	1	35
556.416	1	34
557.606	1	21
558.796	1	43
559.986	1	33
561.175	1	11
562.365	1	23
563.555	1	35
564.744	1	38
565.934	1	26
567.123	1	31
568.313	1	28
569.502	1	20
570.692	1	21
571.881	1	20
573.070	1	20
574.260	1	22
575.449	1	8
576.638	1	27
577.827	1	5
579.016	1	14
580.205	1	21
581.394	1	12
582.583	1	25
583.772	1	17
584.961	1	1
586.150	1	18
587.339	1	7
588.528	1	10
589.717	1	9
590.905	1	13
592.094	1	16
593.283	1	15
594.471	1	10
595.660	1	17
596.848	1	11
598.037	1	6
599.225	1	9
600.413	1	4
601.602	1	11
602.790	1	16
603.978	1	18
605.166	1	11
606.355	1	-6
607.543	1	12
608.731	1	-2
609.919	1	1
611.107	1	15
612.295	1	7
613.483	1	4
614.671	1	14
615.858	1	6
617.046	1	10
618.234	1	2
619.422	1	25
620.609	1	7
621.797	1	7
622.985	1	7
624.172	1	3
625.360	1	7
626.547	1	2
627.735	1	12
628.922	1	6
630.109	1	-1
631.297	1	10
632.484	1	14
633.671	1	13
634.858	1	12
636.045	1	6
637.232	1	18
638.419	1	3
639.606	1	12
640.793	1	17
641.980	1	9
643.167	1	9
644.354	1	14
645.541	1	1
646.728	1	1
647.914	1	16
649.101	1	5
650.288	1	8
651.474	1	12
652.661	1	13
653.847	1	10
655.034	1	5
656.220	1	15
657.406	1	4
658.593	1	12
659.779	1	9
660.965	1	-1
662.152	1	4
663.338	1	-1
664.524	1	13
665.710	1	8
666.896	1	11
668.082	1	-3
669.268	1	6
670.454	1	7
671.640	1	10
672.826	1	11
674.011	1	4
675.197	1	12
676.383	1	6
677.569	1	24
678.754	1	2
679.940	1	0
681.125	1	2
682.311	1	5
683.496	1	1
684.682	1	11
685.867	1	3
687.053	1	21
688.238	1	15
688.746	1	1