File: Data/GaN_150K_450ms/GaN_sample D_spot15_UVVIS_150 K_200um_450 ms 2x2mm1_273.txt
340.368	1	3
341.565	1	1
342.763	1	1
343.960	1	13
345.157	1	9
346.354	1	-1
347.552	1	15
348.749	1	6
349.946	1	-4
351.143	1	10
352.340	1	3
353.537	1	-4
354.734	1	2
355.931	1	6
357.127	1	8
358.324	1	0
359.521	1	10
360.718	1	-3
361.914	1	8
363.111	1	2
364.308	1	8
365.504	1	5
366.701	1	5
367.897	1	14
369.093	1	13
370.290	1	17
371.486	1	22
372.682	1	10
373.879	1	2
375.075	1	-5
376.271	1	8
377.467	1	8
378.663	1	8
379.859	1	8
381.055	1	1
382.251	1	-6
383.447	1	3
384.643	1	1
385.839	1	2
387.035	1	7
388.230	1	2
389.426	1	0
390.622	1	1
391.817	1	-5
393.013	1	9
394.208	1	6
395.404	1	2
396.599	1	6
397.795	1	2
398.990	1	16
400.186	1	4
401.381	1	6
402.576	1	1
403.771	1	-8
404.967	1	-1
406.162	1	-4
407.357	1	10
408.552	1	-1
409.747	1	1
410.942	1	15
412.137	1	1
413.332	1	5
414.526	1	0
415.721	1	6
416.916	1	-2
418.111	1	2
419.305	1	10
420.500	1	1
421.695	1	0
422.889	1	-1
424.084	1	1
425.278	1	2
426.472	1	4
427.667	1	0
428.861	1	5
430.055	1	8
431.250	1	7
432.444	1	7
433.638	1	-3
434.832	1	-6
436.026	1	3
437.220	1	7
438.414	1	12
439.608	1	0
440.802	1	8
441.996	1	-5
443.190	1	-2
444.384	1	6
445.578	1	-5
446.771	1	2
447.965	1	0
449.159	1	-5
450.352	1	-2
451.546	1	-1
452.739	1	8
453.933	1	-4
455.126	1	4
456.320	1	13
457.513	1	-4
458.706	1	15
459.899	1	1
461.093	1	2
462.286	1	5
463.479	1	0
464.672	1	6
465.865	1	-7
467.058	1	-3
468.251	1	-16
469.444	1	6
470.637	1	-3
471.830	1	6
473.023	1	3
474.215	1	5
475.408	1	5
476.601	1	4
477.793	1	1
478.986	1	5
480.179	1	13
481.371	1	0
482.564	1	-1
483.756	1	-3
484.948	1	1
486.141	1	3
487.333	1	0
488.525	1	2
489.718	1	-8
490.910	1	1
492.102	1	-5
493.294	1	-8
494.486	1	-8
495.678	1	4
496.870	1	-5
498.062	1	0
499.254	1	-4
500.446	1	-4
501.638	1	5
502.829	1	0
504.021	1	-3
505.213	1	-3
506.404	1	5
507.596	1	9
508.788	1	2
509.979	1	6
511.171	1	9
512.362	1	8
513.553	1	1
514.745	1	3
515.936	1	-5
517.127	1	6
518.319	1	0
519.510	1	0
520.701	1	-6
521.892	1	8
523.083	1	0
524.274	1	2
525.465	1	7
526.656	1	4
527.847	1	-10
529.038	1	-7
530.229	1	14
531.419	1	1
532.610	1	7
533.801	1	0
534.991	1	-1
536.182	1	-5
537.373	1	-7
538.563	1	-2
539.754	1	2
540.944	1	3
542.134	1	-2
543.325	1	6
544.515	1	-7
545.705	1	2
546.896	1	-1
548.086	1	2
549.276	1	5
550.466	1	6
551.656	1	2
552.846	1	3
554.036	1	10
555.226	1	0
556.416	1	6
557.606	1	-7
558.796	1	9
559.986	1	-1
561.175	1	-3
562.365	1	5
563.555	1	11
564.744	1	10
565.934	1	15
567.123	1	4
568.313	1	5
569.502	1	0
570.692	1	6
571.881	1	0
573.070	1	11
574.260	1	4
575.449	1	-6
576.638	1	14
577.827	1	-4
579.016	1	-1
580.205	1	2
581.394	1	5
582.583	1	-2
583.772	1	17
584.961	1	-2
586.150	1	-6
587.339	1	-3
588.528	1	-5
589.717	1	0
590.905	1	-2
592.094	1	19
593.283	1	4
594.471	1	-5
595.660	1	4
596.848	1	-2
598.037	1	-4
599.225	1	-5
600.413	1	0
601.602	1	4
602.790	1	10
603.978	1	2
605.166	1	5
606.355	1	-16
607.543	1	3
608.731	1	-4
609.919	1	-9
611.107	1	8
612.295	1	3
613.483	1	3
614.671	1	6
615.858	1	-11
617.046	1	-1
618.234	1	-5
619.422	1	7
620.609	1	2
621.797	1	1
622.985	1	3
624.172	1	5
625.360	1	6
626.547	1	-12
627.735	1	-1
628.922	1	15
630.109	1	-3
631.297	1	1
632.484	1	10
633.671	1	7
634.858	1	0
636.045	1	2
637.232	1	3
638.419	1	4
639.606	1	4
640.793	1	5
641.980	1	6
643.167	1	10
644.354	1	14
645.541	1	-10
646.728	1	8
647.914	1	1
649.101	1	-2
650.288	1	3
651.474	1	5
652.661	1	5
653.847	1	-1
655.034	1	-5
656.220	1	5
657.406	1	6
658.593	1	19
659.779	1	5
660.965	1	4
662.152	1	0
663.338	1	-2
664.524	1	11
665.710	1	10
666.896	1	-7
668.082	1	3
669.268	1	-9
670.454	1	8
671.640	1	8
672.826	1	-1
674.011	1	9
675.197	1	5
676.383	1	4
677.569	1	14
678.754	1	1
679.940	1	-4
681.125	1	-2
682.311	1	5
683.496	1	2
684.682	1	3
685.867	1	-1
687.053	1	10
688.238	1	13
688.746	1	3