File: Data/GaN_150K_450ms/GaN_sample D_spot15_UVVIS_150 K_200um_450 ms 2x2mm1_79.txt
340.368	1	0
341.565	1	0
342.763	1	8
343.960	1	7
345.157	1	18
346.354	1	5
347.552	1	19
348.749	1	8
349.946	1	5
351.143	1	18
352.340	1	14
353.537	1	2
354.734	1	22
355.931	1	17
357.127	1	12
358.324	1	19
359.521	1	35
360.718	1	29
361.914	1	51
363.111	1	59
364.308	1	85
365.504	1	114
366.701	1	141
367.897	1	170
369.093	1	167
370.290	1	156
371.486	1	126
372.682	1	89
373.879	1	79
375.075	1	62
376.271	1	59
377.467	1	61
378.663	1	47
379.859	1	42
381.055	1	34
382.251	1	28
383.447	1	32
384.643	1	18
385.839	1	32
387.035	1	20
388.230	1	18
389.426	1	12
390.622	1	3
391.817	1	10
393.013	1	21
394.208	1	14
395.404	1	22
396.599	1	15
397.795	1	13
398.990	1	28
400.186	1	22
401.381	1	17
402.576	1	24
403.771	1	4
404.967	1	11
406.162	1	8
407.357	1	20
408.552	1	8
409.747	1	12
410.942	1	21
412.137	1	5
413.332	1	26
414.526	1	-2
415.721	1	16
416.916	1	20
418.111	1	17
419.305	1	19
420.500	1	19
421.695	1	20
422.889	1	8
424.084	1	11
425.278	1	12
426.472	1	14
427.667	1	12
428.861	1	19
430.055	1	14
431.250	1	13
432.444	1	23
433.638	1	17
434.832	1	13
436.026	1	13
437.220	1	19
438.414	1	22
439.608	1	11
440.802	1	15
441.996	1	10
443.190	1	14
444.384	1	12
445.578	1	10
446.771	1	18
447.965	1	12
449.159	1	2
450.352	1	12
451.546	1	9
452.739	1	5
453.933	1	10
455.126	1	2
456.320	1	13
457.513	1	7
458.706	1	19
459.899	1	5
461.093	1	9
462.286	1	2
463.479	1	9
464.672	1	12
465.865	1	10
467.058	1	7
468.251	1	2
469.444	1	12
470.637	1	4
471.830	1	13
473.023	1	10
474.215	1	7
475.408	1	8
476.601	1	12
477.793	1	11
478.986	1	9
480.179	1	14
481.371	1	2
482.564	1	16
483.756	1	15
484.948	1	13
486.141	1	23
487.333	1	14
488.525	1	16
489.718	1	6
490.910	1	22
492.102	1	24
493.294	1	0
494.486	1	14
495.678	1	14
496.870	1	22
498.062	1	15
499.254	1	25
500.446	1	11
501.638	1	20
502.829	1	28
504.021	1	26
505.213	1	27
506.404	1	31
507.596	1	36
508.788	1	28
509.979	1	22
511.171	1	41
512.362	1	46
513.553	1	36
514.745	1	34
515.936	1	32
517.127	1	52
518.319	1	38
519.510	1	34
520.701	1	42
521.892	1	46
523.083	1	36
524.274	1	38
525.465	1	48
526.656	1	49
527.847	1	33
529.038	1	44
530.229	1	53
531.419	1	38
532.610	1	52
533.801	1	46
534.991	1	50
536.182	1	35
537.373	1	31
538.563	1	34
539.754	1	46
540.944	1	37
542.134	1	46
543.325	1	43
544.515	1	39
545.705	1	37
546.896	1	45
548.086	1	41
549.276	1	43
550.466	1	37
551.656	1	34
552.846	1	40
554.036	1	25
555.226	1	33
556.416	1	30
557.606	1	23
558.796	1	35
559.986	1	40
561.175	1	25
562.365	1	30
563.555	1	37
564.744	1	29
565.934	1	27
567.123	1	26
568.313	1	26
569.502	1	27
570.692	1	28
571.881	1	13
573.070	1	18
574.260	1	20
575.449	1	24
576.638	1	19
577.827	1	16
579.016	1	19
580.205	1	15
581.394	1	20
582.583	1	25
583.772	1	25
584.961	1	4
586.150	1	17
587.339	1	15
588.528	1	12
589.717	1	12
590.905	1	12
592.094	1	18
593.283	1	11
594.471	1	2
595.660	1	8
596.848	1	11
598.037	1	7
599.225	1	14
600.413	1	9
601.602	1	22
602.790	1	13
603.978	1	8
605.166	1	10
606.355	1	7
607.543	1	7
608.731	1	11
609.919	1	-7
611.107	1	21
612.295	1	15
613.483	1	10
614.671	1	12
615.858	1	-4
617.046	1	15
618.234	1	1
619.422	1	21
620.609	1	9
621.797	1	14
622.985	1	12
624.172	1	13
625.360	1	6
626.547	1	5
627.735	1	7
628.922	1	18
630.109	1	13
631.297	1	5
632.484	1	20
633.671	1	13
634.858	1	11
636.045	1	8
637.232	1	15
638.419	1	3
639.606	1	14
640.793	1	4
641.980	1	23
643.167	1	8
644.354	1	19
645.541	1	10
646.728	1	1
647.914	1	13
649.101	1	8
650.288	1	8
651.474	1	7
652.661	1	10
653.847	1	13
655.034	1	8
656.220	1	14
657.406	1	-3
658.593	1	11
659.779	1	9
660.965	1	11
662.152	1	4
663.338	1	-1
664.524	1	16
665.710	1	6
666.896	1	4
668.082	1	8
669.268	1	-1
670.454	1	1
671.640	1	8
672.826	1	-2
674.011	1	5
675.197	1	14
676.383	1	11
677.569	1	24
678.754	1	3
679.940	1	3
681.125	1	-2
682.311	1	16
683.496	1	8
684.682	1	12
685.867	1	13
687.053	1	20
688.238	1	17
688.746	1	10