File: Data/GaN_150K_450ms/GaN_sample D_spot15_UVVIS_150 K_200um_450 ms 2x2mm1_96.txt
340.368	1	8
341.565	1	8
342.763	1	0
343.960	1	0
345.157	1	12
346.354	1	2
347.552	1	13
348.749	1	10
349.946	1	8
351.143	1	14
352.340	1	13
353.537	1	1
354.734	1	13
355.931	1	13
357.127	1	18
358.324	1	10
359.521	1	27
360.718	1	22
361.914	1	41
363.111	1	45
364.308	1	52
365.504	1	62
366.701	1	87
367.897	1	100
369.093	1	107
370.290	1	92
371.486	1	78
372.682	1	64
373.879	1	57
375.075	1	37
376.271	1	47
377.467	1	42
378.663	1	34
379.859	1	19
381.055	1	28
382.251	1	20
383.447	1	11
384.643	1	14
385.839	1	21
387.035	1	27
388.230	1	18
389.426	1	17
390.622	1	10
391.817	1	-1
393.013	1	21
394.208	1	8
395.404	1	9
396.599	1	11
397.795	1	13
398.990	1	9
400.186	1	15
401.381	1	4
402.576	1	11
403.771	1	8
404.967	1	12
406.162	1	8
407.357	1	14
408.552	1	14
409.747	1	5
410.942	1	26
412.137	1	6
413.332	1	12
414.526	1	5
415.721	1	15
416.916	1	5
418.111	1	11
419.305	1	19
420.500	1	15
421.695	1	15
422.889	1	9
424.084	1	19
425.278	1	25
426.472	1	20
427.667	1	6
428.861	1	19
430.055	1	12
431.250	1	9
432.444	1	10
433.638	1	15
434.832	1	14
436.026	1	2
437.220	1	18
438.414	1	14
439.608	1	6
440.802	1	8
441.996	1	10
443.190	1	15
444.384	1	18
445.578	1	8
446.771	1	10
447.965	1	19
449.159	1	-8
450.352	1	7
451.546	1	-1
452.739	1	9
453.933	1	15
455.126	1	8
456.320	1	10
457.513	1	8
458.706	1	11
459.899	1	12
461.093	1	16
462.286	1	3
463.479	1	3
464.672	1	12
465.865	1	8
467.058	1	5
468.251	1	0
469.444	1	6
470.637	1	6
471.830	1	8
473.023	1	8
474.215	1	8
475.408	1	3
476.601	1	11
477.793	1	5
478.986	1	6
480.179	1	10
481.371	1	3
482.564	1	14
483.756	1	18
484.948	1	7
486.141	1	18
487.333	1	-2
488.525	1	0
489.718	1	-2
490.910	1	13
492.102	1	12
493.294	1	3
494.486	1	13
495.678	1	14
496.870	1	15
498.062	1	0
499.254	1	9
500.446	1	10
501.638	1	13
502.829	1	11
504.021	1	12
505.213	1	22
506.404	1	12
507.596	1	27
508.788	1	34
509.979	1	18
511.171	1	19
512.362	1	26
513.553	1	19
514.745	1	18
515.936	1	23
517.127	1	31
518.319	1	25
519.510	1	15
520.701	1	33
521.892	1	21
523.083	1	24
524.274	1	24
525.465	1	34
526.656	1	32
527.847	1	17
529.038	1	23
530.229	1	34
531.419	1	30
532.610	1	26
533.801	1	31
534.991	1	20
536.182	1	27
537.373	1	14
538.563	1	20
539.754	1	20
540.944	1	30
542.134	1	21
543.325	1	29
544.515	1	19
545.705	1	26
546.896	1	23
548.086	1	22
549.276	1	27
550.466	1	16
551.656	1	25
552.846	1	23
554.036	1	34
555.226	1	22
556.416	1	26
557.606	1	5
558.796	1	26
559.986	1	15
561.175	1	13
562.365	1	19
563.555	1	16
564.744	1	25
565.934	1	22
567.123	1	7
568.313	1	20
569.502	1	13
570.692	1	17
571.881	1	12
573.070	1	17
574.260	1	20
575.449	1	13
576.638	1	10
577.827	1	10
579.016	1	13
580.205	1	14
581.394	1	12
582.583	1	13
583.772	1	19
584.961	1	3
586.150	1	15
587.339	1	14
588.528	1	3
589.717	1	5
590.905	1	6
592.094	1	14
593.283	1	10
594.471	1	-2
595.660	1	1
596.848	1	11
598.037	1	8
599.225	1	4
600.413	1	8
601.602	1	10
602.790	1	18
603.978	1	6
605.166	1	9
606.355	1	-10
607.543	1	10
608.731	1	-4
609.919	1	5
611.107	1	16
612.295	1	8
613.483	1	13
614.671	1	9
615.858	1	-3
617.046	1	6
618.234	1	0
619.422	1	16
620.609	1	7
621.797	1	-1
622.985	1	1
624.172	1	7
625.360	1	2
626.547	1	5
627.735	1	0
628.922	1	18
630.109	1	-6
631.297	1	14
632.484	1	6
633.671	1	14
634.858	1	5
636.045	1	2
637.232	1	7
638.419	1	1
639.606	1	6
640.793	1	5
641.980	1	16
643.167	1	11
644.354	1	3
645.541	1	20
646.728	1	10
647.914	1	9
649.101	1	7
650.288	1	6
651.474	1	14
652.661	1	13
653.847	1	13
655.034	1	-5
656.220	1	2
657.406	1	4
658.593	1	3
659.779	1	7
660.965	1	6
662.152	1	12
663.338	1	5
664.524	1	16
665.710	1	2
666.896	1	13
668.082	1	8
669.268	1	0
670.454	1	8
671.640	1	12
672.826	1	6
674.011	1	6
675.197	1	10
676.383	1	9
677.569	1	13
678.754	1	3
679.940	1	6
681.125	1	9
682.311	1	7
683.496	1	-3
684.682	1	17
685.867	1	2
687.053	1	22
688.238	1	7
688.746	1	8