File: Data/GaN_150K_450ms/GaN_sample D_spot15_UVVIS_150 K_200um_450 ms 2x2mm1_155.txt
340.368	1	5
341.565	1	13
342.763	1	-1
343.960	1	12
345.157	1	7
346.354	1	2
347.552	1	11
348.749	1	5
349.946	1	-3
351.143	1	7
352.340	1	4
353.537	1	-9
354.734	1	5
355.931	1	17
357.127	1	3
358.324	1	16
359.521	1	13
360.718	1	11
361.914	1	15
363.111	1	13
364.308	1	14
365.504	1	17
366.701	1	26
367.897	1	46
369.093	1	43
370.290	1	37
371.486	1	37
372.682	1	28
373.879	1	24
375.075	1	6
376.271	1	12
377.467	1	16
378.663	1	25
379.859	1	7
381.055	1	5
382.251	1	5
383.447	1	8
384.643	1	1
385.839	1	10
387.035	1	8
388.230	1	7
389.426	1	-10
390.622	1	3
391.817	1	4
393.013	1	13
394.208	1	16
395.404	1	4
396.599	1	8
397.795	1	1
398.990	1	18
400.186	1	14
401.381	1	5
402.576	1	16
403.771	1	-3
404.967	1	9
406.162	1	1
407.357	1	7
408.552	1	4
409.747	1	5
410.942	1	19
412.137	1	3
413.332	1	4
414.526	1	7
415.721	1	16
416.916	1	6
418.111	1	15
419.305	1	11
420.500	1	2
421.695	1	21
422.889	1	12
424.084	1	15
425.278	1	3
426.472	1	21
427.667	1	2
428.861	1	5
430.055	1	12
431.250	1	11
432.444	1	7
433.638	1	10
434.832	1	5
436.026	1	5
437.220	1	12
438.414	1	20
439.608	1	0
440.802	1	8
441.996	1	4
443.190	1	12
444.384	1	13
445.578	1	-2
446.771	1	-2
447.965	1	15
449.159	1	-3
450.352	1	6
451.546	1	6
452.739	1	8
453.933	1	7
455.126	1	6
456.320	1	13
457.513	1	5
458.706	1	8
459.899	1	2
461.093	1	16
462.286	1	8
463.479	1	8
464.672	1	7
465.865	1	9
467.058	1	4
468.251	1	-1
469.444	1	9
470.637	1	0
471.830	1	7
473.023	1	5
474.215	1	6
475.408	1	11
476.601	1	2
477.793	1	-3
478.986	1	3
480.179	1	9
481.371	1	-3
482.564	1	2
483.756	1	12
484.948	1	8
486.141	1	10
487.333	1	-4
488.525	1	-1
489.718	1	-8
490.910	1	6
492.102	1	4
493.294	1	-10
494.486	1	6
495.678	1	4
496.870	1	8
498.062	1	-8
499.254	1	4
500.446	1	2
501.638	1	9
502.829	1	5
504.021	1	14
505.213	1	2
506.404	1	8
507.596	1	23
508.788	1	18
509.979	1	7
511.171	1	9
512.362	1	12
513.553	1	12
514.745	1	-3
515.936	1	3
517.127	1	12
518.319	1	4
519.510	1	-2
520.701	1	8
521.892	1	20
523.083	1	10
524.274	1	6
525.465	1	16
526.656	1	6
527.847	1	-1
529.038	1	4
530.229	1	17
531.419	1	7
532.610	1	16
533.801	1	7
534.991	1	7
536.182	1	9
537.373	1	14
538.563	1	12
539.754	1	11
540.944	1	10
542.134	1	14
543.325	1	18
544.515	1	8
545.705	1	3
546.896	1	7
548.086	1	14
549.276	1	19
550.466	1	7
551.656	1	11
552.846	1	10
554.036	1	18
555.226	1	11
556.416	1	19
557.606	1	0
558.796	1	10
559.986	1	10
561.175	1	3
562.365	1	12
563.555	1	8
564.744	1	7
565.934	1	31
567.123	1	-3
568.313	1	3
569.502	1	11
570.692	1	7
571.881	1	-8
573.070	1	11
574.260	1	8
575.449	1	-1
576.638	1	18
577.827	1	4
579.016	1	4
580.205	1	11
581.394	1	-2
582.583	1	5
583.772	1	8
584.961	1	-11
586.150	1	3
587.339	1	0
588.528	1	2
589.717	1	6
590.905	1	4
592.094	1	10
593.283	1	6
594.471	1	-2
595.660	1	3
596.848	1	14
598.037	1	0
599.225	1	5
600.413	1	4
601.602	1	8
602.790	1	-2
603.978	1	9
605.166	1	10
606.355	1	-12
607.543	1	6
608.731	1	-12
609.919	1	-14
611.107	1	17
612.295	1	12
613.483	1	1
614.671	1	0
615.858	1	2
617.046	1	4
618.234	1	2
619.422	1	9
620.609	1	-1
621.797	1	1
622.985	1	6
624.172	1	6
625.360	1	3
626.547	1	-1
627.735	1	10
628.922	1	2
630.109	1	3
631.297	1	7
632.484	1	8
633.671	1	9
634.858	1	10
636.045	1	-3
637.232	1	2
638.419	1	-1
639.606	1	9
640.793	1	2
641.980	1	4
643.167	1	11
644.354	1	10
645.541	1	8
646.728	1	8
647.914	1	12
649.101	1	5
650.288	1	3
651.474	1	5
652.661	1	5
653.847	1	12
655.034	1	1
656.220	1	6
657.406	1	1
658.593	1	13
659.779	1	8
660.965	1	0
662.152	1	-3
663.338	1	3
664.524	1	9
665.710	1	6
666.896	1	5
668.082	1	3
669.268	1	6
670.454	1	5
671.640	1	7
672.826	1	5
674.011	1	2
675.197	1	3
676.383	1	12
677.569	1	16
678.754	1	2
679.940	1	-4
681.125	1	-4
682.311	1	13
683.496	1	4
684.682	1	8
685.867	1	-4
687.053	1	22
688.238	1	14
688.746	1	1