File: Data/GaN_150K_450ms/GaN_sample D_spot15_UVVIS_150 K_200um_450 ms 2x2mm1_246.txt
340.368	1	17
341.565	1	-3
342.763	1	-5
343.960	1	9
345.157	1	11
346.354	1	7
347.552	1	19
348.749	1	13
349.946	1	-1
351.143	1	1
352.340	1	5
353.537	1	8
354.734	1	1
355.931	1	5
357.127	1	10
358.324	1	12
359.521	1	9
360.718	1	9
361.914	1	11
363.111	1	-2
364.308	1	16
365.504	1	9
366.701	1	8
367.897	1	20
369.093	1	21
370.290	1	18
371.486	1	22
372.682	1	10
373.879	1	6
375.075	1	-1
376.271	1	1
377.467	1	11
378.663	1	3
379.859	1	3
381.055	1	3
382.251	1	-6
383.447	1	2
384.643	1	-4
385.839	1	3
387.035	1	12
388.230	1	6
389.426	1	3
390.622	1	-7
391.817	1	-5
393.013	1	0
394.208	1	2
395.404	1	8
396.599	1	-1
397.795	1	5
398.990	1	15
400.186	1	-2
401.381	1	4
402.576	1	7
403.771	1	-14
404.967	1	10
406.162	1	-4
407.357	1	12
408.552	1	-3
409.747	1	6
410.942	1	10
412.137	1	3
413.332	1	10
414.526	1	-6
415.721	1	1
416.916	1	-1
418.111	1	3
419.305	1	-3
420.500	1	-3
421.695	1	9
422.889	1	4
424.084	1	2
425.278	1	4
426.472	1	11
427.667	1	8
428.861	1	5
430.055	1	11
431.250	1	8
432.444	1	1
433.638	1	4
434.832	1	3
436.026	1	-4
437.220	1	6
438.414	1	3
439.608	1	4
440.802	1	1
441.996	1	-2
443.190	1	5
444.384	1	3
445.578	1	-8
446.771	1	-3
447.965	1	7
449.159	1	-6
450.352	1	-6
451.546	1	3
452.739	1	4
453.933	1	-5
455.126	1	1
456.320	1	5
457.513	1	-4
458.706	1	9
459.899	1	7
461.093	1	-1
462.286	1	4
463.479	1	1
464.672	1	0
465.865	1	9
467.058	1	-3
468.251	1	-2
469.444	1	5
470.637	1	-3
471.830	1	10
473.023	1	6
474.215	1	-8
475.408	1	3
476.601	1	-3
477.793	1	2
478.986	1	4
480.179	1	3
481.371	1	-10
482.564	1	12
483.756	1	-4
484.948	1	10
486.141	1	6
487.333	1	-6
488.525	1	-7
489.718	1	-4
490.910	1	12
492.102	1	5
493.294	1	-7
494.486	1	-2
495.678	1	2
496.870	1	-4
498.062	1	3
499.254	1	0
500.446	1	-6
501.638	1	8
502.829	1	-4
504.021	1	5
505.213	1	6
506.404	1	-2
507.596	1	-1
508.788	1	-1
509.979	1	-4
511.171	1	2
512.362	1	2
513.553	1	-1
514.745	1	-3
515.936	1	-5
517.127	1	9
518.319	1	12
519.510	1	-4
520.701	1	9
521.892	1	2
523.083	1	-3
524.274	1	7
525.465	1	8
526.656	1	6
527.847	1	-3
529.038	1	9
530.229	1	6
531.419	1	4
532.610	1	4
533.801	1	-2
534.991	1	3
536.182	1	-4
537.373	1	10
538.563	1	1
539.754	1	-7
540.944	1	-2
542.134	1	8
543.325	1	13
544.515	1	0
545.705	1	2
546.896	1	5
548.086	1	0
549.276	1	11
550.466	1	8
551.656	1	8
552.846	1	9
554.036	1	15
555.226	1	2
556.416	1	12
557.606	1	-6
558.796	1	0
559.986	1	5
561.175	1	-1
562.365	1	5
563.555	1	1
564.744	1	9
565.934	1	13
567.123	1	-8
568.313	1	4
569.502	1	6
570.692	1	9
571.881	1	2
573.070	1	-1
574.260	1	1
575.449	1	-3
576.638	1	9
577.827	1	0
579.016	1	5
580.205	1	5
581.394	1	2
582.583	1	5
583.772	1	10
584.961	1	2
586.150	1	9
587.339	1	-4
588.528	1	-3
589.717	1	3
590.905	1	-2
592.094	1	8
593.283	1	6
594.471	1	-4
595.660	1	4
596.848	1	10
598.037	1	-3
599.225	1	-4
600.413	1	1
601.602	1	1
602.790	1	12
603.978	1	-3
605.166	1	7
606.355	1	-3
607.543	1	4
608.731	1	-8
609.919	1	-15
611.107	1	-2
612.295	1	6
613.483	1	3
614.671	1	6
615.858	1	-7
617.046	1	-3
618.234	1	-1
619.422	1	16
620.609	1	-3
621.797	1	2
622.985	1	1
624.172	1	9
625.360	1	-8
626.547	1	-9
627.735	1	1
628.922	1	5
630.109	1	-8
631.297	1	6
632.484	1	5
633.671	1	4
634.858	1	5
636.045	1	4
637.232	1	4
638.419	1	0
639.606	1	11
640.793	1	6
641.980	1	5
643.167	1	5
644.354	1	8
645.541	1	11
646.728	1	-4
647.914	1	-8
649.101	1	-2
650.288	1	0
651.474	1	9
652.661	1	0
653.847	1	-6
655.034	1	-3
656.220	1	11
657.406	1	-3
658.593	1	-1
659.779	1	-2
660.965	1	3
662.152	1	-2
663.338	1	-4
664.524	1	8
665.710	1	4
666.896	1	0
668.082	1	9
669.268	1	2
670.454	1	5
671.640	1	3
672.826	1	5
674.011	1	5
675.197	1	1
676.383	1	1
677.569	1	10
678.754	1	1
679.940	1	-1
681.125	1	-8
682.311	1	13
683.496	1	-5
684.682	1	4
685.867	1	7
687.053	1	17
688.238	1	6
688.746	1	6