File: Data/GaN_150K_450ms/GaN_sample D_spot15_UVVIS_150 K_200um_450 ms 2x2mm1_87.txt
340.368	1	6
341.565	1	7
342.763	1	3
343.960	1	9
345.157	1	13
346.354	1	10
347.552	1	20
348.749	1	18
349.946	1	7
351.143	1	13
352.340	1	12
353.537	1	-1
354.734	1	11
355.931	1	10
357.127	1	23
358.324	1	19
359.521	1	28
360.718	1	27
361.914	1	47
363.111	1	53
364.308	1	71
365.504	1	85
366.701	1	121
367.897	1	136
369.093	1	135
370.290	1	110
371.486	1	103
372.682	1	77
373.879	1	66
375.075	1	48
376.271	1	47
377.467	1	49
378.663	1	43
379.859	1	24
381.055	1	30
382.251	1	20
383.447	1	20
384.643	1	18
385.839	1	22
387.035	1	23
388.230	1	16
389.426	1	10
390.622	1	11
391.817	1	13
393.013	1	17
394.208	1	14
395.404	1	15
396.599	1	6
397.795	1	11
398.990	1	13
400.186	1	6
401.381	1	12
402.576	1	19
403.771	1	8
404.967	1	13
406.162	1	12
407.357	1	19
408.552	1	7
409.747	1	15
410.942	1	20
412.137	1	11
413.332	1	25
414.526	1	0
415.721	1	22
416.916	1	10
418.111	1	12
419.305	1	26
420.500	1	17
421.695	1	23
422.889	1	19
424.084	1	22
425.278	1	11
426.472	1	26
427.667	1	19
428.861	1	15
430.055	1	21
431.250	1	17
432.444	1	22
433.638	1	23
434.832	1	14
436.026	1	9
437.220	1	18
438.414	1	11
439.608	1	4
440.802	1	18
441.996	1	3
443.190	1	24
444.384	1	14
445.578	1	15
446.771	1	7
447.965	1	14
449.159	1	7
450.352	1	0
451.546	1	11
452.739	1	11
453.933	1	2
455.126	1	25
456.320	1	20
457.513	1	2
458.706	1	20
459.899	1	11
461.093	1	11
462.286	1	5
463.479	1	9
464.672	1	13
465.865	1	12
467.058	1	9
468.251	1	5
469.444	1	11
470.637	1	11
471.830	1	10
473.023	1	3
474.215	1	8
475.408	1	12
476.601	1	6
477.793	1	7
478.986	1	9
480.179	1	14
481.371	1	3
482.564	1	21
483.756	1	10
484.948	1	14
486.141	1	10
487.333	1	9
488.525	1	5
489.718	1	7
490.910	1	23
492.102	1	21
493.294	1	11
494.486	1	6
495.678	1	15
496.870	1	13
498.062	1	10
499.254	1	18
500.446	1	21
501.638	1	17
502.829	1	15
504.021	1	22
505.213	1	18
506.404	1	26
507.596	1	31
508.788	1	31
509.979	1	27
511.171	1	28
512.362	1	43
513.553	1	33
514.745	1	21
515.936	1	27
517.127	1	41
518.319	1	39
519.510	1	32
520.701	1	35
521.892	1	31
523.083	1	39
524.274	1	35
525.465	1	39
526.656	1	31
527.847	1	27
529.038	1	40
530.229	1	42
531.419	1	39
532.610	1	37
533.801	1	44
534.991	1	38
536.182	1	32
537.373	1	34
538.563	1	27
539.754	1	21
540.944	1	20
542.134	1	28
543.325	1	37
544.515	1	36
545.705	1	30
546.896	1	43
548.086	1	23
549.276	1	41
550.466	1	24
551.656	1	26
552.846	1	29
554.036	1	31
555.226	1	34
556.416	1	19
557.606	1	19
558.796	1	24
559.986	1	33
561.175	1	16
562.365	1	26
563.555	1	26
564.744	1	23
565.934	1	34
567.123	1	7
568.313	1	21
569.502	1	25
570.692	1	18
571.881	1	13
573.070	1	20
574.260	1	21
575.449	1	10
576.638	1	16
577.827	1	20
579.016	1	9
580.205	1	19
581.394	1	11
582.583	1	10
583.772	1	13
584.961	1	1
586.150	1	13
587.339	1	9
588.528	1	7
589.717	1	11
590.905	1	9
592.094	1	10
593.283	1	12
594.471	1	-3
595.660	1	13
596.848	1	14
598.037	1	12
599.225	1	8
600.413	1	12
601.602	1	13
602.790	1	19
603.978	1	10
605.166	1	10
606.355	1	4
607.543	1	8
608.731	1	-5
609.919	1	-4
611.107	1	20
612.295	1	19
613.483	1	9
614.671	1	6
615.858	1	3
617.046	1	7
618.234	1	3
619.422	1	19
620.609	1	10
621.797	1	12
622.985	1	7
624.172	1	7
625.360	1	7
626.547	1	-4
627.735	1	4
628.922	1	7
630.109	1	3
631.297	1	8
632.484	1	16
633.671	1	5
634.858	1	9
636.045	1	1
637.232	1	7
638.419	1	5
639.606	1	10
640.793	1	13
641.980	1	13
643.167	1	10
644.354	1	10
645.541	1	4
646.728	1	16
647.914	1	5
649.101	1	8
650.288	1	7
651.474	1	11
652.661	1	12
653.847	1	15
655.034	1	1
656.220	1	3
657.406	1	-3
658.593	1	11
659.779	1	16
660.965	1	14
662.152	1	9
663.338	1	3
664.524	1	6
665.710	1	13
666.896	1	6
668.082	1	6
669.268	1	0
670.454	1	11
671.640	1	14
672.826	1	4
674.011	1	11
675.197	1	9
676.383	1	5
677.569	1	12
678.754	1	5
679.940	1	3
681.125	1	11
682.311	1	10
683.496	1	6
684.682	1	11
685.867	1	1
687.053	1	12
688.238	1	14
688.746	1	1