File: Data/GaN_150K_450ms/GaN_sample D_spot15_UVVIS_150 K_200um_450 ms 2x2mm1_54.txt
340.368	1	7
341.565	1	12
342.763	1	3
343.960	1	9
345.157	1	11
346.354	1	3
347.552	1	22
348.749	1	19
349.946	1	7
351.143	1	16
352.340	1	17
353.537	1	12
354.734	1	25
355.931	1	34
357.127	1	37
358.324	1	41
359.521	1	56
360.718	1	84
361.914	1	127
363.111	1	195
364.308	1	330
365.504	1	504
366.701	1	707
367.897	1	861
369.093	1	801
370.290	1	674
371.486	1	519
372.682	1	408
373.879	1	324
375.075	1	272
376.271	1	224
377.467	1	189
378.663	1	142
379.859	1	136
381.055	1	115
382.251	1	105
383.447	1	101
384.643	1	109
385.839	1	95
387.035	1	107
388.230	1	100
389.426	1	81
390.622	1	70
391.817	1	68
393.013	1	65
394.208	1	62
395.404	1	67
396.599	1	68
397.795	1	62
398.990	1	81
400.186	1	61
401.381	1	60
402.576	1	55
403.771	1	36
404.967	1	50
406.162	1	44
407.357	1	48
408.552	1	37
409.747	1	40
410.942	1	43
412.137	1	33
413.332	1	34
414.526	1	10
415.721	1	45
416.916	1	37
418.111	1	37
419.305	1	38
420.500	1	32
421.695	1	33
422.889	1	36
424.084	1	37
425.278	1	31
426.472	1	41
427.667	1	32
428.861	1	36
430.055	1	38
431.250	1	27
432.444	1	33
433.638	1	32
434.832	1	15
436.026	1	18
437.220	1	28
438.414	1	23
439.608	1	18
440.802	1	18
441.996	1	22
443.190	1	25
444.384	1	24
445.578	1	21
446.771	1	18
447.965	1	18
449.159	1	9
450.352	1	16
451.546	1	11
452.739	1	27
453.933	1	13
455.126	1	24
456.320	1	31
457.513	1	21
458.706	1	23
459.899	1	18
461.093	1	21
462.286	1	15
463.479	1	10
464.672	1	22
465.865	1	18
467.058	1	16
468.251	1	16
469.444	1	16
470.637	1	20
471.830	1	29
473.023	1	17
474.215	1	23
475.408	1	26
476.601	1	22
477.793	1	22
478.986	1	31
480.179	1	39
481.371	1	26
482.564	1	27
483.756	1	39
484.948	1	35
486.141	1	38
487.333	1	36
488.525	1	43
489.718	1	44
490.910	1	55
492.102	1	54
493.294	1	52
494.486	1	59
495.678	1	59
496.870	1	66
498.062	1	74
499.254	1	72
500.446	1	83
501.638	1	84
502.829	1	81
504.021	1	102
505.213	1	103
506.404	1	114
507.596	1	126
508.788	1	118
509.979	1	113
511.171	1	119
512.362	1	139
513.553	1	130
514.745	1	134
515.936	1	123
517.127	1	146
518.319	1	150
519.510	1	139
520.701	1	151
521.892	1	168
523.083	1	144
524.274	1	154
525.465	1	164
526.656	1	166
527.847	1	175
529.038	1	173
530.229	1	166
531.419	1	186
532.610	1	168
533.801	1	178
534.991	1	153
536.182	1	155
537.373	1	155
538.563	1	137
539.754	1	155
540.944	1	150
542.134	1	148
543.325	1	152
544.515	1	148
545.705	1	148
546.896	1	167
548.086	1	150
549.276	1	155
550.466	1	151
551.656	1	137
552.846	1	149
554.036	1	144
555.226	1	127
556.416	1	131
557.606	1	117
558.796	1	122
559.986	1	122
561.175	1	116
562.365	1	122
563.555	1	118
564.744	1	115
565.934	1	109
567.123	1	100
568.313	1	110
569.502	1	105
570.692	1	92
571.881	1	90
573.070	1	93
574.260	1	92
575.449	1	82
576.638	1	88
577.827	1	74
579.016	1	80
580.205	1	93
581.394	1	78
582.583	1	82
583.772	1	82
584.961	1	65
586.150	1	84
587.339	1	70
588.528	1	71
589.717	1	72
590.905	1	55
592.094	1	57
593.283	1	60
594.471	1	55
595.660	1	63
596.848	1	53
598.037	1	63
599.225	1	48
600.413	1	52
601.602	1	67
602.790	1	66
603.978	1	58
605.166	1	64
606.355	1	48
607.543	1	63
608.731	1	44
609.919	1	36
611.107	1	64
612.295	1	54
613.483	1	38
614.671	1	42
615.858	1	37
617.046	1	37
618.234	1	41
619.422	1	51
620.609	1	37
621.797	1	48
622.985	1	40
624.172	1	39
625.360	1	41
626.547	1	40
627.735	1	27
628.922	1	42
630.109	1	35
631.297	1	47
632.484	1	43
633.671	1	42
634.858	1	44
636.045	1	25
637.232	1	36
638.419	1	37
639.606	1	37
640.793	1	27
641.980	1	49
643.167	1	42
644.354	1	34
645.541	1	29
646.728	1	38
647.914	1	32
649.101	1	32
650.288	1	40
651.474	1	37
652.661	1	39
653.847	1	41
655.034	1	18
656.220	1	37
657.406	1	30
658.593	1	27
659.779	1	30
660.965	1	25
662.152	1	23
663.338	1	16
664.524	1	24
665.710	1	17
666.896	1	28
668.082	1	18
669.268	1	28
670.454	1	30
671.640	1	38
672.826	1	23
674.011	1	33
675.197	1	29
676.383	1	28
677.569	1	31
678.754	1	32
679.940	1	20
681.125	1	30
682.311	1	24
683.496	1	29
684.682	1	41
685.867	1	31
687.053	1	35
688.238	1	48
688.746	1	38