File: Data/GaN_150K_450ms/GaN_sample D_spot15_UVVIS_150 K_200um_450 ms 2x2mm1_230.txt
340.368	1	-2
341.565	1	6
342.763	1	5
343.960	1	7
345.157	1	-1
346.354	1	1
347.552	1	13
348.749	1	12
349.946	1	6
351.143	1	0
352.340	1	9
353.537	1	-6
354.734	1	2
355.931	1	5
357.127	1	8
358.324	1	9
359.521	1	10
360.718	1	7
361.914	1	4
363.111	1	5
364.308	1	15
365.504	1	-4
366.701	1	8
367.897	1	21
369.093	1	20
370.290	1	20
371.486	1	28
372.682	1	17
373.879	1	4
375.075	1	6
376.271	1	13
377.467	1	9
378.663	1	12
379.859	1	6
381.055	1	9
382.251	1	5
383.447	1	6
384.643	1	5
385.839	1	3
387.035	1	6
388.230	1	11
389.426	1	3
390.622	1	-1
391.817	1	-2
393.013	1	16
394.208	1	5
395.404	1	8
396.599	1	5
397.795	1	2
398.990	1	11
400.186	1	-1
401.381	1	9
402.576	1	7
403.771	1	-3
404.967	1	-4
406.162	1	-8
407.357	1	4
408.552	1	4
409.747	1	8
410.942	1	12
412.137	1	-3
413.332	1	3
414.526	1	-6
415.721	1	4
416.916	1	0
418.111	1	10
419.305	1	5
420.500	1	-1
421.695	1	1
422.889	1	10
424.084	1	-5
425.278	1	4
426.472	1	12
427.667	1	7
428.861	1	-1
430.055	1	13
431.250	1	10
432.444	1	3
433.638	1	10
434.832	1	0
436.026	1	2
437.220	1	10
438.414	1	7
439.608	1	-4
440.802	1	4
441.996	1	8
443.190	1	12
444.384	1	18
445.578	1	2
446.771	1	2
447.965	1	-2
449.159	1	-6
450.352	1	2
451.546	1	-7
452.739	1	7
453.933	1	-8
455.126	1	2
456.320	1	9
457.513	1	1
458.706	1	9
459.899	1	-1
461.093	1	-1
462.286	1	4
463.479	1	1
464.672	1	4
465.865	1	4
467.058	1	-3
468.251	1	3
469.444	1	-3
470.637	1	2
471.830	1	6
473.023	1	-2
474.215	1	2
475.408	1	7
476.601	1	4
477.793	1	-7
478.986	1	3
480.179	1	0
481.371	1	-6
482.564	1	12
483.756	1	0
484.948	1	15
486.141	1	5
487.333	1	-2
488.525	1	-2
489.718	1	-11
490.910	1	6
492.102	1	8
493.294	1	1
494.486	1	2
495.678	1	0
496.870	1	2
498.062	1	-7
499.254	1	-7
500.446	1	-8
501.638	1	8
502.829	1	0
504.021	1	13
505.213	1	-1
506.404	1	4
507.596	1	10
508.788	1	-2
509.979	1	8
511.171	1	9
512.362	1	8
513.553	1	7
514.745	1	0
515.936	1	0
517.127	1	17
518.319	1	10
519.510	1	-4
520.701	1	8
521.892	1	6
523.083	1	2
524.274	1	7
525.465	1	4
526.656	1	12
527.847	1	-6
529.038	1	12
530.229	1	0
531.419	1	10
532.610	1	2
533.801	1	12
534.991	1	0
536.182	1	6
537.373	1	0
538.563	1	0
539.754	1	6
540.944	1	6
542.134	1	5
543.325	1	7
544.515	1	7
545.705	1	4
546.896	1	7
548.086	1	-4
549.276	1	1
550.466	1	3
551.656	1	-2
552.846	1	9
554.036	1	8
555.226	1	-3
556.416	1	0
557.606	1	-5
558.796	1	13
559.986	1	4
561.175	1	-9
562.365	1	7
563.555	1	14
564.744	1	8
565.934	1	10
567.123	1	2
568.313	1	1
569.502	1	-2
570.692	1	8
571.881	1	-1
573.070	1	4
574.260	1	0
575.449	1	-6
576.638	1	6
577.827	1	-6
579.016	1	-1
580.205	1	7
581.394	1	4
582.583	1	2
583.772	1	11
584.961	1	-1
586.150	1	3
587.339	1	-4
588.528	1	-2
589.717	1	0
590.905	1	10
592.094	1	13
593.283	1	10
594.471	1	-11
595.660	1	4
596.848	1	0
598.037	1	-3
599.225	1	1
600.413	1	0
601.602	1	12
602.790	1	6
603.978	1	1
605.166	1	10
606.355	1	-9
607.543	1	0
608.731	1	-6
609.919	1	-10
611.107	1	8
612.295	1	7
613.483	1	0
614.671	1	6
615.858	1	-3
617.046	1	2
618.234	1	-5
619.422	1	17
620.609	1	3
621.797	1	7
622.985	1	-3
624.172	1	-6
625.360	1	0
626.547	1	-7
627.735	1	-1
628.922	1	3
630.109	1	-3
631.297	1	1
632.484	1	10
633.671	1	5
634.858	1	6
636.045	1	-6
637.232	1	-2
638.419	1	8
639.606	1	16
640.793	1	1
641.980	1	14
643.167	1	4
644.354	1	15
645.541	1	1
646.728	1	4
647.914	1	-7
649.101	1	7
650.288	1	-1
651.474	1	-1
652.661	1	0
653.847	1	14
655.034	1	-2
656.220	1	-2
657.406	1	1
658.593	1	6
659.779	1	5
660.965	1	-1
662.152	1	7
663.338	1	-4
664.524	1	10
665.710	1	4
666.896	1	1
668.082	1	4
669.268	1	4
670.454	1	-2
671.640	1	11
672.826	1	-2
674.011	1	17
675.197	1	6
676.383	1	10
677.569	1	9
678.754	1	5
679.940	1	4
681.125	1	3
682.311	1	6
683.496	1	-3
684.682	1	11
685.867	1	2
687.053	1	10
688.238	1	15
688.746	1	-5