File: Data/GaN_150K_450ms/GaN_sample D_spot15_UVVIS_150 K_200um_450 ms 2x2mm1_173.txt
340.368	1	7
341.565	1	5
342.763	1	6
343.960	1	-5
345.157	1	16
346.354	1	2
347.552	1	13
348.749	1	18
349.946	1	6
351.143	1	1
352.340	1	7
353.537	1	-1
354.734	1	7
355.931	1	6
357.127	1	11
358.324	1	12
359.521	1	18
360.718	1	13
361.914	1	12
363.111	1	18
364.308	1	21
365.504	1	18
366.701	1	23
367.897	1	29
369.093	1	33
370.290	1	28
371.486	1	31
372.682	1	20
373.879	1	19
375.075	1	2
376.271	1	12
377.467	1	19
378.663	1	8
379.859	1	3
381.055	1	5
382.251	1	4
383.447	1	7
384.643	1	6
385.839	1	2
387.035	1	7
388.230	1	9
389.426	1	1
390.622	1	9
391.817	1	-3
393.013	1	5
394.208	1	3
395.404	1	5
396.599	1	12
397.795	1	0
398.990	1	16
400.186	1	2
401.381	1	10
402.576	1	5
403.771	1	-3
404.967	1	7
406.162	1	-4
407.357	1	13
408.552	1	1
409.747	1	2
410.942	1	9
412.137	1	6
413.332	1	12
414.526	1	-3
415.721	1	9
416.916	1	8
418.111	1	16
419.305	1	6
420.500	1	5
421.695	1	16
422.889	1	1
424.084	1	1
425.278	1	9
426.472	1	6
427.667	1	2
428.861	1	10
430.055	1	11
431.250	1	9
432.444	1	11
433.638	1	18
434.832	1	12
436.026	1	7
437.220	1	7
438.414	1	13
439.608	1	4
440.802	1	11
441.996	1	3
443.190	1	10
444.384	1	13
445.578	1	-2
446.771	1	9
447.965	1	11
449.159	1	6
450.352	1	6
451.546	1	12
452.739	1	13
453.933	1	-7
455.126	1	-4
456.320	1	5
457.513	1	7
458.706	1	13
459.899	1	7
461.093	1	0
462.286	1	5
463.479	1	0
464.672	1	9
465.865	1	2
467.058	1	1
468.251	1	-1
469.444	1	7
470.637	1	8
471.830	1	2
473.023	1	2
474.215	1	-1
475.408	1	1
476.601	1	3
477.793	1	7
478.986	1	9
480.179	1	5
481.371	1	-1
482.564	1	8
483.756	1	4
484.948	1	7
486.141	1	11
487.333	1	1
488.525	1	-3
489.718	1	-8
490.910	1	17
492.102	1	13
493.294	1	-3
494.486	1	-4
495.678	1	-2
496.870	1	2
498.062	1	6
499.254	1	-2
500.446	1	6
501.638	1	9
502.829	1	0
504.021	1	4
505.213	1	8
506.404	1	-1
507.596	1	9
508.788	1	6
509.979	1	8
511.171	1	8
512.362	1	12
513.553	1	2
514.745	1	6
515.936	1	5
517.127	1	3
518.319	1	2
519.510	1	-10
520.701	1	10
521.892	1	5
523.083	1	5
524.274	1	7
525.465	1	13
526.656	1	4
527.847	1	-2
529.038	1	5
530.229	1	20
531.419	1	9
532.610	1	12
533.801	1	12
534.991	1	4
536.182	1	-6
537.373	1	6
538.563	1	5
539.754	1	8
540.944	1	14
542.134	1	11
543.325	1	6
544.515	1	4
545.705	1	7
546.896	1	1
548.086	1	11
549.276	1	15
550.466	1	8
551.656	1	-2
552.846	1	6
554.036	1	9
555.226	1	9
556.416	1	17
557.606	1	-1
558.796	1	10
559.986	1	13
561.175	1	2
562.365	1	3
563.555	1	9
564.744	1	10
565.934	1	15
567.123	1	0
568.313	1	1
569.502	1	6
570.692	1	13
571.881	1	4
573.070	1	3
574.260	1	8
575.449	1	3
576.638	1	16
577.827	1	5
579.016	1	4
580.205	1	2
581.394	1	-4
582.583	1	6
583.772	1	13
584.961	1	0
586.150	1	6
587.339	1	1
588.528	1	-6
589.717	1	2
590.905	1	-4
592.094	1	11
593.283	1	-2
594.471	1	-7
595.660	1	11
596.848	1	2
598.037	1	0
599.225	1	5
600.413	1	-1
601.602	1	-1
602.790	1	4
603.978	1	6
605.166	1	3
606.355	1	-9
607.543	1	5
608.731	1	-6
609.919	1	-4
611.107	1	13
612.295	1	6
613.483	1	-1
614.671	1	5
615.858	1	-11
617.046	1	-2
618.234	1	5
619.422	1	11
620.609	1	2
621.797	1	-3
622.985	1	-3
624.172	1	7
625.360	1	1
626.547	1	1
627.735	1	4
628.922	1	7
630.109	1	-9
631.297	1	11
632.484	1	12
633.671	1	9
634.858	1	6
636.045	1	-2
637.232	1	-2
638.419	1	-1
639.606	1	17
640.793	1	6
641.980	1	11
643.167	1	8
644.354	1	11
645.541	1	3
646.728	1	4
647.914	1	4
649.101	1	4
650.288	1	7
651.474	1	6
652.661	1	5
653.847	1	3
655.034	1	-3
656.220	1	8
657.406	1	3
658.593	1	6
659.779	1	17
660.965	1	0
662.152	1	6
663.338	1	6
664.524	1	7
665.710	1	5
666.896	1	9
668.082	1	7
669.268	1	-2
670.454	1	9
671.640	1	2
672.826	1	3
674.011	1	5
675.197	1	12
676.383	1	1
677.569	1	11
678.754	1	5
679.940	1	0
681.125	1	-2
682.311	1	16
683.496	1	6
684.682	1	13
685.867	1	2
687.053	1	16
688.238	1	8
688.746	1	8