File: Data/GaN_150K_450ms/GaN_sample D_spot15_UVVIS_150 K_200um_450 ms 2x2mm1_286.txt
340.368	1	1
341.565	1	4
342.763	1	-2
343.960	1	5
345.157	1	9
346.354	1	2
347.552	1	12
348.749	1	9
349.946	1	4
351.143	1	5
352.340	1	3
353.537	1	4
354.734	1	6
355.931	1	12
357.127	1	3
358.324	1	11
359.521	1	11
360.718	1	2
361.914	1	12
363.111	1	8
364.308	1	1
365.504	1	0
366.701	1	3
367.897	1	21
369.093	1	5
370.290	1	6
371.486	1	20
372.682	1	9
373.879	1	9
375.075	1	-3
376.271	1	7
377.467	1	8
378.663	1	7
379.859	1	8
381.055	1	-1
382.251	1	-3
383.447	1	-5
384.643	1	0
385.839	1	1
387.035	1	4
388.230	1	2
389.426	1	5
390.622	1	-7
391.817	1	-1
393.013	1	-1
394.208	1	-2
395.404	1	9
396.599	1	5
397.795	1	6
398.990	1	13
400.186	1	5
401.381	1	4
402.576	1	6
403.771	1	-4
404.967	1	0
406.162	1	-8
407.357	1	2
408.552	1	-3
409.747	1	-1
410.942	1	9
412.137	1	4
413.332	1	6
414.526	1	-4
415.721	1	6
416.916	1	-2
418.111	1	3
419.305	1	4
420.500	1	7
421.695	1	9
422.889	1	5
424.084	1	3
425.278	1	0
426.472	1	7
427.667	1	3
428.861	1	5
430.055	1	8
431.250	1	6
432.444	1	3
433.638	1	3
434.832	1	3
436.026	1	4
437.220	1	8
438.414	1	6
439.608	1	0
440.802	1	0
441.996	1	4
443.190	1	7
444.384	1	20
445.578	1	-10
446.771	1	7
447.965	1	10
449.159	1	2
450.352	1	-5
451.546	1	-2
452.739	1	8
453.933	1	2
455.126	1	-1
456.320	1	13
457.513	1	6
458.706	1	11
459.899	1	6
461.093	1	3
462.286	1	-4
463.479	1	5
464.672	1	2
465.865	1	2
467.058	1	7
468.251	1	-7
469.444	1	8
470.637	1	4
471.830	1	1
473.023	1	-1
474.215	1	-5
475.408	1	8
476.601	1	-6
477.793	1	-1
478.986	1	13
480.179	1	-1
481.371	1	-7
482.564	1	0
483.756	1	0
484.948	1	5
486.141	1	-6
487.333	1	-7
488.525	1	-5
489.718	1	-7
490.910	1	7
492.102	1	6
493.294	1	-13
494.486	1	-7
495.678	1	-1
496.870	1	2
498.062	1	0
499.254	1	5
500.446	1	1
501.638	1	7
502.829	1	-4
504.021	1	-2
505.213	1	1
506.404	1	7
507.596	1	5
508.788	1	4
509.979	1	-4
511.171	1	0
512.362	1	10
513.553	1	10
514.745	1	-6
515.936	1	1
517.127	1	7
518.319	1	5
519.510	1	-3
520.701	1	5
521.892	1	7
523.083	1	5
524.274	1	10
525.465	1	13
526.656	1	5
527.847	1	-8
529.038	1	2
530.229	1	4
531.419	1	3
532.610	1	13
533.801	1	5
534.991	1	-4
536.182	1	6
537.373	1	1
538.563	1	-2
539.754	1	-3
540.944	1	-1
542.134	1	2
543.325	1	3
544.515	1	13
545.705	1	5
546.896	1	-1
548.086	1	9
549.276	1	4
550.466	1	-5
551.656	1	6
552.846	1	-2
554.036	1	10
555.226	1	6
556.416	1	6
557.606	1	-13
558.796	1	8
559.986	1	11
561.175	1	4
562.365	1	-5
563.555	1	3
564.744	1	15
565.934	1	15
567.123	1	-1
568.313	1	4
569.502	1	-1
570.692	1	13
571.881	1	-1
573.070	1	4
574.260	1	7
575.449	1	1
576.638	1	4
577.827	1	1
579.016	1	-1
580.205	1	8
581.394	1	-8
582.583	1	8
583.772	1	7
584.961	1	0
586.150	1	5
587.339	1	-1
588.528	1	12
589.717	1	2
590.905	1	-1
592.094	1	11
593.283	1	3
594.471	1	-5
595.660	1	-1
596.848	1	6
598.037	1	5
599.225	1	1
600.413	1	3
601.602	1	11
602.790	1	9
603.978	1	6
605.166	1	4
606.355	1	-17
607.543	1	6
608.731	1	-4
609.919	1	-7
611.107	1	8
612.295	1	5
613.483	1	-3
614.671	1	13
615.858	1	-11
617.046	1	2
618.234	1	-1
619.422	1	27
620.609	1	-3
621.797	1	0
622.985	1	-3
624.172	1	5
625.360	1	7
626.547	1	2
627.735	1	-1
628.922	1	7
630.109	1	-10
631.297	1	5
632.484	1	2
633.671	1	7
634.858	1	8
636.045	1	-8
637.232	1	3
638.419	1	-1
639.606	1	6
640.793	1	-2
641.980	1	3
643.167	1	-4
644.354	1	7
645.541	1	-2
646.728	1	6
647.914	1	-1
649.101	1	1
650.288	1	4
651.474	1	10
652.661	1	7
653.847	1	4
655.034	1	-1
656.220	1	-1
657.406	1	-3
658.593	1	-1
659.779	1	5
660.965	1	4
662.152	1	-3
663.338	1	-4
664.524	1	15
665.710	1	3
666.896	1	0
668.082	1	-4
669.268	1	5
670.454	1	0
671.640	1	9
672.826	1	13
674.011	1	3
675.197	1	4
676.383	1	3
677.569	1	16
678.754	1	-3
679.940	1	-1
681.125	1	1
682.311	1	5
683.496	1	2
684.682	1	7
685.867	1	9
687.053	1	15
688.238	1	5
688.746	1	-6