File: Data/GaN_150K_450ms/GaN_sample D_spot15_UVVIS_150 K_200um_450 ms 2x2mm1_59.txt
340.368	1	8
341.565	1	12
342.763	1	7
343.960	1	18
345.157	1	13
346.354	1	3
347.552	1	15
348.749	1	21
349.946	1	6
351.143	1	7
352.340	1	15
353.537	1	3
354.734	1	28
355.931	1	26
357.127	1	32
358.324	1	30
359.521	1	53
360.718	1	70
361.914	1	89
363.111	1	122
364.308	1	218
365.504	1	324
366.701	1	441
367.897	1	511
369.093	1	486
370.290	1	401
371.486	1	331
372.682	1	258
373.879	1	210
375.075	1	164
376.271	1	148
377.467	1	122
378.663	1	106
379.859	1	74
381.055	1	81
382.251	1	67
383.447	1	57
384.643	1	62
385.839	1	62
387.035	1	59
388.230	1	46
389.426	1	35
390.622	1	44
391.817	1	36
393.013	1	47
394.208	1	34
395.404	1	42
396.599	1	39
397.795	1	39
398.990	1	40
400.186	1	30
401.381	1	39
402.576	1	32
403.771	1	12
404.967	1	33
406.162	1	17
407.357	1	23
408.552	1	23
409.747	1	18
410.942	1	27
412.137	1	16
413.332	1	28
414.526	1	14
415.721	1	20
416.916	1	11
418.111	1	17
419.305	1	29
420.500	1	25
421.695	1	22
422.889	1	25
424.084	1	22
425.278	1	12
426.472	1	32
427.667	1	9
428.861	1	25
430.055	1	23
431.250	1	24
432.444	1	16
433.638	1	23
434.832	1	13
436.026	1	13
437.220	1	26
438.414	1	21
439.608	1	13
440.802	1	15
441.996	1	11
443.190	1	17
444.384	1	24
445.578	1	14
446.771	1	16
447.965	1	10
449.159	1	9
450.352	1	19
451.546	1	13
452.739	1	12
453.933	1	12
455.126	1	12
456.320	1	19
457.513	1	19
458.706	1	24
459.899	1	11
461.093	1	15
462.286	1	8
463.479	1	14
464.672	1	29
465.865	1	8
467.058	1	14
468.251	1	10
469.444	1	13
470.637	1	14
471.830	1	23
473.023	1	14
474.215	1	17
475.408	1	21
476.601	1	18
477.793	1	20
478.986	1	16
480.179	1	28
481.371	1	8
482.564	1	14
483.756	1	28
484.948	1	32
486.141	1	27
487.333	1	15
488.525	1	26
489.718	1	27
490.910	1	43
492.102	1	35
493.294	1	38
494.486	1	42
495.678	1	54
496.870	1	49
498.062	1	50
499.254	1	42
500.446	1	59
501.638	1	65
502.829	1	68
504.021	1	74
505.213	1	61
506.404	1	73
507.596	1	77
508.788	1	72
509.979	1	73
511.171	1	79
512.362	1	92
513.553	1	93
514.745	1	83
515.936	1	88
517.127	1	111
518.319	1	101
519.510	1	85
520.701	1	100
521.892	1	104
523.083	1	102
524.274	1	105
525.465	1	115
526.656	1	101
527.847	1	98
529.038	1	109
530.229	1	104
531.419	1	119
532.610	1	120
533.801	1	118
534.991	1	114
536.182	1	102
537.373	1	101
538.563	1	105
539.754	1	95
540.944	1	102
542.134	1	95
543.325	1	101
544.515	1	100
545.705	1	96
546.896	1	92
548.086	1	92
549.276	1	99
550.466	1	97
551.656	1	91
552.846	1	96
554.036	1	95
555.226	1	94
556.416	1	86
557.606	1	71
558.796	1	82
559.986	1	70
561.175	1	69
562.365	1	76
563.555	1	67
564.744	1	74
565.934	1	78
567.123	1	53
568.313	1	57
569.502	1	67
570.692	1	61
571.881	1	57
573.070	1	45
574.260	1	58
575.449	1	56
576.638	1	54
577.827	1	45
579.016	1	43
580.205	1	47
581.394	1	58
582.583	1	47
583.772	1	52
584.961	1	40
586.150	1	40
587.339	1	47
588.528	1	39
589.717	1	39
590.905	1	26
592.094	1	43
593.283	1	30
594.471	1	27
595.660	1	31
596.848	1	38
598.037	1	36
599.225	1	28
600.413	1	31
601.602	1	36
602.790	1	30
603.978	1	35
605.166	1	34
606.355	1	23
607.543	1	35
608.731	1	21
609.919	1	16
611.107	1	37
612.295	1	33
613.483	1	31
614.671	1	23
615.858	1	14
617.046	1	30
618.234	1	16
619.422	1	27
620.609	1	29
621.797	1	33
622.985	1	20
624.172	1	25
625.360	1	18
626.547	1	18
627.735	1	23
628.922	1	32
630.109	1	10
631.297	1	13
632.484	1	22
633.671	1	24
634.858	1	12
636.045	1	13
637.232	1	17
638.419	1	16
639.606	1	26
640.793	1	10
641.980	1	21
643.167	1	21
644.354	1	34
645.541	1	6
646.728	1	25
647.914	1	19
649.101	1	13
650.288	1	16
651.474	1	24
652.661	1	19
653.847	1	17
655.034	1	14
656.220	1	21
657.406	1	6
658.593	1	22
659.779	1	17
660.965	1	12
662.152	1	14
663.338	1	2
664.524	1	24
665.710	1	17
666.896	1	5
668.082	1	8
669.268	1	8
670.454	1	21
671.640	1	18
672.826	1	15
674.011	1	19
675.197	1	7
676.383	1	12
677.569	1	21
678.754	1	21
679.940	1	7
681.125	1	7
682.311	1	18
683.496	1	18
684.682	1	21
685.867	1	7
687.053	1	23
688.238	1	17
688.746	1	27