File: Data/GaN_150K_450ms/GaN_sample D_spot15_UVVIS_150 K_200um_450 ms 2x2mm1_335.txt
340.368	1	-6
341.565	1	3
342.763	1	4
343.960	1	1
345.157	1	17
346.354	1	4
347.552	1	11
348.749	1	8
349.946	1	-2
351.143	1	0
352.340	1	5
353.537	1	-2
354.734	1	-1
355.931	1	4
357.127	1	6
358.324	1	9
359.521	1	12
360.718	1	-3
361.914	1	17
363.111	1	4
364.308	1	9
365.504	1	6
366.701	1	-2
367.897	1	0
369.093	1	13
370.290	1	17
371.486	1	11
372.682	1	4
373.879	1	10
375.075	1	1
376.271	1	-2
377.467	1	17
378.663	1	13
379.859	1	-3
381.055	1	-1
382.251	1	-7
383.447	1	-2
384.643	1	2
385.839	1	-3
387.035	1	5
388.230	1	-6
389.426	1	-6
390.622	1	-1
391.817	1	-7
393.013	1	4
394.208	1	-5
395.404	1	7
396.599	1	10
397.795	1	1
398.990	1	8
400.186	1	6
401.381	1	-5
402.576	1	1
403.771	1	-10
404.967	1	3
406.162	1	-3
407.357	1	3
408.552	1	-5
409.747	1	-4
410.942	1	8
412.137	1	2
413.332	1	7
414.526	1	-2
415.721	1	0
416.916	1	-1
418.111	1	3
419.305	1	1
420.500	1	12
421.695	1	5
422.889	1	3
424.084	1	10
425.278	1	2
426.472	1	9
427.667	1	-4
428.861	1	9
430.055	1	7
431.250	1	7
432.444	1	1
433.638	1	1
434.832	1	-4
436.026	1	-2
437.220	1	7
438.414	1	13
439.608	1	-1
440.802	1	2
441.996	1	-7
443.190	1	4
444.384	1	2
445.578	1	-2
446.771	1	0
447.965	1	-3
449.159	1	-11
450.352	1	-3
451.546	1	-6
452.739	1	-5
453.933	1	-7
455.126	1	4
456.320	1	10
457.513	1	3
458.706	1	9
459.899	1	-1
461.093	1	8
462.286	1	0
463.479	1	-4
464.672	1	4
465.865	1	5
467.058	1	3
468.251	1	-4
469.444	1	3
470.637	1	-2
471.830	1	4
473.023	1	6
474.215	1	2
475.408	1	2
476.601	1	2
477.793	1	0
478.986	1	3
480.179	1	11
481.371	1	-2
482.564	1	5
483.756	1	7
484.948	1	4
486.141	1	11
487.333	1	-2
488.525	1	-3
489.718	1	-5
490.910	1	2
492.102	1	3
493.294	1	-3
494.486	1	-8
495.678	1	-5
496.870	1	-12
498.062	1	2
499.254	1	6
500.446	1	-8
501.638	1	5
502.829	1	-7
504.021	1	5
505.213	1	-5
506.404	1	2
507.596	1	13
508.788	1	-1
509.979	1	-4
511.171	1	8
512.362	1	9
513.553	1	1
514.745	1	-9
515.936	1	5
517.127	1	5
518.319	1	-4
519.510	1	-8
520.701	1	4
521.892	1	-1
523.083	1	-1
524.274	1	8
525.465	1	15
526.656	1	9
527.847	1	-14
529.038	1	-5
530.229	1	9
531.419	1	0
532.610	1	-5
533.801	1	1
534.991	1	4
536.182	1	-2
537.373	1	-2
538.563	1	-3
539.754	1	-4
540.944	1	8
542.134	1	-5
543.325	1	7
544.515	1	4
545.705	1	-4
546.896	1	1
548.086	1	1
549.276	1	1
550.466	1	-1
551.656	1	4
552.846	1	1
554.036	1	16
555.226	1	2
556.416	1	8
557.606	1	-11
558.796	1	6
559.986	1	7
561.175	1	6
562.365	1	8
563.555	1	-7
564.744	1	12
565.934	1	17
567.123	1	5
568.313	1	6
569.502	1	2
570.692	1	6
571.881	1	-4
573.070	1	4
574.260	1	5
575.449	1	-3
576.638	1	-1
577.827	1	-9
579.016	1	3
580.205	1	1
581.394	1	-3
582.583	1	8
583.772	1	9
584.961	1	-12
586.150	1	11
587.339	1	-3
588.528	1	-7
589.717	1	2
590.905	1	-2
592.094	1	1
593.283	1	4
594.471	1	-6
595.660	1	6
596.848	1	4
598.037	1	3
599.225	1	-6
600.413	1	-5
601.602	1	3
602.790	1	-3
603.978	1	-2
605.166	1	4
606.355	1	-15
607.543	1	-6
608.731	1	-5
609.919	1	-12
611.107	1	15
612.295	1	11
613.483	1	-4
614.671	1	-6
615.858	1	-6
617.046	1	1
618.234	1	-2
619.422	1	17
620.609	1	0
621.797	1	5
622.985	1	-2
624.172	1	4
625.360	1	7
626.547	1	-1
627.735	1	6
628.922	1	6
630.109	1	-6
631.297	1	-6
632.484	1	1
633.671	1	7
634.858	1	3
636.045	1	-7
637.232	1	-4
638.419	1	-1
639.606	1	7
640.793	1	-3
641.980	1	13
643.167	1	2
644.354	1	13
645.541	1	0
646.728	1	6
647.914	1	6
649.101	1	-8
650.288	1	8
651.474	1	3
652.661	1	4
653.847	1	8
655.034	1	-2
656.220	1	5
657.406	1	-6
658.593	1	2
659.779	1	6
660.965	1	-4
662.152	1	9
663.338	1	-6
664.524	1	4
665.710	1	0
666.896	1	3
668.082	1	4
669.268	1	8
670.454	1	-3
671.640	1	15
672.826	1	3
674.011	1	5
675.197	1	10
676.383	1	6
677.569	1	9
678.754	1	-4
679.940	1	-7
681.125	1	0
682.311	1	6
683.496	1	8
684.682	1	5
685.867	1	-4
687.053	1	15
688.238	1	4
688.746	1	3