File: Data/GaN_150K_450ms/GaN_sample D_spot15_UVVIS_150 K_200um_450 ms 2x2mm1_97.txt
340.368	1	7
341.565	1	14
342.763	1	5
343.960	1	3
345.157	1	9
346.354	1	0
347.552	1	18
348.749	1	9
349.946	1	7
351.143	1	13
352.340	1	9
353.537	1	2
354.734	1	7
355.931	1	15
357.127	1	14
358.324	1	9
359.521	1	27
360.718	1	20
361.914	1	25
363.111	1	39
364.308	1	66
365.504	1	74
366.701	1	88
367.897	1	99
369.093	1	96
370.290	1	96
371.486	1	81
372.682	1	58
373.879	1	43
375.075	1	39
376.271	1	40
377.467	1	41
378.663	1	32
379.859	1	29
381.055	1	17
382.251	1	17
383.447	1	15
384.643	1	18
385.839	1	13
387.035	1	13
388.230	1	20
389.426	1	7
390.622	1	13
391.817	1	-2
393.013	1	15
394.208	1	9
395.404	1	16
396.599	1	11
397.795	1	12
398.990	1	25
400.186	1	14
401.381	1	12
402.576	1	22
403.771	1	-1
404.967	1	9
406.162	1	6
407.357	1	23
408.552	1	11
409.747	1	15
410.942	1	19
412.137	1	12
413.332	1	18
414.526	1	9
415.721	1	13
416.916	1	14
418.111	1	23
419.305	1	24
420.500	1	16
421.695	1	18
422.889	1	18
424.084	1	15
425.278	1	8
426.472	1	25
427.667	1	11
428.861	1	22
430.055	1	23
431.250	1	16
432.444	1	12
433.638	1	17
434.832	1	10
436.026	1	8
437.220	1	22
438.414	1	13
439.608	1	12
440.802	1	13
441.996	1	6
443.190	1	12
444.384	1	21
445.578	1	-1
446.771	1	14
447.965	1	11
449.159	1	1
450.352	1	10
451.546	1	14
452.739	1	13
453.933	1	-3
455.126	1	1
456.320	1	16
457.513	1	12
458.706	1	19
459.899	1	8
461.093	1	14
462.286	1	11
463.479	1	8
464.672	1	14
465.865	1	14
467.058	1	9
468.251	1	10
469.444	1	4
470.637	1	0
471.830	1	9
473.023	1	13
474.215	1	10
475.408	1	6
476.601	1	8
477.793	1	0
478.986	1	5
480.179	1	8
481.371	1	0
482.564	1	13
483.756	1	8
484.948	1	8
486.141	1	14
487.333	1	-1
488.525	1	2
489.718	1	1
490.910	1	11
492.102	1	9
493.294	1	14
494.486	1	13
495.678	1	16
496.870	1	8
498.062	1	17
499.254	1	13
500.446	1	8
501.638	1	12
502.829	1	5
504.021	1	22
505.213	1	18
506.404	1	19
507.596	1	24
508.788	1	18
509.979	1	21
511.171	1	22
512.362	1	33
513.553	1	27
514.745	1	32
515.936	1	27
517.127	1	33
518.319	1	26
519.510	1	19
520.701	1	29
521.892	1	35
523.083	1	17
524.274	1	29
525.465	1	33
526.656	1	31
527.847	1	23
529.038	1	29
530.229	1	27
531.419	1	19
532.610	1	37
533.801	1	31
534.991	1	18
536.182	1	27
537.373	1	24
538.563	1	19
539.754	1	26
540.944	1	17
542.134	1	23
543.325	1	26
544.515	1	20
545.705	1	26
546.896	1	21
548.086	1	22
549.276	1	28
550.466	1	27
551.656	1	17
552.846	1	17
554.036	1	28
555.226	1	14
556.416	1	19
557.606	1	13
558.796	1	33
559.986	1	23
561.175	1	17
562.365	1	23
563.555	1	21
564.744	1	17
565.934	1	20
567.123	1	9
568.313	1	16
569.502	1	18
570.692	1	20
571.881	1	5
573.070	1	18
574.260	1	23
575.449	1	9
576.638	1	20
577.827	1	10
579.016	1	14
580.205	1	17
581.394	1	16
582.583	1	7
583.772	1	14
584.961	1	9
586.150	1	13
587.339	1	9
588.528	1	6
589.717	1	7
590.905	1	5
592.094	1	16
593.283	1	5
594.471	1	5
595.660	1	16
596.848	1	16
598.037	1	6
599.225	1	12
600.413	1	4
601.602	1	11
602.790	1	7
603.978	1	8
605.166	1	10
606.355	1	-2
607.543	1	17
608.731	1	-3
609.919	1	1
611.107	1	8
612.295	1	14
613.483	1	6
614.671	1	12
615.858	1	3
617.046	1	5
618.234	1	8
619.422	1	12
620.609	1	1
621.797	1	7
622.985	1	2
624.172	1	3
625.360	1	-2
626.547	1	5
627.735	1	2
628.922	1	9
630.109	1	-6
631.297	1	7
632.484	1	11
633.671	1	6
634.858	1	16
636.045	1	2
637.232	1	8
638.419	1	11
639.606	1	4
640.793	1	7
641.980	1	20
643.167	1	7
644.354	1	9
645.541	1	9
646.728	1	19
647.914	1	5
649.101	1	3
650.288	1	6
651.474	1	13
652.661	1	13
653.847	1	11
655.034	1	3
656.220	1	7
657.406	1	8
658.593	1	15
659.779	1	13
660.965	1	2
662.152	1	6
663.338	1	2
664.524	1	13
665.710	1	4
666.896	1	8
668.082	1	4
669.268	1	4
670.454	1	7
671.640	1	3
672.826	1	7
674.011	1	14
675.197	1	9
676.383	1	3
677.569	1	14
678.754	1	1
679.940	1	-2
681.125	1	-5
682.311	1	16
683.496	1	-1
684.682	1	3
685.867	1	-4
687.053	1	23
688.238	1	10
688.746	1	5