File: Data/GaN_150K_450ms/GaN_sample D_spot15_UVVIS_150 K_200um_450 ms 2x2mm1_51.txt
340.368	1	0
341.565	1	11
342.763	1	1
343.960	1	7
345.157	1	12
346.354	1	5
347.552	1	17
348.749	1	16
349.946	1	4
351.143	1	10
352.340	1	18
353.537	1	16
354.734	1	21
355.931	1	21
357.127	1	49
358.324	1	49
359.521	1	77
360.718	1	91
361.914	1	160
363.111	1	245
364.308	1	456
365.504	1	730
366.701	1	1123
367.897	1	1363
369.093	1	1316
370.290	1	1067
371.486	1	799
372.682	1	595
373.879	1	485
375.075	1	395
376.271	1	341
377.467	1	284
378.663	1	211
379.859	1	185
381.055	1	182
382.251	1	178
383.447	1	192
384.643	1	211
385.839	1	228
387.035	1	209
388.230	1	174
389.426	1	178
390.622	1	172
391.817	1	147
393.013	1	150
394.208	1	124
395.404	1	141
396.599	1	154
397.795	1	144
398.990	1	150
400.186	1	133
401.381	1	123
402.576	1	113
403.771	1	97
404.967	1	111
406.162	1	94
407.357	1	104
408.552	1	81
409.747	1	81
410.942	1	87
412.137	1	74
413.332	1	69
414.526	1	56
415.721	1	65
416.916	1	56
418.111	1	75
419.305	1	66
420.500	1	56
421.695	1	66
422.889	1	56
424.084	1	64
425.278	1	48
426.472	1	64
427.667	1	56
428.861	1	56
430.055	1	47
431.250	1	43
432.444	1	43
433.638	1	40
434.832	1	37
436.026	1	32
437.220	1	43
438.414	1	49
439.608	1	36
440.802	1	45
441.996	1	30
443.190	1	41
444.384	1	43
445.578	1	29
446.771	1	43
447.965	1	30
449.159	1	26
450.352	1	26
451.546	1	21
452.739	1	41
453.933	1	25
455.126	1	28
456.320	1	44
457.513	1	33
458.706	1	41
459.899	1	25
461.093	1	28
462.286	1	29
463.479	1	31
464.672	1	31
465.865	1	35
467.058	1	32
468.251	1	27
469.444	1	42
470.637	1	32
471.830	1	31
473.023	1	45
474.215	1	35
475.408	1	37
476.601	1	31
477.793	1	44
478.986	1	38
480.179	1	47
481.371	1	35
482.564	1	48
483.756	1	51
484.948	1	54
486.141	1	53
487.333	1	55
488.525	1	59
489.718	1	69
490.910	1	82
492.102	1	83
493.294	1	74
494.486	1	90
495.678	1	82
496.870	1	93
498.062	1	110
499.254	1	102
500.446	1	114
501.638	1	133
502.829	1	130
504.021	1	152
505.213	1	136
506.404	1	166
507.596	1	172
508.788	1	163
509.979	1	151
511.171	1	164
512.362	1	166
513.553	1	174
514.745	1	187
515.936	1	208
517.127	1	212
518.319	1	201
519.510	1	231
520.701	1	222
521.892	1	223
523.083	1	220
524.274	1	233
525.465	1	247
526.656	1	233
527.847	1	238
529.038	1	265
530.229	1	263
531.419	1	255
532.610	1	267
533.801	1	244
534.991	1	252
536.182	1	251
537.373	1	234
538.563	1	219
539.754	1	224
540.944	1	213
542.134	1	244
543.325	1	233
544.515	1	235
545.705	1	233
546.896	1	228
548.086	1	245
549.276	1	256
550.466	1	236
551.656	1	223
552.846	1	243
554.036	1	230
555.226	1	224
556.416	1	225
557.606	1	202
558.796	1	210
559.986	1	203
561.175	1	196
562.365	1	202
563.555	1	195
564.744	1	203
565.934	1	201
567.123	1	190
568.313	1	167
569.502	1	185
570.692	1	170
571.881	1	180
573.070	1	182
574.260	1	153
575.449	1	160
576.638	1	178
577.827	1	158
579.016	1	158
580.205	1	155
581.394	1	165
582.583	1	154
583.772	1	157
584.961	1	139
586.150	1	152
587.339	1	151
588.528	1	134
589.717	1	137
590.905	1	122
592.094	1	117
593.283	1	119
594.471	1	108
595.660	1	123
596.848	1	110
598.037	1	123
599.225	1	124
600.413	1	126
601.602	1	129
602.790	1	123
603.978	1	118
605.166	1	117
606.355	1	105
607.543	1	118
608.731	1	103
609.919	1	93
611.107	1	129
612.295	1	103
613.483	1	103
614.671	1	102
615.858	1	84
617.046	1	96
618.234	1	91
619.422	1	100
620.609	1	84
621.797	1	93
622.985	1	86
624.172	1	84
625.360	1	88
626.547	1	85
627.735	1	90
628.922	1	90
630.109	1	72
631.297	1	82
632.484	1	79
633.671	1	83
634.858	1	80
636.045	1	73
637.232	1	80
638.419	1	70
639.606	1	77
640.793	1	75
641.980	1	79
643.167	1	77
644.354	1	74
645.541	1	74
646.728	1	73
647.914	1	74
649.101	1	68
650.288	1	69
651.474	1	76
652.661	1	72
653.847	1	62
655.034	1	57
656.220	1	69
657.406	1	57
658.593	1	61
659.779	1	62
660.965	1	61
662.152	1	68
663.338	1	55
664.524	1	62
665.710	1	57
666.896	1	62
668.082	1	55
669.268	1	56
670.454	1	56
671.640	1	51
672.826	1	55
674.011	1	58
675.197	1	49
676.383	1	56
677.569	1	69
678.754	1	57
679.940	1	50
681.125	1	54
682.311	1	53
683.496	1	40
684.682	1	57
685.867	1	54
687.053	1	71
688.238	1	60
688.746	1	58