File: Data/GaN_150K_450ms/GaN_sample D_spot15_UVVIS_150 K_200um_450 ms 2x2mm1_154.txt
340.368	1	5
341.565	1	4
342.763	1	-6
343.960	1	7
345.157	1	7
346.354	1	6
347.552	1	9
348.749	1	15
349.946	1	6
351.143	1	9
352.340	1	13
353.537	1	-2
354.734	1	10
355.931	1	9
357.127	1	18
358.324	1	11
359.521	1	16
360.718	1	9
361.914	1	24
363.111	1	11
364.308	1	30
365.504	1	18
366.701	1	34
367.897	1	25
369.093	1	35
370.290	1	41
371.486	1	39
372.682	1	28
373.879	1	20
375.075	1	11
376.271	1	9
377.467	1	23
378.663	1	19
379.859	1	15
381.055	1	8
382.251	1	6
383.447	1	12
384.643	1	4
385.839	1	18
387.035	1	14
388.230	1	7
389.426	1	6
390.622	1	1
391.817	1	-7
393.013	1	19
394.208	1	0
395.404	1	8
396.599	1	7
397.795	1	4
398.990	1	13
400.186	1	0
401.381	1	3
402.576	1	7
403.771	1	10
404.967	1	13
406.162	1	-5
407.357	1	12
408.552	1	3
409.747	1	0
410.942	1	13
412.137	1	8
413.332	1	14
414.526	1	11
415.721	1	15
416.916	1	4
418.111	1	14
419.305	1	14
420.500	1	2
421.695	1	7
422.889	1	7
424.084	1	9
425.278	1	2
426.472	1	9
427.667	1	14
428.861	1	12
430.055	1	13
431.250	1	13
432.444	1	16
433.638	1	11
434.832	1	6
436.026	1	4
437.220	1	21
438.414	1	17
439.608	1	3
440.802	1	6
441.996	1	4
443.190	1	12
444.384	1	24
445.578	1	-4
446.771	1	4
447.965	1	9
449.159	1	5
450.352	1	-7
451.546	1	-3
452.739	1	7
453.933	1	-1
455.126	1	1
456.320	1	9
457.513	1	3
458.706	1	14
459.899	1	14
461.093	1	6
462.286	1	-3
463.479	1	-1
464.672	1	13
465.865	1	5
467.058	1	4
468.251	1	4
469.444	1	4
470.637	1	3
471.830	1	2
473.023	1	8
474.215	1	8
475.408	1	8
476.601	1	3
477.793	1	9
478.986	1	10
480.179	1	4
481.371	1	-11
482.564	1	11
483.756	1	11
484.948	1	10
486.141	1	4
487.333	1	0
488.525	1	3
489.718	1	-5
490.910	1	13
492.102	1	0
493.294	1	-3
494.486	1	3
495.678	1	-3
496.870	1	6
498.062	1	3
499.254	1	-3
500.446	1	1
501.638	1	9
502.829	1	5
504.021	1	11
505.213	1	5
506.404	1	8
507.596	1	12
508.788	1	6
509.979	1	-1
511.171	1	3
512.362	1	4
513.553	1	10
514.745	1	14
515.936	1	13
517.127	1	19
518.319	1	2
519.510	1	-4
520.701	1	12
521.892	1	8
523.083	1	6
524.274	1	9
525.465	1	12
526.656	1	10
527.847	1	-7
529.038	1	5
530.229	1	9
531.419	1	9
532.610	1	22
533.801	1	13
534.991	1	9
536.182	1	6
537.373	1	3
538.563	1	7
539.754	1	11
540.944	1	2
542.134	1	8
543.325	1	13
544.515	1	11
545.705	1	14
546.896	1	6
548.086	1	3
549.276	1	5
550.466	1	7
551.656	1	7
552.846	1	4
554.036	1	17
555.226	1	5
556.416	1	17
557.606	1	-13
558.796	1	8
559.986	1	6
561.175	1	5
562.365	1	7
563.555	1	18
564.744	1	16
565.934	1	13
567.123	1	-1
568.313	1	11
569.502	1	6
570.692	1	7
571.881	1	-1
573.070	1	7
574.260	1	3
575.449	1	4
576.638	1	12
577.827	1	5
579.016	1	5
580.205	1	1
581.394	1	6
582.583	1	7
583.772	1	11
584.961	1	-5
586.150	1	20
587.339	1	2
588.528	1	-1
589.717	1	1
590.905	1	6
592.094	1	3
593.283	1	12
594.471	1	0
595.660	1	1
596.848	1	6
598.037	1	10
599.225	1	3
600.413	1	-1
601.602	1	6
602.790	1	10
603.978	1	-3
605.166	1	9
606.355	1	-7
607.543	1	3
608.731	1	-4
609.919	1	-9
611.107	1	9
612.295	1	4
613.483	1	-2
614.671	1	13
615.858	1	-7
617.046	1	2
618.234	1	-6
619.422	1	11
620.609	1	0
621.797	1	-3
622.985	1	9
624.172	1	2
625.360	1	2
626.547	1	1
627.735	1	5
628.922	1	14
630.109	1	-5
631.297	1	6
632.484	1	9
633.671	1	11
634.858	1	4
636.045	1	3
637.232	1	7
638.419	1	-1
639.606	1	15
640.793	1	-1
641.980	1	2
643.167	1	12
644.354	1	4
645.541	1	-5
646.728	1	0
647.914	1	5
649.101	1	5
650.288	1	2
651.474	1	13
652.661	1	5
653.847	1	11
655.034	1	1
656.220	1	10
657.406	1	1
658.593	1	6
659.779	1	14
660.965	1	8
662.152	1	0
663.338	1	-2
664.524	1	11
665.710	1	0
666.896	1	13
668.082	1	2
669.268	1	-6
670.454	1	-3
671.640	1	9
672.826	1	5
674.011	1	8
675.197	1	5
676.383	1	-5
677.569	1	11
678.754	1	3
679.940	1	-11
681.125	1	-2
682.311	1	10
683.496	1	1
684.682	1	10
685.867	1	-1
687.053	1	21
688.238	1	4
688.746	1	8