File: Data/GaN_150K_450ms/GaN_sample D_spot15_UVVIS_150 K_200um_450 ms 2x2mm1_50.txt
340.368	1	5
341.565	1	12
342.763	1	2
343.960	1	7
345.157	1	10
346.354	1	6
347.552	1	26
348.749	1	19
349.946	1	9
351.143	1	19
352.340	1	24
353.537	1	9
354.734	1	34
355.931	1	33
357.127	1	53
358.324	1	50
359.521	1	80
360.718	1	115
361.914	1	177
363.111	1	306
364.308	1	538
365.504	1	914
366.701	1	1410
367.897	1	1748
369.093	1	1683
370.290	1	1356
371.486	1	1000
372.682	1	758
373.879	1	614
375.075	1	510
376.271	1	399
377.467	1	338
378.663	1	276
379.859	1	249
381.055	1	254
382.251	1	252
383.447	1	286
384.643	1	355
385.839	1	361
387.035	1	348
388.230	1	299
389.426	1	296
390.622	1	291
391.817	1	271
393.013	1	254
394.208	1	236
395.404	1	249
396.599	1	270
397.795	1	262
398.990	1	252
400.186	1	216
401.381	1	198
402.576	1	176
403.771	1	170
404.967	1	161
406.162	1	154
407.357	1	156
408.552	1	151
409.747	1	132
410.942	1	153
412.137	1	125
413.332	1	114
414.526	1	99
415.721	1	94
416.916	1	104
418.111	1	113
419.305	1	112
420.500	1	92
421.695	1	78
422.889	1	80
424.084	1	78
425.278	1	81
426.472	1	78
427.667	1	88
428.861	1	72
430.055	1	67
431.250	1	70
432.444	1	58
433.638	1	69
434.832	1	59
436.026	1	56
437.220	1	65
438.414	1	50
439.608	1	42
440.802	1	50
441.996	1	50
443.190	1	59
444.384	1	46
445.578	1	47
446.771	1	43
447.965	1	50
449.159	1	39
450.352	1	40
451.546	1	44
452.739	1	43
453.933	1	38
455.126	1	40
456.320	1	38
457.513	1	34
458.706	1	44
459.899	1	29
461.093	1	34
462.286	1	34
463.479	1	38
464.672	1	46
465.865	1	33
467.058	1	35
468.251	1	29
469.444	1	44
470.637	1	44
471.830	1	47
473.023	1	41
474.215	1	40
475.408	1	46
476.601	1	45
477.793	1	41
478.986	1	50
480.179	1	50
481.371	1	45
482.564	1	55
483.756	1	54
484.948	1	62
486.141	1	65
487.333	1	60
488.525	1	76
489.718	1	72
490.910	1	77
492.102	1	84
493.294	1	92
494.486	1	92
495.678	1	100
496.870	1	113
498.062	1	109
499.254	1	121
500.446	1	134
501.638	1	140
502.829	1	148
504.021	1	168
505.213	1	186
506.404	1	187
507.596	1	193
508.788	1	189
509.979	1	184
511.171	1	190
512.362	1	211
513.553	1	219
514.745	1	217
515.936	1	228
517.127	1	236
518.319	1	253
519.510	1	260
520.701	1	258
521.892	1	264
523.083	1	281
524.274	1	278
525.465	1	283
526.656	1	280
527.847	1	289
529.038	1	300
530.229	1	322
531.419	1	340
532.610	1	329
533.801	1	316
534.991	1	309
536.182	1	299
537.373	1	288
538.563	1	291
539.754	1	291
540.944	1	290
542.134	1	284
543.325	1	301
544.515	1	303
545.705	1	302
546.896	1	310
548.086	1	312
549.276	1	331
550.466	1	318
551.656	1	312
552.846	1	310
554.036	1	307
555.226	1	291
556.416	1	293
557.606	1	278
558.796	1	278
559.986	1	277
561.175	1	272
562.365	1	260
563.555	1	281
564.744	1	286
565.934	1	282
567.123	1	263
568.313	1	269
569.502	1	248
570.692	1	253
571.881	1	244
573.070	1	234
574.260	1	249
575.449	1	234
576.638	1	251
577.827	1	237
579.016	1	236
580.205	1	230
581.394	1	245
582.583	1	231
583.772	1	237
584.961	1	226
586.150	1	217
587.339	1	229
588.528	1	209
589.717	1	216
590.905	1	187
592.094	1	205
593.283	1	188
594.471	1	180
595.660	1	199
596.848	1	184
598.037	1	190
599.225	1	184
600.413	1	183
601.602	1	195
602.790	1	184
603.978	1	192
605.166	1	193
606.355	1	184
607.543	1	190
608.731	1	177
609.919	1	178
611.107	1	178
612.295	1	168
613.483	1	156
614.671	1	171
615.858	1	149
617.046	1	150
618.234	1	144
619.422	1	146
620.609	1	148
621.797	1	144
622.985	1	134
624.172	1	131
625.360	1	153
626.547	1	138
627.735	1	139
628.922	1	142
630.109	1	139
631.297	1	131
632.484	1	140
633.671	1	133
634.858	1	123
636.045	1	114
637.232	1	130
638.419	1	105
639.606	1	123
640.793	1	116
641.980	1	127
643.167	1	109
644.354	1	117
645.541	1	105
646.728	1	116
647.914	1	108
649.101	1	108
650.288	1	119
651.474	1	112
652.661	1	112
653.847	1	96
655.034	1	100
656.220	1	91
657.406	1	97
658.593	1	99
659.779	1	99
660.965	1	96
662.152	1	87
663.338	1	83
664.524	1	83
665.710	1	83
666.896	1	79
668.082	1	85
669.268	1	79
670.454	1	90
671.640	1	100
672.826	1	87
674.011	1	85
675.197	1	80
676.383	1	80
677.569	1	92
678.754	1	87
679.940	1	83
681.125	1	74
682.311	1	86
683.496	1	70
684.682	1	83
685.867	1	76
687.053	1	96
688.238	1	86
688.746	1	78