File: Data/GaN_150K_450ms/GaN_sample D_spot15_UVVIS_150 K_200um_450 ms 2x2mm1_179.txt
340.368	1	-3
341.565	1	3
342.763	1	5
343.960	1	2
345.157	1	15
346.354	1	4
347.552	1	11
348.749	1	15
349.946	1	8
351.143	1	7
352.340	1	9
353.537	1	-1
354.734	1	8
355.931	1	8
357.127	1	13
358.324	1	14
359.521	1	12
360.718	1	4
361.914	1	12
363.111	1	8
364.308	1	25
365.504	1	15
366.701	1	9
367.897	1	35
369.093	1	26
370.290	1	31
371.486	1	23
372.682	1	17
373.879	1	12
375.075	1	13
376.271	1	6
377.467	1	16
378.663	1	12
379.859	1	7
381.055	1	7
382.251	1	-2
383.447	1	5
384.643	1	8
385.839	1	4
387.035	1	13
388.230	1	4
389.426	1	-6
390.622	1	2
391.817	1	2
393.013	1	8
394.208	1	7
395.404	1	12
396.599	1	8
397.795	1	8
398.990	1	9
400.186	1	8
401.381	1	5
402.576	1	10
403.771	1	-2
404.967	1	5
406.162	1	0
407.357	1	7
408.552	1	-5
409.747	1	4
410.942	1	16
412.137	1	-2
413.332	1	0
414.526	1	1
415.721	1	10
416.916	1	0
418.111	1	10
419.305	1	9
420.500	1	9
421.695	1	14
422.889	1	11
424.084	1	4
425.278	1	9
426.472	1	6
427.667	1	9
428.861	1	13
430.055	1	12
431.250	1	12
432.444	1	12
433.638	1	9
434.832	1	5
436.026	1	3
437.220	1	16
438.414	1	12
439.608	1	10
440.802	1	2
441.996	1	4
443.190	1	10
444.384	1	17
445.578	1	5
446.771	1	10
447.965	1	4
449.159	1	5
450.352	1	-2
451.546	1	-2
452.739	1	6
453.933	1	3
455.126	1	-5
456.320	1	9
457.513	1	9
458.706	1	14
459.899	1	3
461.093	1	12
462.286	1	1
463.479	1	7
464.672	1	5
465.865	1	3
467.058	1	-1
468.251	1	-6
469.444	1	5
470.637	1	1
471.830	1	6
473.023	1	9
474.215	1	8
475.408	1	5
476.601	1	8
477.793	1	-6
478.986	1	7
480.179	1	2
481.371	1	-6
482.564	1	4
483.756	1	7
484.948	1	9
486.141	1	12
487.333	1	-9
488.525	1	-3
489.718	1	-7
490.910	1	5
492.102	1	9
493.294	1	-11
494.486	1	4
495.678	1	5
496.870	1	1
498.062	1	5
499.254	1	3
500.446	1	0
501.638	1	12
502.829	1	12
504.021	1	3
505.213	1	-1
506.404	1	5
507.596	1	19
508.788	1	5
509.979	1	3
511.171	1	16
512.362	1	14
513.553	1	10
514.745	1	-2
515.936	1	-12
517.127	1	12
518.319	1	12
519.510	1	5
520.701	1	10
521.892	1	11
523.083	1	-6
524.274	1	-1
525.465	1	10
526.656	1	11
527.847	1	-2
529.038	1	13
530.229	1	10
531.419	1	13
532.610	1	8
533.801	1	14
534.991	1	6
536.182	1	23
537.373	1	6
538.563	1	2
539.754	1	4
540.944	1	13
542.134	1	5
543.325	1	17
544.515	1	7
545.705	1	9
546.896	1	6
548.086	1	5
549.276	1	16
550.466	1	1
551.656	1	9
552.846	1	16
554.036	1	8
555.226	1	7
556.416	1	17
557.606	1	-1
558.796	1	14
559.986	1	7
561.175	1	4
562.365	1	-1
563.555	1	1
564.744	1	15
565.934	1	12
567.123	1	1
568.313	1	5
569.502	1	6
570.692	1	10
571.881	1	0
573.070	1	4
574.260	1	9
575.449	1	6
576.638	1	0
577.827	1	8
579.016	1	4
580.205	1	1
581.394	1	5
582.583	1	3
583.772	1	11
584.961	1	1
586.150	1	3
587.339	1	7
588.528	1	0
589.717	1	4
590.905	1	-9
592.094	1	2
593.283	1	6
594.471	1	-8
595.660	1	11
596.848	1	7
598.037	1	-1
599.225	1	-1
600.413	1	6
601.602	1	8
602.790	1	5
603.978	1	3
605.166	1	2
606.355	1	-7
607.543	1	1
608.731	1	-10
609.919	1	-7
611.107	1	9
612.295	1	8
613.483	1	3
614.671	1	5
615.858	1	-7
617.046	1	-4
618.234	1	0
619.422	1	17
620.609	1	2
621.797	1	1
622.985	1	4
624.172	1	-1
625.360	1	9
626.547	1	-2
627.735	1	1
628.922	1	8
630.109	1	-2
631.297	1	0
632.484	1	9
633.671	1	3
634.858	1	4
636.045	1	-1
637.232	1	3
638.419	1	5
639.606	1	14
640.793	1	-1
641.980	1	11
643.167	1	1
644.354	1	13
645.541	1	-2
646.728	1	11
647.914	1	-1
649.101	1	6
650.288	1	7
651.474	1	1
652.661	1	8
653.847	1	7
655.034	1	-1
656.220	1	-1
657.406	1	0
658.593	1	1
659.779	1	10
660.965	1	5
662.152	1	3
663.338	1	1
664.524	1	17
665.710	1	6
666.896	1	-1
668.082	1	9
669.268	1	-4
670.454	1	8
671.640	1	4
672.826	1	3
674.011	1	9
675.197	1	9
676.383	1	6
677.569	1	17
678.754	1	1
679.940	1	-1
681.125	1	-3
682.311	1	1
683.496	1	-1
684.682	1	12
685.867	1	-1
687.053	1	14
688.238	1	6
688.746	1	-5