File: Data/GaN_150K_450ms/GaN_sample D_spot15_UVVIS_150 K_200um_450 ms 2x2mm1_271.txt
340.368	1	3
341.565	1	6
342.763	1	-4
343.960	1	3
345.157	1	8
346.354	1	-5
347.552	1	16
348.749	1	10
349.946	1	-4
351.143	1	6
352.340	1	7
353.537	1	0
354.734	1	0
355.931	1	7
357.127	1	11
358.324	1	6
359.521	1	8
360.718	1	6
361.914	1	9
363.111	1	2
364.308	1	19
365.504	1	3
366.701	1	-3
367.897	1	15
369.093	1	13
370.290	1	22
371.486	1	11
372.682	1	18
373.879	1	2
375.075	1	3
376.271	1	2
377.467	1	11
378.663	1	7
379.859	1	5
381.055	1	-10
382.251	1	4
383.447	1	-2
384.643	1	0
385.839	1	10
387.035	1	4
388.230	1	9
389.426	1	4
390.622	1	4
391.817	1	-2
393.013	1	5
394.208	1	-4
395.404	1	5
396.599	1	8
397.795	1	-9
398.990	1	13
400.186	1	9
401.381	1	1
402.576	1	-2
403.771	1	-11
404.967	1	-1
406.162	1	4
407.357	1	8
408.552	1	-8
409.747	1	-1
410.942	1	10
412.137	1	2
413.332	1	9
414.526	1	-4
415.721	1	-1
416.916	1	8
418.111	1	7
419.305	1	-1
420.500	1	4
421.695	1	4
422.889	1	3
424.084	1	8
425.278	1	4
426.472	1	7
427.667	1	-6
428.861	1	9
430.055	1	6
431.250	1	8
432.444	1	9
433.638	1	8
434.832	1	-4
436.026	1	1
437.220	1	15
438.414	1	8
439.608	1	-2
440.802	1	6
441.996	1	7
443.190	1	14
444.384	1	3
445.578	1	-9
446.771	1	5
447.965	1	8
449.159	1	-4
450.352	1	-10
451.546	1	5
452.739	1	-5
453.933	1	2
455.126	1	10
456.320	1	13
457.513	1	0
458.706	1	19
459.899	1	-3
461.093	1	3
462.286	1	-5
463.479	1	-1
464.672	1	7
465.865	1	0
467.058	1	3
468.251	1	0
469.444	1	8
470.637	1	-1
471.830	1	8
473.023	1	7
474.215	1	-7
475.408	1	-5
476.601	1	1
477.793	1	-2
478.986	1	5
480.179	1	6
481.371	1	1
482.564	1	7
483.756	1	3
484.948	1	8
486.141	1	6
487.333	1	-4
488.525	1	-2
489.718	1	-4
490.910	1	8
492.102	1	5
493.294	1	-2
494.486	1	7
495.678	1	6
496.870	1	4
498.062	1	-2
499.254	1	-5
500.446	1	3
501.638	1	3
502.829	1	-11
504.021	1	-5
505.213	1	0
506.404	1	8
507.596	1	15
508.788	1	3
509.979	1	-6
511.171	1	4
512.362	1	-3
513.553	1	8
514.745	1	-2
515.936	1	3
517.127	1	6
518.319	1	-8
519.510	1	-3
520.701	1	7
521.892	1	4
523.083	1	-5
524.274	1	7
525.465	1	11
526.656	1	5
527.847	1	-6
529.038	1	0
530.229	1	7
531.419	1	-1
532.610	1	4
533.801	1	13
534.991	1	0
536.182	1	4
537.373	1	3
538.563	1	7
539.754	1	4
540.944	1	5
542.134	1	0
543.325	1	4
544.515	1	5
545.705	1	3
546.896	1	5
548.086	1	7
549.276	1	4
550.466	1	1
551.656	1	-3
552.846	1	9
554.036	1	5
555.226	1	9
556.416	1	8
557.606	1	-1
558.796	1	11
559.986	1	9
561.175	1	0
562.365	1	2
563.555	1	6
564.744	1	12
565.934	1	14
567.123	1	8
568.313	1	4
569.502	1	3
570.692	1	8
571.881	1	0
573.070	1	-4
574.260	1	7
575.449	1	-7
576.638	1	1
577.827	1	-2
579.016	1	-4
580.205	1	-1
581.394	1	4
582.583	1	1
583.772	1	6
584.961	1	-3
586.150	1	5
587.339	1	0
588.528	1	6
589.717	1	13
590.905	1	-5
592.094	1	7
593.283	1	10
594.471	1	-5
595.660	1	4
596.848	1	14
598.037	1	5
599.225	1	10
600.413	1	-4
601.602	1	2
602.790	1	-2
603.978	1	3
605.166	1	5
606.355	1	-9
607.543	1	13
608.731	1	-9
609.919	1	-3
611.107	1	3
612.295	1	6
613.483	1	-3
614.671	1	7
615.858	1	-14
617.046	1	-2
618.234	1	-7
619.422	1	15
620.609	1	-2
621.797	1	-3
622.985	1	-6
624.172	1	-3
625.360	1	10
626.547	1	-7
627.735	1	4
628.922	1	-1
630.109	1	-2
631.297	1	-5
632.484	1	13
633.671	1	5
634.858	1	3
636.045	1	-2
637.232	1	-1
638.419	1	-1
639.606	1	-2
640.793	1	0
641.980	1	5
643.167	1	0
644.354	1	2
645.541	1	5
646.728	1	1
647.914	1	0
649.101	1	1
650.288	1	-2
651.474	1	11
652.661	1	15
653.847	1	-1
655.034	1	0
656.220	1	4
657.406	1	1
658.593	1	7
659.779	1	10
660.965	1	1
662.152	1	2
663.338	1	-2
664.524	1	7
665.710	1	6
666.896	1	8
668.082	1	8
669.268	1	3
670.454	1	9
671.640	1	10
672.826	1	2
674.011	1	6
675.197	1	6
676.383	1	5
677.569	1	16
678.754	1	2
679.940	1	3
681.125	1	-2
682.311	1	6
683.496	1	-6
684.682	1	9
685.867	1	3
687.053	1	15
688.238	1	8
688.746	1	-1