File: Data/GaN_150K_450ms/GaN_sample D_spot15_UVVIS_150 K_200um_450 ms 2x2mm1_308.txt
340.368	1	-7
341.565	1	7
342.763	1	8
343.960	1	1
345.157	1	11
346.354	1	-3
347.552	1	13
348.749	1	11
349.946	1	1
351.143	1	5
352.340	1	-1
353.537	1	-3
354.734	1	1
355.931	1	8
357.127	1	5
358.324	1	3
359.521	1	9
360.718	1	11
361.914	1	9
363.111	1	8
364.308	1	6
365.504	1	-1
366.701	1	5
367.897	1	13
369.093	1	6
370.290	1	12
371.486	1	12
372.682	1	12
373.879	1	7
375.075	1	1
376.271	1	7
377.467	1	12
378.663	1	-5
379.859	1	-1
381.055	1	2
382.251	1	-10
383.447	1	2
384.643	1	4
385.839	1	11
387.035	1	14
388.230	1	8
389.426	1	2
390.622	1	0
391.817	1	-10
393.013	1	7
394.208	1	1
395.404	1	-1
396.599	1	4
397.795	1	-6
398.990	1	17
400.186	1	-4
401.381	1	-5
402.576	1	2
403.771	1	-9
404.967	1	3
406.162	1	-9
407.357	1	2
408.552	1	-2
409.747	1	-2
410.942	1	12
412.137	1	3
413.332	1	4
414.526	1	-6
415.721	1	1
416.916	1	3
418.111	1	5
419.305	1	9
420.500	1	5
421.695	1	13
422.889	1	2
424.084	1	3
425.278	1	5
426.472	1	8
427.667	1	0
428.861	1	3
430.055	1	8
431.250	1	6
432.444	1	-2
433.638	1	1
434.832	1	0
436.026	1	-6
437.220	1	3
438.414	1	-5
439.608	1	-3
440.802	1	0
441.996	1	1
443.190	1	-1
444.384	1	-1
445.578	1	-3
446.771	1	-2
447.965	1	5
449.159	1	-2
450.352	1	-1
451.546	1	2
452.739	1	2
453.933	1	-6
455.126	1	1
456.320	1	8
457.513	1	-5
458.706	1	9
459.899	1	0
461.093	1	7
462.286	1	-2
463.479	1	6
464.672	1	-1
465.865	1	2
467.058	1	-2
468.251	1	4
469.444	1	14
470.637	1	-6
471.830	1	7
473.023	1	10
474.215	1	12
475.408	1	7
476.601	1	2
477.793	1	-5
478.986	1	-1
480.179	1	6
481.371	1	-9
482.564	1	0
483.756	1	0
484.948	1	-4
486.141	1	6
487.333	1	-2
488.525	1	-5
489.718	1	-12
490.910	1	8
492.102	1	10
493.294	1	-8
494.486	1	3
495.678	1	-7
496.870	1	3
498.062	1	0
499.254	1	-1
500.446	1	-2
501.638	1	0
502.829	1	2
504.021	1	-4
505.213	1	-7
506.404	1	-4
507.596	1	7
508.788	1	3
509.979	1	-7
511.171	1	7
512.362	1	8
513.553	1	0
514.745	1	7
515.936	1	3
517.127	1	10
518.319	1	-1
519.510	1	-5
520.701	1	2
521.892	1	1
523.083	1	-3
524.274	1	4
525.465	1	17
526.656	1	3
527.847	1	-8
529.038	1	8
530.229	1	5
531.419	1	4
532.610	1	14
533.801	1	1
534.991	1	-2
536.182	1	0
537.373	1	3
538.563	1	0
539.754	1	9
540.944	1	3
542.134	1	8
543.325	1	1
544.515	1	4
545.705	1	1
546.896	1	-3
548.086	1	7
549.276	1	4
550.466	1	4
551.656	1	-2
552.846	1	5
554.036	1	11
555.226	1	1
556.416	1	13
557.606	1	-2
558.796	1	9
559.986	1	3
561.175	1	0
562.365	1	7
563.555	1	6
564.744	1	22
565.934	1	14
567.123	1	3
568.313	1	6
569.502	1	7
570.692	1	10
571.881	1	-2
573.070	1	5
574.260	1	6
575.449	1	2
576.638	1	3
577.827	1	0
579.016	1	2
580.205	1	-3
581.394	1	-4
582.583	1	13
583.772	1	16
584.961	1	-5
586.150	1	6
587.339	1	2
588.528	1	-6
589.717	1	-1
590.905	1	-3
592.094	1	9
593.283	1	-3
594.471	1	5
595.660	1	4
596.848	1	10
598.037	1	2
599.225	1	4
600.413	1	6
601.602	1	3
602.790	1	6
603.978	1	4
605.166	1	-1
606.355	1	-7
607.543	1	9
608.731	1	-5
609.919	1	-9
611.107	1	9
612.295	1	3
613.483	1	3
614.671	1	5
615.858	1	-8
617.046	1	-4
618.234	1	-6
619.422	1	18
620.609	1	8
621.797	1	5
622.985	1	0
624.172	1	3
625.360	1	1
626.547	1	-1
627.735	1	-3
628.922	1	1
630.109	1	-6
631.297	1	0
632.484	1	5
633.671	1	6
634.858	1	4
636.045	1	-9
637.232	1	0
638.419	1	-4
639.606	1	5
640.793	1	-1
641.980	1	13
643.167	1	7
644.354	1	9
645.541	1	3
646.728	1	15
647.914	1	-1
649.101	1	1
650.288	1	4
651.474	1	1
652.661	1	5
653.847	1	11
655.034	1	2
656.220	1	-4
657.406	1	-4
658.593	1	8
659.779	1	3
660.965	1	9
662.152	1	0
663.338	1	-5
664.524	1	11
665.710	1	-5
666.896	1	5
668.082	1	3
669.268	1	-1
670.454	1	8
671.640	1	7
672.826	1	0
674.011	1	4
675.197	1	1
676.383	1	-1
677.569	1	19
678.754	1	7
679.940	1	-9
681.125	1	1
682.311	1	4
683.496	1	-6
684.682	1	6
685.867	1	2
687.053	1	19
688.238	1	8
688.746	1	1