File: Data/GaN_150K_450ms/GaN_sample D_spot15_UVVIS_150 K_200um_450 ms 2x2mm1_91.txt
340.368	1	-1
341.565	1	10
342.763	1	-2
343.960	1	11
345.157	1	17
346.354	1	0
347.552	1	24
348.749	1	21
349.946	1	11
351.143	1	11
352.340	1	12
353.537	1	7
354.734	1	15
355.931	1	24
357.127	1	16
358.324	1	17
359.521	1	28
360.718	1	31
361.914	1	41
363.111	1	45
364.308	1	65
365.504	1	86
366.701	1	108
367.897	1	115
369.093	1	122
370.290	1	102
371.486	1	89
372.682	1	76
373.879	1	52
375.075	1	47
376.271	1	48
377.467	1	39
378.663	1	39
379.859	1	32
381.055	1	20
382.251	1	22
383.447	1	24
384.643	1	15
385.839	1	24
387.035	1	19
388.230	1	10
389.426	1	12
390.622	1	13
391.817	1	4
393.013	1	12
394.208	1	10
395.404	1	22
396.599	1	14
397.795	1	16
398.990	1	19
400.186	1	20
401.381	1	0
402.576	1	17
403.771	1	3
404.967	1	18
406.162	1	-1
407.357	1	8
408.552	1	9
409.747	1	15
410.942	1	17
412.137	1	14
413.332	1	16
414.526	1	10
415.721	1	13
416.916	1	15
418.111	1	13
419.305	1	18
420.500	1	21
421.695	1	22
422.889	1	12
424.084	1	14
425.278	1	15
426.472	1	21
427.667	1	9
428.861	1	11
430.055	1	19
431.250	1	20
432.444	1	13
433.638	1	16
434.832	1	14
436.026	1	9
437.220	1	18
438.414	1	15
439.608	1	10
440.802	1	13
441.996	1	1
443.190	1	13
444.384	1	14
445.578	1	4
446.771	1	10
447.965	1	13
449.159	1	17
450.352	1	5
451.546	1	5
452.739	1	7
453.933	1	10
455.126	1	7
456.320	1	18
457.513	1	3
458.706	1	23
459.899	1	1
461.093	1	7
462.286	1	-2
463.479	1	1
464.672	1	5
465.865	1	9
467.058	1	6
468.251	1	3
469.444	1	15
470.637	1	22
471.830	1	7
473.023	1	14
474.215	1	6
475.408	1	12
476.601	1	8
477.793	1	4
478.986	1	21
480.179	1	15
481.371	1	5
482.564	1	12
483.756	1	6
484.948	1	12
486.141	1	18
487.333	1	-3
488.525	1	10
489.718	1	8
490.910	1	15
492.102	1	12
493.294	1	11
494.486	1	13
495.678	1	10
496.870	1	16
498.062	1	13
499.254	1	9
500.446	1	0
501.638	1	13
502.829	1	15
504.021	1	19
505.213	1	14
506.404	1	17
507.596	1	24
508.788	1	25
509.979	1	22
511.171	1	21
512.362	1	27
513.553	1	30
514.745	1	37
515.936	1	29
517.127	1	29
518.319	1	31
519.510	1	24
520.701	1	34
521.892	1	39
523.083	1	25
524.274	1	23
525.465	1	42
526.656	1	31
527.847	1	20
529.038	1	34
530.229	1	48
531.419	1	24
532.610	1	45
533.801	1	28
534.991	1	30
536.182	1	31
537.373	1	22
538.563	1	33
539.754	1	28
540.944	1	33
542.134	1	17
543.325	1	39
544.515	1	25
545.705	1	24
546.896	1	36
548.086	1	28
549.276	1	20
550.466	1	24
551.656	1	32
552.846	1	30
554.036	1	26
555.226	1	24
556.416	1	34
557.606	1	13
558.796	1	27
559.986	1	26
561.175	1	19
562.365	1	13
563.555	1	23
564.744	1	23
565.934	1	30
567.123	1	25
568.313	1	10
569.502	1	17
570.692	1	29
571.881	1	5
573.070	1	17
574.260	1	14
575.449	1	9
576.638	1	20
577.827	1	3
579.016	1	11
580.205	1	2
581.394	1	17
582.583	1	15
583.772	1	19
584.961	1	15
586.150	1	19
587.339	1	14
588.528	1	17
589.717	1	11
590.905	1	-2
592.094	1	14
593.283	1	16
594.471	1	1
595.660	1	17
596.848	1	12
598.037	1	3
599.225	1	12
600.413	1	7
601.602	1	-4
602.790	1	7
603.978	1	5
605.166	1	10
606.355	1	-3
607.543	1	15
608.731	1	1
609.919	1	-6
611.107	1	14
612.295	1	3
613.483	1	4
614.671	1	8
615.858	1	-3
617.046	1	14
618.234	1	3
619.422	1	22
620.609	1	9
621.797	1	6
622.985	1	9
624.172	1	11
625.360	1	1
626.547	1	0
627.735	1	-3
628.922	1	12
630.109	1	1
631.297	1	11
632.484	1	6
633.671	1	18
634.858	1	11
636.045	1	1
637.232	1	5
638.419	1	2
639.606	1	26
640.793	1	13
641.980	1	10
643.167	1	0
644.354	1	21
645.541	1	3
646.728	1	5
647.914	1	7
649.101	1	-4
650.288	1	6
651.474	1	0
652.661	1	5
653.847	1	3
655.034	1	4
656.220	1	8
657.406	1	6
658.593	1	10
659.779	1	8
660.965	1	0
662.152	1	6
663.338	1	-1
664.524	1	19
665.710	1	12
666.896	1	7
668.082	1	7
669.268	1	0
670.454	1	12
671.640	1	6
672.826	1	5
674.011	1	13
675.197	1	9
676.383	1	3
677.569	1	15
678.754	1	4
679.940	1	1
681.125	1	-7
682.311	1	14
683.496	1	1
684.682	1	14
685.867	1	10
687.053	1	21
688.238	1	7
688.746	1	-1