File: Data/GaN_150K_450ms/GaN_sample D_spot15_UVVIS_150 K_200um_450 ms 2x2mm1_136.txt
340.368	1	-1
341.565	1	1
342.763	1	9
343.960	1	10
345.157	1	18
346.354	1	7
347.552	1	16
348.749	1	11
349.946	1	8
351.143	1	6
352.340	1	10
353.537	1	1
354.734	1	7
355.931	1	15
357.127	1	15
358.324	1	11
359.521	1	27
360.718	1	12
361.914	1	12
363.111	1	14
364.308	1	30
365.504	1	26
366.701	1	39
367.897	1	46
369.093	1	42
370.290	1	37
371.486	1	46
372.682	1	40
373.879	1	27
375.075	1	18
376.271	1	18
377.467	1	29
378.663	1	16
379.859	1	11
381.055	1	13
382.251	1	5
383.447	1	9
384.643	1	7
385.839	1	12
387.035	1	15
388.230	1	8
389.426	1	2
390.622	1	1
391.817	1	4
393.013	1	3
394.208	1	11
395.404	1	8
396.599	1	14
397.795	1	4
398.990	1	12
400.186	1	8
401.381	1	7
402.576	1	10
403.771	1	-7
404.967	1	8
406.162	1	11
407.357	1	21
408.552	1	3
409.747	1	6
410.942	1	21
412.137	1	11
413.332	1	12
414.526	1	9
415.721	1	19
416.916	1	6
418.111	1	12
419.305	1	17
420.500	1	13
421.695	1	18
422.889	1	12
424.084	1	13
425.278	1	12
426.472	1	20
427.667	1	8
428.861	1	16
430.055	1	11
431.250	1	13
432.444	1	8
433.638	1	4
434.832	1	1
436.026	1	10
437.220	1	19
438.414	1	14
439.608	1	11
440.802	1	7
441.996	1	5
443.190	1	16
444.384	1	15
445.578	1	-1
446.771	1	7
447.965	1	8
449.159	1	9
450.352	1	2
451.546	1	3
452.739	1	12
453.933	1	6
455.126	1	7
456.320	1	-1
457.513	1	8
458.706	1	15
459.899	1	7
461.093	1	7
462.286	1	4
463.479	1	8
464.672	1	9
465.865	1	6
467.058	1	13
468.251	1	-8
469.444	1	8
470.637	1	2
471.830	1	11
473.023	1	7
474.215	1	0
475.408	1	4
476.601	1	11
477.793	1	9
478.986	1	6
480.179	1	5
481.371	1	-6
482.564	1	-1
483.756	1	17
484.948	1	2
486.141	1	1
487.333	1	-5
488.525	1	13
489.718	1	-2
490.910	1	1
492.102	1	7
493.294	1	-5
494.486	1	8
495.678	1	6
496.870	1	14
498.062	1	-4
499.254	1	7
500.446	1	7
501.638	1	10
502.829	1	2
504.021	1	17
505.213	1	2
506.404	1	4
507.596	1	14
508.788	1	16
509.979	1	14
511.171	1	13
512.362	1	15
513.553	1	5
514.745	1	6
515.936	1	10
517.127	1	12
518.319	1	13
519.510	1	2
520.701	1	19
521.892	1	13
523.083	1	7
524.274	1	17
525.465	1	24
526.656	1	23
527.847	1	4
529.038	1	13
530.229	1	15
531.419	1	7
532.610	1	7
533.801	1	16
534.991	1	14
536.182	1	4
537.373	1	8
538.563	1	9
539.754	1	16
540.944	1	13
542.134	1	15
543.325	1	6
544.515	1	10
545.705	1	14
546.896	1	2
548.086	1	10
549.276	1	15
550.466	1	5
551.656	1	10
552.846	1	13
554.036	1	14
555.226	1	7
556.416	1	15
557.606	1	2
558.796	1	8
559.986	1	9
561.175	1	8
562.365	1	10
563.555	1	14
564.744	1	10
565.934	1	15
567.123	1	1
568.313	1	11
569.502	1	11
570.692	1	9
571.881	1	5
573.070	1	10
574.260	1	8
575.449	1	-3
576.638	1	8
577.827	1	2
579.016	1	-1
580.205	1	8
581.394	1	4
582.583	1	12
583.772	1	13
584.961	1	-2
586.150	1	8
587.339	1	3
588.528	1	0
589.717	1	4
590.905	1	7
592.094	1	8
593.283	1	3
594.471	1	-5
595.660	1	8
596.848	1	10
598.037	1	-1
599.225	1	6
600.413	1	10
601.602	1	4
602.790	1	3
603.978	1	4
605.166	1	11
606.355	1	-8
607.543	1	9
608.731	1	-9
609.919	1	-4
611.107	1	13
612.295	1	15
613.483	1	-2
614.671	1	3
615.858	1	0
617.046	1	8
618.234	1	1
619.422	1	22
620.609	1	5
621.797	1	6
622.985	1	1
624.172	1	11
625.360	1	-2
626.547	1	6
627.735	1	10
628.922	1	3
630.109	1	0
631.297	1	2
632.484	1	7
633.671	1	15
634.858	1	10
636.045	1	2
637.232	1	2
638.419	1	-6
639.606	1	8
640.793	1	-2
641.980	1	12
643.167	1	7
644.354	1	10
645.541	1	5
646.728	1	1
647.914	1	5
649.101	1	8
650.288	1	9
651.474	1	6
652.661	1	5
653.847	1	11
655.034	1	5
656.220	1	4
657.406	1	8
658.593	1	4
659.779	1	10
660.965	1	-3
662.152	1	7
663.338	1	-1
664.524	1	2
665.710	1	3
666.896	1	11
668.082	1	5
669.268	1	5
670.454	1	5
671.640	1	8
672.826	1	3
674.011	1	12
675.197	1	3
676.383	1	-6
677.569	1	11
678.754	1	3
679.940	1	-5
681.125	1	3
682.311	1	4
683.496	1	-2
684.682	1	7
685.867	1	3
687.053	1	12
688.238	1	8
688.746	1	2