File: Data/GaN_150K_450ms/GaN_sample D_spot15_UVVIS_150 K_200um_450 ms 2x2mm1_49.txt
340.368	1	7
341.565	1	9
342.763	1	7
343.960	1	11
345.157	1	14
346.354	1	12
347.552	1	31
348.749	1	18
349.946	1	9
351.143	1	11
352.340	1	19
353.537	1	19
354.734	1	27
355.931	1	46
357.127	1	54
358.324	1	70
359.521	1	91
360.718	1	130
361.914	1	217
363.111	1	351
364.308	1	664
365.504	1	1151
366.701	1	1848
367.897	1	2384
369.093	1	2336
370.290	1	1839
371.486	1	1311
372.682	1	1007
373.879	1	805
375.075	1	676
376.271	1	555
377.467	1	455
378.663	1	394
379.859	1	375
381.055	1	438
382.251	1	506
383.447	1	646
384.643	1	779
385.839	1	838
387.035	1	803
388.230	1	767
389.426	1	714
390.622	1	726
391.817	1	674
393.013	1	630
394.208	1	615
395.404	1	645
396.599	1	675
397.795	1	670
398.990	1	641
400.186	1	579
401.381	1	501
402.576	1	487
403.771	1	464
404.967	1	437
406.162	1	438
407.357	1	415
408.552	1	401
409.747	1	383
410.942	1	358
412.137	1	317
413.332	1	316
414.526	1	252
415.721	1	280
416.916	1	254
418.111	1	267
419.305	1	247
420.500	1	235
421.695	1	199
422.889	1	192
424.084	1	174
425.278	1	169
426.472	1	189
427.667	1	175
428.861	1	170
430.055	1	154
431.250	1	143
432.444	1	129
433.638	1	131
434.832	1	97
436.026	1	111
437.220	1	116
438.414	1	99
439.608	1	98
440.802	1	99
441.996	1	96
443.190	1	94
444.384	1	84
445.578	1	77
446.771	1	80
447.965	1	76
449.159	1	71
450.352	1	68
451.546	1	75
452.739	1	70
453.933	1	57
455.126	1	71
456.320	1	75
457.513	1	61
458.706	1	77
459.899	1	56
461.093	1	65
462.286	1	52
463.479	1	57
464.672	1	60
465.865	1	55
467.058	1	59
468.251	1	60
469.444	1	57
470.637	1	61
471.830	1	57
473.023	1	57
474.215	1	48
475.408	1	63
476.601	1	57
477.793	1	61
478.986	1	63
480.179	1	66
481.371	1	59
482.564	1	72
483.756	1	69
484.948	1	78
486.141	1	87
487.333	1	82
488.525	1	99
489.718	1	102
490.910	1	101
492.102	1	118
493.294	1	106
494.486	1	114
495.678	1	122
496.870	1	121
498.062	1	145
499.254	1	147
500.446	1	174
501.638	1	194
502.829	1	200
504.021	1	214
505.213	1	218
506.404	1	225
507.596	1	237
508.788	1	233
509.979	1	241
511.171	1	260
512.362	1	262
513.553	1	272
514.745	1	292
515.936	1	305
517.127	1	326
518.319	1	336
519.510	1	339
520.701	1	360
521.892	1	355
523.083	1	353
524.274	1	369
525.465	1	396
526.656	1	415
527.847	1	407
529.038	1	421
530.229	1	444
531.419	1	462
532.610	1	481
533.801	1	492
534.991	1	452
536.182	1	464
537.373	1	444
538.563	1	450
539.754	1	452
540.944	1	442
542.134	1	460
543.325	1	448
544.515	1	466
545.705	1	487
546.896	1	504
548.086	1	526
549.276	1	534
550.466	1	532
551.656	1	530
552.846	1	549
554.036	1	520
555.226	1	514
556.416	1	516
557.606	1	504
558.796	1	511
559.986	1	505
561.175	1	514
562.365	1	499
563.555	1	513
564.744	1	511
565.934	1	503
567.123	1	518
568.313	1	524
569.502	1	508
570.692	1	508
571.881	1	501
573.070	1	495
574.260	1	498
575.449	1	493
576.638	1	490
577.827	1	475
579.016	1	488
580.205	1	502
581.394	1	508
582.583	1	499
583.772	1	495
584.961	1	493
586.150	1	481
587.339	1	467
588.528	1	448
589.717	1	449
590.905	1	437
592.094	1	438
593.283	1	425
594.471	1	403
595.660	1	411
596.848	1	406
598.037	1	402
599.225	1	404
600.413	1	408
601.602	1	428
602.790	1	415
603.978	1	407
605.166	1	427
606.355	1	409
607.543	1	407
608.731	1	387
609.919	1	384
611.107	1	398
612.295	1	374
613.483	1	351
614.671	1	359
615.858	1	324
617.046	1	330
618.234	1	335
619.422	1	339
620.609	1	323
621.797	1	317
622.985	1	318
624.172	1	313
625.360	1	299
626.547	1	293
627.735	1	306
628.922	1	311
630.109	1	287
631.297	1	304
632.484	1	288
633.671	1	293
634.858	1	286
636.045	1	262
637.232	1	256
638.419	1	268
639.606	1	263
640.793	1	261
641.980	1	264
643.167	1	238
644.354	1	242
645.541	1	248
646.728	1	253
647.914	1	227
649.101	1	234
650.288	1	224
651.474	1	246
652.661	1	238
653.847	1	225
655.034	1	221
656.220	1	219
657.406	1	203
658.593	1	201
659.779	1	187
660.965	1	190
662.152	1	191
663.338	1	179
664.524	1	183
665.710	1	179
666.896	1	179
668.082	1	164
669.268	1	155
670.454	1	180
671.640	1	176
672.826	1	160
674.011	1	171
675.197	1	168
676.383	1	170
677.569	1	185
678.754	1	161
679.940	1	179
681.125	1	162
682.311	1	163
683.496	1	145
684.682	1	154
685.867	1	139
687.053	1	158
688.238	1	155
688.746	1	150