File: Data/GaN_150K_450ms/GaN_sample D_spot15_UVVIS_150 K_200um_450 ms 2x2mm1_122.txt
340.368	1	12
341.565	1	7
342.763	1	6
343.960	1	13
345.157	1	9
346.354	1	8
347.552	1	19
348.749	1	10
349.946	1	-4
351.143	1	11
352.340	1	12
353.537	1	-3
354.734	1	4
355.931	1	13
357.127	1	14
358.324	1	14
359.521	1	26
360.718	1	7
361.914	1	25
363.111	1	34
364.308	1	41
365.504	1	38
366.701	1	54
367.897	1	59
369.093	1	66
370.290	1	64
371.486	1	55
372.682	1	40
373.879	1	34
375.075	1	20
376.271	1	28
377.467	1	26
378.663	1	24
379.859	1	17
381.055	1	18
382.251	1	-1
383.447	1	16
384.643	1	7
385.839	1	14
387.035	1	14
388.230	1	12
389.426	1	-9
390.622	1	8
391.817	1	1
393.013	1	11
394.208	1	9
395.404	1	10
396.599	1	0
397.795	1	3
398.990	1	23
400.186	1	7
401.381	1	7
402.576	1	8
403.771	1	2
404.967	1	6
406.162	1	7
407.357	1	11
408.552	1	7
409.747	1	10
410.942	1	23
412.137	1	12
413.332	1	10
414.526	1	-1
415.721	1	19
416.916	1	10
418.111	1	19
419.305	1	18
420.500	1	13
421.695	1	21
422.889	1	15
424.084	1	7
425.278	1	18
426.472	1	13
427.667	1	11
428.861	1	19
430.055	1	16
431.250	1	17
432.444	1	15
433.638	1	27
434.832	1	16
436.026	1	6
437.220	1	26
438.414	1	14
439.608	1	6
440.802	1	16
441.996	1	1
443.190	1	2
444.384	1	15
445.578	1	0
446.771	1	7
447.965	1	5
449.159	1	0
450.352	1	5
451.546	1	3
452.739	1	5
453.933	1	-1
455.126	1	13
456.320	1	10
457.513	1	9
458.706	1	17
459.899	1	5
461.093	1	12
462.286	1	7
463.479	1	5
464.672	1	17
465.865	1	2
467.058	1	9
468.251	1	-2
469.444	1	9
470.637	1	4
471.830	1	2
473.023	1	9
474.215	1	7
475.408	1	5
476.601	1	8
477.793	1	9
478.986	1	6
480.179	1	17
481.371	1	2
482.564	1	10
483.756	1	12
484.948	1	8
486.141	1	16
487.333	1	0
488.525	1	-3
489.718	1	6
490.910	1	17
492.102	1	10
493.294	1	0
494.486	1	6
495.678	1	3
496.870	1	6
498.062	1	14
499.254	1	0
500.446	1	8
501.638	1	9
502.829	1	9
504.021	1	15
505.213	1	3
506.404	1	15
507.596	1	18
508.788	1	5
509.979	1	0
511.171	1	8
512.362	1	19
513.553	1	22
514.745	1	6
515.936	1	13
517.127	1	19
518.319	1	7
519.510	1	8
520.701	1	19
521.892	1	16
523.083	1	11
524.274	1	21
525.465	1	23
526.656	1	25
527.847	1	0
529.038	1	19
530.229	1	13
531.419	1	16
532.610	1	26
533.801	1	14
534.991	1	15
536.182	1	8
537.373	1	9
538.563	1	16
539.754	1	18
540.944	1	12
542.134	1	11
543.325	1	19
544.515	1	8
545.705	1	12
546.896	1	10
548.086	1	12
549.276	1	16
550.466	1	15
551.656	1	16
552.846	1	9
554.036	1	21
555.226	1	10
556.416	1	14
557.606	1	5
558.796	1	19
559.986	1	19
561.175	1	8
562.365	1	17
563.555	1	10
564.744	1	18
565.934	1	18
567.123	1	12
568.313	1	7
569.502	1	14
570.692	1	11
571.881	1	11
573.070	1	12
574.260	1	15
575.449	1	0
576.638	1	10
577.827	1	12
579.016	1	8
580.205	1	1
581.394	1	-4
582.583	1	4
583.772	1	9
584.961	1	-1
586.150	1	16
587.339	1	15
588.528	1	1
589.717	1	8
590.905	1	2
592.094	1	12
593.283	1	5
594.471	1	-2
595.660	1	6
596.848	1	8
598.037	1	5
599.225	1	4
600.413	1	12
601.602	1	6
602.790	1	11
603.978	1	11
605.166	1	9
606.355	1	-9
607.543	1	8
608.731	1	-3
609.919	1	-5
611.107	1	14
612.295	1	2
613.483	1	-3
614.671	1	6
615.858	1	-10
617.046	1	-1
618.234	1	-10
619.422	1	12
620.609	1	10
621.797	1	-1
622.985	1	2
624.172	1	9
625.360	1	5
626.547	1	-1
627.735	1	7
628.922	1	11
630.109	1	-3
631.297	1	8
632.484	1	6
633.671	1	12
634.858	1	18
636.045	1	-3
637.232	1	7
638.419	1	3
639.606	1	14
640.793	1	4
641.980	1	8
643.167	1	6
644.354	1	5
645.541	1	2
646.728	1	9
647.914	1	4
649.101	1	5
650.288	1	11
651.474	1	0
652.661	1	12
653.847	1	9
655.034	1	-2
656.220	1	9
657.406	1	2
658.593	1	10
659.779	1	8
660.965	1	-4
662.152	1	1
663.338	1	8
664.524	1	10
665.710	1	0
666.896	1	11
668.082	1	5
669.268	1	-1
670.454	1	12
671.640	1	8
672.826	1	2
674.011	1	12
675.197	1	16
676.383	1	2
677.569	1	16
678.754	1	8
679.940	1	1
681.125	1	-2
682.311	1	16
683.496	1	4
684.682	1	9
685.867	1	0
687.053	1	23
688.238	1	13
688.746	1	2