File: Data/GaN_150K_450ms/GaN_sample D_spot15_UVVIS_150 K_200um_450 ms 2x2mm1_70.txt
340.368	1	0
341.565	1	14
342.763	1	5
343.960	1	7
345.157	1	13
346.354	1	8
347.552	1	21
348.749	1	17
349.946	1	1
351.143	1	6
352.340	1	18
353.537	1	4
354.734	1	16
355.931	1	24
357.127	1	30
358.324	1	30
359.521	1	41
360.718	1	47
361.914	1	63
363.111	1	78
364.308	1	118
365.504	1	158
366.701	1	224
367.897	1	244
369.093	1	245
370.290	1	217
371.486	1	161
372.682	1	140
373.879	1	121
375.075	1	86
376.271	1	82
377.467	1	79
378.663	1	60
379.859	1	54
381.055	1	34
382.251	1	30
383.447	1	36
384.643	1	39
385.839	1	34
387.035	1	30
388.230	1	29
389.426	1	27
390.622	1	23
391.817	1	11
393.013	1	28
394.208	1	21
395.404	1	26
396.599	1	17
397.795	1	19
398.990	1	26
400.186	1	18
401.381	1	13
402.576	1	17
403.771	1	7
404.967	1	22
406.162	1	12
407.357	1	18
408.552	1	14
409.747	1	13
410.942	1	18
412.137	1	17
413.332	1	14
414.526	1	4
415.721	1	20
416.916	1	12
418.111	1	20
419.305	1	10
420.500	1	21
421.695	1	13
422.889	1	19
424.084	1	17
425.278	1	24
426.472	1	21
427.667	1	10
428.861	1	10
430.055	1	20
431.250	1	19
432.444	1	12
433.638	1	15
434.832	1	16
436.026	1	11
437.220	1	17
438.414	1	23
439.608	1	-1
440.802	1	16
441.996	1	18
443.190	1	15
444.384	1	17
445.578	1	8
446.771	1	15
447.965	1	9
449.159	1	4
450.352	1	3
451.546	1	13
452.739	1	14
453.933	1	4
455.126	1	13
456.320	1	19
457.513	1	4
458.706	1	15
459.899	1	5
461.093	1	19
462.286	1	17
463.479	1	8
464.672	1	13
465.865	1	13
467.058	1	10
468.251	1	11
469.444	1	11
470.637	1	5
471.830	1	8
473.023	1	9
474.215	1	17
475.408	1	6
476.601	1	11
477.793	1	8
478.986	1	16
480.179	1	25
481.371	1	6
482.564	1	10
483.756	1	15
484.948	1	14
486.141	1	21
487.333	1	4
488.525	1	16
489.718	1	17
490.910	1	27
492.102	1	26
493.294	1	18
494.486	1	25
495.678	1	23
496.870	1	35
498.062	1	31
499.254	1	17
500.446	1	32
501.638	1	51
502.829	1	28
504.021	1	42
505.213	1	35
506.404	1	43
507.596	1	53
508.788	1	47
509.979	1	48
511.171	1	55
512.362	1	57
513.553	1	54
514.745	1	54
515.936	1	53
517.127	1	63
518.319	1	54
519.510	1	48
520.701	1	58
521.892	1	58
523.083	1	61
524.274	1	64
525.465	1	69
526.656	1	61
527.847	1	46
529.038	1	68
530.229	1	65
531.419	1	68
532.610	1	61
533.801	1	74
534.991	1	51
536.182	1	58
537.373	1	53
538.563	1	59
539.754	1	48
540.944	1	55
542.134	1	52
543.325	1	61
544.515	1	43
545.705	1	58
546.896	1	50
548.086	1	54
549.276	1	58
550.466	1	46
551.656	1	53
552.846	1	47
554.036	1	51
555.226	1	47
556.416	1	51
557.606	1	36
558.796	1	49
559.986	1	44
561.175	1	38
562.365	1	38
563.555	1	46
564.744	1	50
565.934	1	50
567.123	1	29
568.313	1	32
569.502	1	35
570.692	1	32
571.881	1	36
573.070	1	30
574.260	1	38
575.449	1	26
576.638	1	20
577.827	1	32
579.016	1	36
580.205	1	33
581.394	1	28
582.583	1	23
583.772	1	27
584.961	1	16
586.150	1	26
587.339	1	18
588.528	1	7
589.717	1	16
590.905	1	14
592.094	1	17
593.283	1	19
594.471	1	13
595.660	1	22
596.848	1	15
598.037	1	17
599.225	1	14
600.413	1	21
601.602	1	21
602.790	1	20
603.978	1	26
605.166	1	15
606.355	1	1
607.543	1	15
608.731	1	7
609.919	1	8
611.107	1	13
612.295	1	5
613.483	1	8
614.671	1	16
615.858	1	6
617.046	1	6
618.234	1	0
619.422	1	23
620.609	1	5
621.797	1	6
622.985	1	11
624.172	1	12
625.360	1	8
626.547	1	-3
627.735	1	13
628.922	1	13
630.109	1	5
631.297	1	12
632.484	1	16
633.671	1	13
634.858	1	10
636.045	1	-3
637.232	1	7
638.419	1	3
639.606	1	14
640.793	1	17
641.980	1	13
643.167	1	3
644.354	1	18
645.541	1	7
646.728	1	9
647.914	1	12
649.101	1	2
650.288	1	5
651.474	1	6
652.661	1	8
653.847	1	17
655.034	1	7
656.220	1	8
657.406	1	6
658.593	1	11
659.779	1	9
660.965	1	12
662.152	1	16
663.338	1	8
664.524	1	21
665.710	1	11
666.896	1	18
668.082	1	14
669.268	1	4
670.454	1	5
671.640	1	10
672.826	1	1
674.011	1	4
675.197	1	8
676.383	1	7
677.569	1	24
678.754	1	7
679.940	1	8
681.125	1	4
682.311	1	19
683.496	1	0
684.682	1	6
685.867	1	9
687.053	1	23
688.238	1	13
688.746	1	7