File: Data/GaN_150K_450ms/GaN_sample D_spot15_UVVIS_150 K_200um_450 ms 2x2mm1_288.txt
340.368	1	3
341.565	1	8
342.763	1	2
343.960	1	3
345.157	1	9
346.354	1	-2
347.552	1	18
348.749	1	13
349.946	1	5
351.143	1	12
352.340	1	2
353.537	1	4
354.734	1	3
355.931	1	1
357.127	1	11
358.324	1	4
359.521	1	1
360.718	1	9
361.914	1	13
363.111	1	9
364.308	1	7
365.504	1	4
366.701	1	4
367.897	1	6
369.093	1	13
370.290	1	17
371.486	1	14
372.682	1	8
373.879	1	8
375.075	1	-1
376.271	1	10
377.467	1	11
378.663	1	6
379.859	1	9
381.055	1	2
382.251	1	-12
383.447	1	9
384.643	1	3
385.839	1	3
387.035	1	6
388.230	1	4
389.426	1	2
390.622	1	0
391.817	1	-5
393.013	1	-5
394.208	1	-8
395.404	1	0
396.599	1	9
397.795	1	-9
398.990	1	6
400.186	1	1
401.381	1	-1
402.576	1	8
403.771	1	-3
404.967	1	5
406.162	1	-10
407.357	1	9
408.552	1	1
409.747	1	-2
410.942	1	7
412.137	1	-3
413.332	1	-5
414.526	1	0
415.721	1	-1
416.916	1	-3
418.111	1	4
419.305	1	7
420.500	1	9
421.695	1	12
422.889	1	-1
424.084	1	7
425.278	1	5
426.472	1	-1
427.667	1	-12
428.861	1	7
430.055	1	12
431.250	1	4
432.444	1	-2
433.638	1	5
434.832	1	-4
436.026	1	2
437.220	1	8
438.414	1	5
439.608	1	1
440.802	1	2
441.996	1	-4
443.190	1	-1
444.384	1	10
445.578	1	-7
446.771	1	-3
447.965	1	1
449.159	1	-8
450.352	1	5
451.546	1	8
452.739	1	1
453.933	1	-14
455.126	1	-5
456.320	1	8
457.513	1	-3
458.706	1	4
459.899	1	-1
461.093	1	9
462.286	1	2
463.479	1	2
464.672	1	-1
465.865	1	0
467.058	1	6
468.251	1	2
469.444	1	8
470.637	1	-2
471.830	1	9
473.023	1	-1
474.215	1	0
475.408	1	6
476.601	1	4
477.793	1	-1
478.986	1	4
480.179	1	6
481.371	1	-3
482.564	1	7
483.756	1	4
484.948	1	6
486.141	1	2
487.333	1	-7
488.525	1	-5
489.718	1	0
490.910	1	6
492.102	1	9
493.294	1	-8
494.486	1	1
495.678	1	-2
496.870	1	-6
498.062	1	-5
499.254	1	-8
500.446	1	-1
501.638	1	6
502.829	1	-2
504.021	1	4
505.213	1	-4
506.404	1	3
507.596	1	4
508.788	1	8
509.979	1	1
511.171	1	1
512.362	1	12
513.553	1	2
514.745	1	2
515.936	1	-2
517.127	1	9
518.319	1	3
519.510	1	-4
520.701	1	7
521.892	1	-6
523.083	1	-2
524.274	1	-8
525.465	1	5
526.656	1	6
527.847	1	-10
529.038	1	3
530.229	1	5
531.419	1	4
532.610	1	7
533.801	1	-3
534.991	1	1
536.182	1	-2
537.373	1	-1
538.563	1	-2
539.754	1	9
540.944	1	1
542.134	1	1
543.325	1	10
544.515	1	0
545.705	1	8
546.896	1	2
548.086	1	21
549.276	1	3
550.466	1	-1
551.656	1	3
552.846	1	6
554.036	1	5
555.226	1	5
556.416	1	6
557.606	1	1
558.796	1	5
559.986	1	0
561.175	1	2
562.365	1	-1
563.555	1	3
564.744	1	9
565.934	1	10
567.123	1	-4
568.313	1	6
569.502	1	10
570.692	1	-2
571.881	1	2
573.070	1	2
574.260	1	1
575.449	1	0
576.638	1	9
577.827	1	-7
579.016	1	-7
580.205	1	3
581.394	1	5
582.583	1	1
583.772	1	2
584.961	1	-5
586.150	1	9
587.339	1	-1
588.528	1	-4
589.717	1	3
590.905	1	7
592.094	1	4
593.283	1	3
594.471	1	-4
595.660	1	6
596.848	1	-2
598.037	1	-8
599.225	1	-1
600.413	1	5
601.602	1	7
602.790	1	2
603.978	1	-1
605.166	1	-3
606.355	1	-8
607.543	1	1
608.731	1	-1
609.919	1	-3
611.107	1	2
612.295	1	7
613.483	1	-6
614.671	1	2
615.858	1	-1
617.046	1	2
618.234	1	-8
619.422	1	16
620.609	1	5
621.797	1	-1
622.985	1	-1
624.172	1	0
625.360	1	-3
626.547	1	-5
627.735	1	-1
628.922	1	2
630.109	1	-7
631.297	1	2
632.484	1	13
633.671	1	7
634.858	1	2
636.045	1	-4
637.232	1	1
638.419	1	-1
639.606	1	7
640.793	1	2
641.980	1	9
643.167	1	-1
644.354	1	11
645.541	1	6
646.728	1	3
647.914	1	5
649.101	1	-1
650.288	1	1
651.474	1	12
652.661	1	5
653.847	1	7
655.034	1	-5
656.220	1	7
657.406	1	0
658.593	1	6
659.779	1	1
660.965	1	-3
662.152	1	-1
663.338	1	0
664.524	1	1
665.710	1	3
666.896	1	4
668.082	1	-7
669.268	1	-10
670.454	1	2
671.640	1	7
672.826	1	0
674.011	1	2
675.197	1	6
676.383	1	3
677.569	1	8
678.754	1	-4
679.940	1	3
681.125	1	-2
682.311	1	2
683.496	1	-1
684.682	1	3
685.867	1	-8
687.053	1	14
688.238	1	8
688.746	1	-2