File: Data/GaN_150K_450ms/GaN_sample D_spot15_UVVIS_150 K_200um_450 ms 2x2mm1_151.txt
340.368	1	10
341.565	1	-1
342.763	1	2
343.960	1	12
345.157	1	12
346.354	1	-6
347.552	1	24
348.749	1	11
349.946	1	-7
351.143	1	8
352.340	1	12
353.537	1	2
354.734	1	15
355.931	1	14
357.127	1	8
358.324	1	6
359.521	1	15
360.718	1	2
361.914	1	18
363.111	1	15
364.308	1	26
365.504	1	24
366.701	1	38
367.897	1	44
369.093	1	44
370.290	1	38
371.486	1	41
372.682	1	34
373.879	1	20
375.075	1	6
376.271	1	23
377.467	1	27
378.663	1	6
379.859	1	13
381.055	1	12
382.251	1	0
383.447	1	2
384.643	1	6
385.839	1	15
387.035	1	16
388.230	1	13
389.426	1	10
390.622	1	9
391.817	1	-4
393.013	1	11
394.208	1	13
395.404	1	23
396.599	1	4
397.795	1	4
398.990	1	11
400.186	1	1
401.381	1	15
402.576	1	10
403.771	1	-2
404.967	1	3
406.162	1	3
407.357	1	20
408.552	1	4
409.747	1	12
410.942	1	14
412.137	1	9
413.332	1	14
414.526	1	2
415.721	1	10
416.916	1	8
418.111	1	16
419.305	1	8
420.500	1	9
421.695	1	11
422.889	1	10
424.084	1	14
425.278	1	11
426.472	1	15
427.667	1	4
428.861	1	6
430.055	1	19
431.250	1	21
432.444	1	12
433.638	1	23
434.832	1	11
436.026	1	2
437.220	1	13
438.414	1	9
439.608	1	3
440.802	1	8
441.996	1	6
443.190	1	8
444.384	1	10
445.578	1	-3
446.771	1	12
447.965	1	13
449.159	1	1
450.352	1	0
451.546	1	14
452.739	1	9
453.933	1	-2
455.126	1	10
456.320	1	12
457.513	1	4
458.706	1	21
459.899	1	1
461.093	1	6
462.286	1	4
463.479	1	-2
464.672	1	8
465.865	1	5
467.058	1	4
468.251	1	5
469.444	1	8
470.637	1	7
471.830	1	10
473.023	1	7
474.215	1	6
475.408	1	5
476.601	1	5
477.793	1	9
478.986	1	12
480.179	1	11
481.371	1	-5
482.564	1	3
483.756	1	8
484.948	1	6
486.141	1	10
487.333	1	-1
488.525	1	1
489.718	1	-13
490.910	1	5
492.102	1	3
493.294	1	0
494.486	1	2
495.678	1	13
496.870	1	7
498.062	1	11
499.254	1	4
500.446	1	-2
501.638	1	14
502.829	1	0
504.021	1	16
505.213	1	9
506.404	1	6
507.596	1	8
508.788	1	14
509.979	1	8
511.171	1	2
512.362	1	15
513.553	1	12
514.745	1	9
515.936	1	12
517.127	1	9
518.319	1	12
519.510	1	5
520.701	1	18
521.892	1	12
523.083	1	7
524.274	1	14
525.465	1	7
526.656	1	9
527.847	1	1
529.038	1	4
530.229	1	15
531.419	1	8
532.610	1	12
533.801	1	10
534.991	1	20
536.182	1	9
537.373	1	16
538.563	1	3
539.754	1	16
540.944	1	17
542.134	1	16
543.325	1	12
544.515	1	12
545.705	1	12
546.896	1	18
548.086	1	7
549.276	1	17
550.466	1	11
551.656	1	8
552.846	1	6
554.036	1	12
555.226	1	7
556.416	1	1
557.606	1	2
558.796	1	21
559.986	1	14
561.175	1	8
562.365	1	-1
563.555	1	13
564.744	1	14
565.934	1	16
567.123	1	7
568.313	1	2
569.502	1	8
570.692	1	14
571.881	1	2
573.070	1	6
574.260	1	12
575.449	1	7
576.638	1	10
577.827	1	-3
579.016	1	2
580.205	1	3
581.394	1	11
582.583	1	11
583.772	1	2
584.961	1	-6
586.150	1	2
587.339	1	6
588.528	1	7
589.717	1	11
590.905	1	1
592.094	1	13
593.283	1	5
594.471	1	2
595.660	1	8
596.848	1	2
598.037	1	4
599.225	1	-3
600.413	1	9
601.602	1	6
602.790	1	4
603.978	1	0
605.166	1	9
606.355	1	3
607.543	1	15
608.731	1	-2
609.919	1	-1
611.107	1	10
612.295	1	18
613.483	1	1
614.671	1	13
615.858	1	1
617.046	1	-5
618.234	1	-3
619.422	1	7
620.609	1	3
621.797	1	3
622.985	1	4
624.172	1	5
625.360	1	3
626.547	1	-6
627.735	1	9
628.922	1	7
630.109	1	-2
631.297	1	12
632.484	1	8
633.671	1	8
634.858	1	10
636.045	1	-3
637.232	1	5
638.419	1	-4
639.606	1	12
640.793	1	1
641.980	1	8
643.167	1	7
644.354	1	23
645.541	1	4
646.728	1	7
647.914	1	2
649.101	1	6
650.288	1	9
651.474	1	12
652.661	1	7
653.847	1	-4
655.034	1	4
656.220	1	7
657.406	1	6
658.593	1	7
659.779	1	14
660.965	1	2
662.152	1	3
663.338	1	2
664.524	1	12
665.710	1	5
666.896	1	4
668.082	1	6
669.268	1	3
670.454	1	12
671.640	1	13
672.826	1	2
674.011	1	9
675.197	1	8
676.383	1	3
677.569	1	11
678.754	1	-1
679.940	1	-2
681.125	1	-5
682.311	1	7
683.496	1	0
684.682	1	8
685.867	1	3
687.053	1	20
688.238	1	5
688.746	1	8