File: Data/GaN_150K_450ms/GaN_sample D_spot15_UVVIS_150 K_200um_450 ms 2x2mm1_349.txt
340.368	1	-5
341.565	1	0
342.763	1	1
343.960	1	2
345.157	1	10
346.354	1	-3
347.552	1	3
348.749	1	3
349.946	1	-7
351.143	1	-6
352.340	1	1
353.537	1	-5
354.734	1	2
355.931	1	-2
357.127	1	5
358.324	1	-1
359.521	1	6
360.718	1	-5
361.914	1	-1
363.111	1	-9
364.308	1	4
365.504	1	-1
366.701	1	-9
367.897	1	0
369.093	1	0
370.290	1	-3
371.486	1	3
372.682	1	-3
373.879	1	2
375.075	1	-11
376.271	1	-1
377.467	1	13
378.663	1	-8
379.859	1	-3
381.055	1	-3
382.251	1	-8
383.447	1	2
384.643	1	-9
385.839	1	8
387.035	1	-7
388.230	1	-3
389.426	1	-15
390.622	1	-4
391.817	1	-13
393.013	1	1
394.208	1	6
395.404	1	1
396.599	1	4
397.795	1	1
398.990	1	6
400.186	1	-1
401.381	1	-4
402.576	1	-5
403.771	1	-11
404.967	1	3
406.162	1	-2
407.357	1	0
408.552	1	-2
409.747	1	2
410.942	1	5
412.137	1	-1
413.332	1	1
414.526	1	0
415.721	1	-1
416.916	1	-5
418.111	1	-1
419.305	1	4
420.500	1	-6
421.695	1	1
422.889	1	-8
424.084	1	-4
425.278	1	1
426.472	1	12
427.667	1	-9
428.861	1	-2
430.055	1	11
431.250	1	2
432.444	1	8
433.638	1	-3
434.832	1	-9
436.026	1	-9
437.220	1	0
438.414	1	9
439.608	1	-11
440.802	1	1
441.996	1	-8
443.190	1	5
444.384	1	-1
445.578	1	-13
446.771	1	-4
447.965	1	-2
449.159	1	-4
450.352	1	-3
451.546	1	-9
452.739	1	-1
453.933	1	-3
455.126	1	-2
456.320	1	7
457.513	1	-6
458.706	1	9
459.899	1	0
461.093	1	6
462.286	1	-3
463.479	1	-4
464.672	1	-3
465.865	1	0
467.058	1	-6
468.251	1	-3
469.444	1	2
470.637	1	3
471.830	1	9
473.023	1	-7
474.215	1	-3
475.408	1	-4
476.601	1	-7
477.793	1	0
478.986	1	4
480.179	1	1
481.371	1	-16
482.564	1	5
483.756	1	4
484.948	1	2
486.141	1	-3
487.333	1	-3
488.525	1	-10
489.718	1	-6
490.910	1	6
492.102	1	-1
493.294	1	-13
494.486	1	-3
495.678	1	-4
496.870	1	-2
498.062	1	-3
499.254	1	-12
500.446	1	-1
501.638	1	2
502.829	1	-3
504.021	1	-3
505.213	1	-3
506.404	1	0
507.596	1	0
508.788	1	2
509.979	1	-6
511.171	1	6
512.362	1	-1
513.553	1	-2
514.745	1	-6
515.936	1	-1
517.127	1	7
518.319	1	-3
519.510	1	-4
520.701	1	7
521.892	1	-9
523.083	1	0
524.274	1	-3
525.465	1	1
526.656	1	2
527.847	1	-20
529.038	1	-2
530.229	1	3
531.419	1	2
532.610	1	-2
533.801	1	4
534.991	1	1
536.182	1	-13
537.373	1	-4
538.563	1	-2
539.754	1	-2
540.944	1	-2
542.134	1	-4
543.325	1	5
544.515	1	0
545.705	1	-1
546.896	1	2
548.086	1	-5
549.276	1	-3
550.466	1	3
551.656	1	-3
552.846	1	-2
554.036	1	11
555.226	1	-7
556.416	1	5
557.606	1	-6
558.796	1	3
559.986	1	10
561.175	1	-1
562.365	1	-10
563.555	1	-2
564.744	1	8
565.934	1	1
567.123	1	0
568.313	1	-4
569.502	1	0
570.692	1	12
571.881	1	-4
573.070	1	7
574.260	1	6
575.449	1	-10
576.638	1	3
577.827	1	1
579.016	1	5
580.205	1	-3
581.394	1	-2
582.583	1	1
583.772	1	0
584.961	1	-3
586.150	1	-1
587.339	1	-1
588.528	1	-10
589.717	1	1
590.905	1	-7
592.094	1	-3
593.283	1	-2
594.471	1	-11
595.660	1	-5
596.848	1	5
598.037	1	0
599.225	1	-7
600.413	1	-5
601.602	1	8
602.790	1	3
603.978	1	3
605.166	1	2
606.355	1	-7
607.543	1	-2
608.731	1	-10
609.919	1	-11
611.107	1	3
612.295	1	-8
613.483	1	-3
614.671	1	-5
615.858	1	-9
617.046	1	-8
618.234	1	-4
619.422	1	-1
620.609	1	-1
621.797	1	2
622.985	1	-8
624.172	1	3
625.360	1	1
626.547	1	6
627.735	1	7
628.922	1	7
630.109	1	-14
631.297	1	2
632.484	1	-1
633.671	1	5
634.858	1	1
636.045	1	-4
637.232	1	-8
638.419	1	-12
639.606	1	14
640.793	1	-1
641.980	1	3
643.167	1	-9
644.354	1	5
645.541	1	-9
646.728	1	-5
647.914	1	-6
649.101	1	-6
650.288	1	1
651.474	1	2
652.661	1	-2
653.847	1	-8
655.034	1	-9
656.220	1	3
657.406	1	-6
658.593	1	-2
659.779	1	-2
660.965	1	-5
662.152	1	1
663.338	1	-13
664.524	1	8
665.710	1	4
666.896	1	9
668.082	1	-1
669.268	1	-3
670.454	1	2
671.640	1	-2
672.826	1	4
674.011	1	8
675.197	1	-3
676.383	1	-2
677.569	1	8
678.754	1	-4
679.940	1	-14
681.125	1	-7
682.311	1	1
683.496	1	-15
684.682	1	2
685.867	1	-4
687.053	1	11
688.238	1	3
688.746	1	2