File: Data/GaN_150K_450ms/GaN_sample D_spot15_UVVIS_150 K_200um_450 ms 2x2mm1_169.txt
340.368	1	3
341.565	1	2
342.763	1	5
343.960	1	14
345.157	1	6
346.354	1	-10
347.552	1	17
348.749	1	10
349.946	1	1
351.143	1	9
352.340	1	7
353.537	1	-1
354.734	1	4
355.931	1	7
357.127	1	12
358.324	1	11
359.521	1	14
360.718	1	12
361.914	1	16
363.111	1	10
364.308	1	16
365.504	1	18
366.701	1	29
367.897	1	33
369.093	1	30
370.290	1	29
371.486	1	24
372.682	1	24
373.879	1	17
375.075	1	3
376.271	1	13
377.467	1	17
378.663	1	12
379.859	1	7
381.055	1	-2
382.251	1	5
383.447	1	1
384.643	1	6
385.839	1	5
387.035	1	14
388.230	1	-1
389.426	1	1
390.622	1	2
391.817	1	-1
393.013	1	3
394.208	1	7
395.404	1	18
396.599	1	3
397.795	1	18
398.990	1	12
400.186	1	11
401.381	1	5
402.576	1	10
403.771	1	-11
404.967	1	8
406.162	1	6
407.357	1	16
408.552	1	-2
409.747	1	6
410.942	1	15
412.137	1	11
413.332	1	14
414.526	1	-6
415.721	1	12
416.916	1	4
418.111	1	7
419.305	1	19
420.500	1	10
421.695	1	14
422.889	1	14
424.084	1	10
425.278	1	12
426.472	1	13
427.667	1	2
428.861	1	18
430.055	1	15
431.250	1	8
432.444	1	9
433.638	1	11
434.832	1	-3
436.026	1	6
437.220	1	12
438.414	1	12
439.608	1	-2
440.802	1	5
441.996	1	0
443.190	1	10
444.384	1	12
445.578	1	5
446.771	1	9
447.965	1	6
449.159	1	-5
450.352	1	0
451.546	1	6
452.739	1	7
453.933	1	5
455.126	1	8
456.320	1	4
457.513	1	-10
458.706	1	5
459.899	1	7
461.093	1	8
462.286	1	5
463.479	1	-1
464.672	1	-4
465.865	1	7
467.058	1	10
468.251	1	-1
469.444	1	9
470.637	1	5
471.830	1	14
473.023	1	4
474.215	1	1
475.408	1	9
476.601	1	-1
477.793	1	3
478.986	1	12
480.179	1	4
481.371	1	-1
482.564	1	7
483.756	1	10
484.948	1	9
486.141	1	9
487.333	1	-1
488.525	1	-3
489.718	1	-2
490.910	1	13
492.102	1	1
493.294	1	-2
494.486	1	-8
495.678	1	3
496.870	1	9
498.062	1	6
499.254	1	2
500.446	1	-4
501.638	1	12
502.829	1	5
504.021	1	3
505.213	1	0
506.404	1	8
507.596	1	8
508.788	1	-1
509.979	1	5
511.171	1	10
512.362	1	12
513.553	1	8
514.745	1	8
515.936	1	18
517.127	1	19
518.319	1	1
519.510	1	0
520.701	1	8
521.892	1	11
523.083	1	7
524.274	1	12
525.465	1	17
526.656	1	7
527.847	1	2
529.038	1	17
530.229	1	8
531.419	1	9
532.610	1	11
533.801	1	9
534.991	1	2
536.182	1	16
537.373	1	4
538.563	1	8
539.754	1	5
540.944	1	12
542.134	1	11
543.325	1	11
544.515	1	8
545.705	1	14
546.896	1	-2
548.086	1	2
549.276	1	14
550.466	1	4
551.656	1	3
552.846	1	9
554.036	1	24
555.226	1	5
556.416	1	14
557.606	1	-2
558.796	1	19
559.986	1	8
561.175	1	7
562.365	1	1
563.555	1	5
564.744	1	10
565.934	1	4
567.123	1	0
568.313	1	9
569.502	1	8
570.692	1	10
571.881	1	0
573.070	1	7
574.260	1	6
575.449	1	-1
576.638	1	3
577.827	1	0
579.016	1	8
580.205	1	7
581.394	1	4
582.583	1	9
583.772	1	6
584.961	1	5
586.150	1	1
587.339	1	13
588.528	1	3
589.717	1	6
590.905	1	5
592.094	1	9
593.283	1	6
594.471	1	-3
595.660	1	4
596.848	1	6
598.037	1	4
599.225	1	4
600.413	1	3
601.602	1	6
602.790	1	10
603.978	1	3
605.166	1	-2
606.355	1	-7
607.543	1	-4
608.731	1	-4
609.919	1	-6
611.107	1	7
612.295	1	0
613.483	1	8
614.671	1	14
615.858	1	-1
617.046	1	1
618.234	1	2
619.422	1	11
620.609	1	-5
621.797	1	-2
622.985	1	3
624.172	1	7
625.360	1	13
626.547	1	-7
627.735	1	12
628.922	1	8
630.109	1	1
631.297	1	7
632.484	1	11
633.671	1	9
634.858	1	2
636.045	1	-1
637.232	1	10
638.419	1	8
639.606	1	10
640.793	1	-4
641.980	1	12
643.167	1	11
644.354	1	8
645.541	1	-2
646.728	1	9
647.914	1	7
649.101	1	8
650.288	1	4
651.474	1	7
652.661	1	11
653.847	1	4
655.034	1	0
656.220	1	12
657.406	1	-3
658.593	1	8
659.779	1	9
660.965	1	-6
662.152	1	7
663.338	1	5
664.524	1	11
665.710	1	3
666.896	1	4
668.082	1	-1
669.268	1	5
670.454	1	8
671.640	1	2
672.826	1	4
674.011	1	4
675.197	1	3
676.383	1	3
677.569	1	12
678.754	1	2
679.940	1	-5
681.125	1	-3
682.311	1	8
683.496	1	6
684.682	1	12
685.867	1	6
687.053	1	25
688.238	1	11
688.746	1	-4