File: Data/GaN_150K_450ms/GaN_sample D_spot15_UVVIS_150 K_200um_450 ms 2x2mm1_215.txt
340.368	1	0
341.565	1	17
342.763	1	1
343.960	1	7
345.157	1	8
346.354	1	5
347.552	1	19
348.749	1	14
349.946	1	4
351.143	1	5
352.340	1	11
353.537	1	3
354.734	1	12
355.931	1	12
357.127	1	9
358.324	1	4
359.521	1	10
360.718	1	12
361.914	1	8
363.111	1	11
364.308	1	6
365.504	1	6
366.701	1	12
367.897	1	18
369.093	1	30
370.290	1	23
371.486	1	22
372.682	1	28
373.879	1	3
375.075	1	8
376.271	1	3
377.467	1	18
378.663	1	3
379.859	1	8
381.055	1	3
382.251	1	3
383.447	1	5
384.643	1	-6
385.839	1	-1
387.035	1	10
388.230	1	5
389.426	1	-2
390.622	1	-4
391.817	1	-1
393.013	1	2
394.208	1	0
395.404	1	12
396.599	1	9
397.795	1	3
398.990	1	12
400.186	1	6
401.381	1	1
402.576	1	12
403.771	1	2
404.967	1	1
406.162	1	-5
407.357	1	7
408.552	1	2
409.747	1	9
410.942	1	9
412.137	1	4
413.332	1	4
414.526	1	4
415.721	1	1
416.916	1	1
418.111	1	8
419.305	1	11
420.500	1	10
421.695	1	6
422.889	1	5
424.084	1	-1
425.278	1	3
426.472	1	11
427.667	1	-5
428.861	1	10
430.055	1	9
431.250	1	7
432.444	1	11
433.638	1	13
434.832	1	-1
436.026	1	0
437.220	1	3
438.414	1	7
439.608	1	5
440.802	1	8
441.996	1	8
443.190	1	14
444.384	1	6
445.578	1	3
446.771	1	7
447.965	1	1
449.159	1	8
450.352	1	-2
451.546	1	4
452.739	1	5
453.933	1	9
455.126	1	5
456.320	1	12
457.513	1	-8
458.706	1	6
459.899	1	-3
461.093	1	6
462.286	1	-2
463.479	1	4
464.672	1	0
465.865	1	3
467.058	1	2
468.251	1	-14
469.444	1	1
470.637	1	-6
471.830	1	5
473.023	1	3
474.215	1	6
475.408	1	5
476.601	1	10
477.793	1	2
478.986	1	6
480.179	1	12
481.371	1	-2
482.564	1	7
483.756	1	2
484.948	1	1
486.141	1	4
487.333	1	-3
488.525	1	-12
489.718	1	5
490.910	1	8
492.102	1	-3
493.294	1	-2
494.486	1	0
495.678	1	-1
496.870	1	1
498.062	1	-1
499.254	1	0
500.446	1	-5
501.638	1	6
502.829	1	-7
504.021	1	6
505.213	1	8
506.404	1	13
507.596	1	14
508.788	1	5
509.979	1	-1
511.171	1	5
512.362	1	9
513.553	1	15
514.745	1	8
515.936	1	-1
517.127	1	-1
518.319	1	2
519.510	1	4
520.701	1	11
521.892	1	7
523.083	1	2
524.274	1	0
525.465	1	15
526.656	1	2
527.847	1	-6
529.038	1	7
530.229	1	14
531.419	1	12
532.610	1	8
533.801	1	0
534.991	1	-2
536.182	1	7
537.373	1	4
538.563	1	-4
539.754	1	5
540.944	1	8
542.134	1	10
543.325	1	7
544.515	1	9
545.705	1	0
546.896	1	12
548.086	1	-4
549.276	1	12
550.466	1	3
551.656	1	4
552.846	1	5
554.036	1	8
555.226	1	7
556.416	1	14
557.606	1	-5
558.796	1	13
559.986	1	10
561.175	1	8
562.365	1	0
563.555	1	4
564.744	1	6
565.934	1	7
567.123	1	1
568.313	1	4
569.502	1	0
570.692	1	8
571.881	1	6
573.070	1	7
574.260	1	4
575.449	1	-3
576.638	1	16
577.827	1	1
579.016	1	-1
580.205	1	2
581.394	1	8
582.583	1	7
583.772	1	10
584.961	1	-9
586.150	1	10
587.339	1	2
588.528	1	2
589.717	1	3
590.905	1	-10
592.094	1	5
593.283	1	3
594.471	1	-7
595.660	1	10
596.848	1	13
598.037	1	5
599.225	1	4
600.413	1	1
601.602	1	8
602.790	1	8
603.978	1	3
605.166	1	7
606.355	1	-12
607.543	1	11
608.731	1	-5
609.919	1	-7
611.107	1	12
612.295	1	15
613.483	1	7
614.671	1	3
615.858	1	-1
617.046	1	2
618.234	1	-1
619.422	1	5
620.609	1	-3
621.797	1	9
622.985	1	1
624.172	1	6
625.360	1	4
626.547	1	1
627.735	1	9
628.922	1	5
630.109	1	-2
631.297	1	6
632.484	1	1
633.671	1	13
634.858	1	15
636.045	1	-8
637.232	1	6
638.419	1	-2
639.606	1	10
640.793	1	0
641.980	1	6
643.167	1	10
644.354	1	3
645.541	1	6
646.728	1	4
647.914	1	3
649.101	1	-3
650.288	1	5
651.474	1	7
652.661	1	9
653.847	1	4
655.034	1	-10
656.220	1	9
657.406	1	4
658.593	1	1
659.779	1	1
660.965	1	5
662.152	1	5
663.338	1	-2
664.524	1	9
665.710	1	0
666.896	1	-2
668.082	1	2
669.268	1	-1
670.454	1	3
671.640	1	6
672.826	1	3
674.011	1	9
675.197	1	6
676.383	1	-4
677.569	1	16
678.754	1	-1
679.940	1	-4
681.125	1	2
682.311	1	7
683.496	1	1
684.682	1	16
685.867	1	7
687.053	1	20
688.238	1	3
688.746	1	-2