File: Data/GaN_150K_450ms/GaN_sample D_spot15_UVVIS_150 K_200um_450 ms 2x2mm1_276.txt
340.368	1	4
341.565	1	-4
342.763	1	2
343.960	1	5
345.157	1	8
346.354	1	1
347.552	1	8
348.749	1	5
349.946	1	4
351.143	1	6
352.340	1	12
353.537	1	-4
354.734	1	9
355.931	1	8
357.127	1	5
358.324	1	7
359.521	1	-1
360.718	1	4
361.914	1	7
363.111	1	-3
364.308	1	12
365.504	1	5
366.701	1	10
367.897	1	9
369.093	1	7
370.290	1	15
371.486	1	6
372.682	1	8
373.879	1	5
375.075	1	4
376.271	1	9
377.467	1	12
378.663	1	0
379.859	1	1
381.055	1	6
382.251	1	-6
383.447	1	6
384.643	1	6
385.839	1	1
387.035	1	6
388.230	1	8
389.426	1	-3
390.622	1	-11
391.817	1	-5
393.013	1	8
394.208	1	4
395.404	1	10
396.599	1	-1
397.795	1	-8
398.990	1	9
400.186	1	8
401.381	1	-12
402.576	1	0
403.771	1	-2
404.967	1	0
406.162	1	-3
407.357	1	6
408.552	1	2
409.747	1	3
410.942	1	0
412.137	1	-5
413.332	1	6
414.526	1	-2
415.721	1	10
416.916	1	-9
418.111	1	3
419.305	1	2
420.500	1	2
421.695	1	7
422.889	1	2
424.084	1	-1
425.278	1	-1
426.472	1	7
427.667	1	3
428.861	1	17
430.055	1	14
431.250	1	3
432.444	1	0
433.638	1	13
434.832	1	-3
436.026	1	-3
437.220	1	8
438.414	1	10
439.608	1	-1
440.802	1	8
441.996	1	8
443.190	1	8
444.384	1	11
445.578	1	-6
446.771	1	6
447.965	1	-3
449.159	1	-1
450.352	1	-5
451.546	1	6
452.739	1	-4
453.933	1	-4
455.126	1	0
456.320	1	5
457.513	1	9
458.706	1	6
459.899	1	0
461.093	1	3
462.286	1	-3
463.479	1	-1
464.672	1	5
465.865	1	0
467.058	1	3
468.251	1	-2
469.444	1	-1
470.637	1	-3
471.830	1	-5
473.023	1	8
474.215	1	-4
475.408	1	3
476.601	1	-4
477.793	1	3
478.986	1	9
480.179	1	1
481.371	1	-6
482.564	1	3
483.756	1	-2
484.948	1	4
486.141	1	9
487.333	1	-6
488.525	1	-10
489.718	1	-11
490.910	1	-3
492.102	1	1
493.294	1	4
494.486	1	-4
495.678	1	4
496.870	1	1
498.062	1	1
499.254	1	0
500.446	1	4
501.638	1	1
502.829	1	0
504.021	1	1
505.213	1	2
506.404	1	-5
507.596	1	10
508.788	1	2
509.979	1	6
511.171	1	7
512.362	1	5
513.553	1	6
514.745	1	4
515.936	1	2
517.127	1	9
518.319	1	-4
519.510	1	-11
520.701	1	4
521.892	1	9
523.083	1	2
524.274	1	1
525.465	1	7
526.656	1	7
527.847	1	-2
529.038	1	3
530.229	1	7
531.419	1	6
532.610	1	6
533.801	1	12
534.991	1	0
536.182	1	-2
537.373	1	-12
538.563	1	2
539.754	1	6
540.944	1	-1
542.134	1	-6
543.325	1	16
544.515	1	9
545.705	1	5
546.896	1	3
548.086	1	2
549.276	1	1
550.466	1	1
551.656	1	9
552.846	1	0
554.036	1	7
555.226	1	3
556.416	1	1
557.606	1	-2
558.796	1	7
559.986	1	4
561.175	1	-4
562.365	1	-2
563.555	1	8
564.744	1	2
565.934	1	16
567.123	1	-3
568.313	1	2
569.502	1	5
570.692	1	2
571.881	1	-4
573.070	1	3
574.260	1	1
575.449	1	2
576.638	1	16
577.827	1	-2
579.016	1	0
580.205	1	6
581.394	1	7
582.583	1	-3
583.772	1	8
584.961	1	-8
586.150	1	8
587.339	1	2
588.528	1	-1
589.717	1	-1
590.905	1	-3
592.094	1	11
593.283	1	7
594.471	1	-5
595.660	1	5
596.848	1	-1
598.037	1	8
599.225	1	2
600.413	1	-4
601.602	1	15
602.790	1	3
603.978	1	1
605.166	1	-5
606.355	1	-16
607.543	1	0
608.731	1	-10
609.919	1	-12
611.107	1	5
612.295	1	9
613.483	1	3
614.671	1	8
615.858	1	-9
617.046	1	5
618.234	1	-6
619.422	1	8
620.609	1	1
621.797	1	7
622.985	1	-5
624.172	1	3
625.360	1	0
626.547	1	-4
627.735	1	-1
628.922	1	11
630.109	1	-6
631.297	1	3
632.484	1	5
633.671	1	12
634.858	1	3
636.045	1	-4
637.232	1	-4
638.419	1	0
639.606	1	3
640.793	1	4
641.980	1	5
643.167	1	5
644.354	1	5
645.541	1	7
646.728	1	2
647.914	1	3
649.101	1	0
650.288	1	1
651.474	1	4
652.661	1	8
653.847	1	3
655.034	1	3
656.220	1	2
657.406	1	6
658.593	1	7
659.779	1	11
660.965	1	8
662.152	1	-3
663.338	1	-2
664.524	1	7
665.710	1	0
666.896	1	4
668.082	1	-2
669.268	1	-2
670.454	1	0
671.640	1	5
672.826	1	3
674.011	1	9
675.197	1	-6
676.383	1	-4
677.569	1	13
678.754	1	4
679.940	1	-9
681.125	1	-1
682.311	1	0
683.496	1	8
684.682	1	5
685.867	1	-1
687.053	1	12
688.238	1	11
688.746	1	-2