File: Data/GaN_150K_450ms/GaN_sample D_spot15_UVVIS_150 K_200um_450 ms 2x2mm1_55.txt
340.368	1	8
341.565	1	8
342.763	1	2
343.960	1	15
345.157	1	14
346.354	1	7
347.552	1	17
348.749	1	19
349.946	1	3
351.143	1	15
352.340	1	17
353.537	1	18
354.734	1	22
355.931	1	20
357.127	1	39
358.324	1	41
359.521	1	68
360.718	1	80
361.914	1	122
363.111	1	184
364.308	1	295
365.504	1	454
366.701	1	631
367.897	1	742
369.093	1	723
370.290	1	605
371.486	1	458
372.682	1	349
373.879	1	312
375.075	1	233
376.271	1	206
377.467	1	169
378.663	1	138
379.859	1	122
381.055	1	91
382.251	1	88
383.447	1	88
384.643	1	89
385.839	1	97
387.035	1	83
388.230	1	66
389.426	1	65
390.622	1	64
391.817	1	58
393.013	1	54
394.208	1	61
395.404	1	57
396.599	1	57
397.795	1	45
398.990	1	56
400.186	1	40
401.381	1	36
402.576	1	46
403.771	1	34
404.967	1	37
406.162	1	29
407.357	1	37
408.552	1	40
409.747	1	25
410.942	1	34
412.137	1	32
413.332	1	29
414.526	1	23
415.721	1	29
416.916	1	18
418.111	1	33
419.305	1	22
420.500	1	25
421.695	1	22
422.889	1	24
424.084	1	17
425.278	1	22
426.472	1	32
427.667	1	24
428.861	1	24
430.055	1	27
431.250	1	31
432.444	1	19
433.638	1	32
434.832	1	12
436.026	1	12
437.220	1	29
438.414	1	24
439.608	1	14
440.802	1	21
441.996	1	22
443.190	1	22
444.384	1	24
445.578	1	7
446.771	1	28
447.965	1	21
449.159	1	15
450.352	1	23
451.546	1	22
452.739	1	25
453.933	1	7
455.126	1	26
456.320	1	22
457.513	1	15
458.706	1	23
459.899	1	15
461.093	1	26
462.286	1	12
463.479	1	14
464.672	1	20
465.865	1	16
467.058	1	20
468.251	1	12
469.444	1	26
470.637	1	15
471.830	1	13
473.023	1	32
474.215	1	23
475.408	1	25
476.601	1	17
477.793	1	22
478.986	1	30
480.179	1	35
481.371	1	23
482.564	1	37
483.756	1	37
484.948	1	44
486.141	1	43
487.333	1	35
488.525	1	44
489.718	1	45
490.910	1	55
492.102	1	50
493.294	1	51
494.486	1	58
495.678	1	58
496.870	1	73
498.062	1	74
499.254	1	73
500.446	1	75
501.638	1	80
502.829	1	77
504.021	1	87
505.213	1	97
506.404	1	93
507.596	1	106
508.788	1	107
509.979	1	101
511.171	1	104
512.362	1	116
513.553	1	112
514.745	1	121
515.936	1	123
517.127	1	133
518.319	1	134
519.510	1	130
520.701	1	140
521.892	1	127
523.083	1	136
524.274	1	137
525.465	1	151
526.656	1	146
527.847	1	141
529.038	1	159
530.229	1	158
531.419	1	173
532.610	1	157
533.801	1	161
534.991	1	149
536.182	1	145
537.373	1	137
538.563	1	135
539.754	1	133
540.944	1	132
542.134	1	126
543.325	1	140
544.515	1	133
545.705	1	142
546.896	1	141
548.086	1	136
549.276	1	123
550.466	1	135
551.656	1	129
552.846	1	131
554.036	1	125
555.226	1	117
556.416	1	116
557.606	1	106
558.796	1	104
559.986	1	101
561.175	1	104
562.365	1	106
563.555	1	104
564.744	1	102
565.934	1	107
567.123	1	86
568.313	1	87
569.502	1	90
570.692	1	89
571.881	1	80
573.070	1	89
574.260	1	77
575.449	1	68
576.638	1	83
577.827	1	72
579.016	1	74
580.205	1	64
581.394	1	80
582.583	1	82
583.772	1	70
584.961	1	62
586.150	1	67
587.339	1	57
588.528	1	54
589.717	1	60
590.905	1	49
592.094	1	58
593.283	1	50
594.471	1	49
595.660	1	57
596.848	1	54
598.037	1	50
599.225	1	45
600.413	1	46
601.602	1	58
602.790	1	54
603.978	1	46
605.166	1	41
606.355	1	46
607.543	1	49
608.731	1	35
609.919	1	30
611.107	1	47
612.295	1	41
613.483	1	36
614.671	1	44
615.858	1	27
617.046	1	45
618.234	1	36
619.422	1	42
620.609	1	38
621.797	1	37
622.985	1	33
624.172	1	28
625.360	1	37
626.547	1	29
627.735	1	40
628.922	1	27
630.109	1	27
631.297	1	34
632.484	1	41
633.671	1	37
634.858	1	30
636.045	1	24
637.232	1	35
638.419	1	25
639.606	1	37
640.793	1	16
641.980	1	37
643.167	1	33
644.354	1	28
645.541	1	34
646.728	1	25
647.914	1	26
649.101	1	25
650.288	1	25
651.474	1	31
652.661	1	22
653.847	1	24
655.034	1	30
656.220	1	33
657.406	1	15
658.593	1	25
659.779	1	23
660.965	1	33
662.152	1	22
663.338	1	16
664.524	1	21
665.710	1	20
666.896	1	30
668.082	1	18
669.268	1	19
670.454	1	18
671.640	1	37
672.826	1	18
674.011	1	28
675.197	1	26
676.383	1	11
677.569	1	30
678.754	1	23
679.940	1	28
681.125	1	10
682.311	1	27
683.496	1	20
684.682	1	28
685.867	1	20
687.053	1	34
688.238	1	39
688.746	1	28