File: Data/GaN_150K_450ms/GaN_sample D_spot15_UVVIS_150 K_200um_450 ms 2x2mm1_73.txt
340.368	1	3
341.565	1	12
342.763	1	10
343.960	1	9
345.157	1	14
346.354	1	8
347.552	1	20
348.749	1	9
349.946	1	4
351.143	1	15
352.340	1	8
353.537	1	2
354.734	1	15
355.931	1	18
357.127	1	25
358.324	1	31
359.521	1	29
360.718	1	29
361.914	1	57
363.111	1	72
364.308	1	121
365.504	1	141
366.701	1	181
367.897	1	214
369.093	1	228
370.290	1	170
371.486	1	149
372.682	1	127
373.879	1	100
375.075	1	78
376.271	1	81
377.467	1	69
378.663	1	47
379.859	1	50
381.055	1	33
382.251	1	38
383.447	1	35
384.643	1	22
385.839	1	26
387.035	1	33
388.230	1	16
389.426	1	15
390.622	1	14
391.817	1	16
393.013	1	23
394.208	1	26
395.404	1	16
396.599	1	32
397.795	1	14
398.990	1	26
400.186	1	15
401.381	1	11
402.576	1	17
403.771	1	4
404.967	1	19
406.162	1	18
407.357	1	22
408.552	1	17
409.747	1	21
410.942	1	22
412.137	1	10
413.332	1	11
414.526	1	9
415.721	1	14
416.916	1	6
418.111	1	25
419.305	1	14
420.500	1	26
421.695	1	23
422.889	1	14
424.084	1	16
425.278	1	16
426.472	1	29
427.667	1	9
428.861	1	27
430.055	1	11
431.250	1	16
432.444	1	19
433.638	1	20
434.832	1	7
436.026	1	12
437.220	1	20
438.414	1	23
439.608	1	11
440.802	1	11
441.996	1	10
443.190	1	15
444.384	1	15
445.578	1	5
446.771	1	15
447.965	1	13
449.159	1	4
450.352	1	3
451.546	1	10
452.739	1	7
453.933	1	13
455.126	1	13
456.320	1	20
457.513	1	11
458.706	1	25
459.899	1	1
461.093	1	12
462.286	1	5
463.479	1	8
464.672	1	11
465.865	1	1
467.058	1	18
468.251	1	9
469.444	1	9
470.637	1	11
471.830	1	10
473.023	1	7
474.215	1	4
475.408	1	11
476.601	1	8
477.793	1	8
478.986	1	18
480.179	1	20
481.371	1	4
482.564	1	8
483.756	1	14
484.948	1	19
486.141	1	21
487.333	1	7
488.525	1	12
489.718	1	8
490.910	1	30
492.102	1	21
493.294	1	11
494.486	1	23
495.678	1	23
496.870	1	26
498.062	1	15
499.254	1	31
500.446	1	36
501.638	1	38
502.829	1	30
504.021	1	39
505.213	1	26
506.404	1	49
507.596	1	43
508.788	1	38
509.979	1	40
511.171	1	43
512.362	1	50
513.553	1	52
514.745	1	51
515.936	1	53
517.127	1	52
518.319	1	52
519.510	1	55
520.701	1	64
521.892	1	51
523.083	1	55
524.274	1	45
525.465	1	52
526.656	1	50
527.847	1	49
529.038	1	54
530.229	1	69
531.419	1	61
532.610	1	61
533.801	1	62
534.991	1	44
536.182	1	54
537.373	1	55
538.563	1	43
539.754	1	51
540.944	1	51
542.134	1	53
543.325	1	46
544.515	1	52
545.705	1	60
546.896	1	57
548.086	1	50
549.276	1	46
550.466	1	47
551.656	1	50
552.846	1	54
554.036	1	48
555.226	1	48
556.416	1	45
557.606	1	34
558.796	1	47
559.986	1	29
561.175	1	29
562.365	1	29
563.555	1	41
564.744	1	40
565.934	1	48
567.123	1	36
568.313	1	34
569.502	1	30
570.692	1	24
571.881	1	25
573.070	1	36
574.260	1	23
575.449	1	27
576.638	1	28
577.827	1	16
579.016	1	32
580.205	1	17
581.394	1	29
582.583	1	17
583.772	1	31
584.961	1	10
586.150	1	22
587.339	1	21
588.528	1	12
589.717	1	16
590.905	1	8
592.094	1	21
593.283	1	14
594.471	1	0
595.660	1	13
596.848	1	22
598.037	1	11
599.225	1	20
600.413	1	9
601.602	1	12
602.790	1	16
603.978	1	19
605.166	1	6
606.355	1	5
607.543	1	12
608.731	1	3
609.919	1	12
611.107	1	17
612.295	1	21
613.483	1	11
614.671	1	7
615.858	1	-4
617.046	1	9
618.234	1	4
619.422	1	9
620.609	1	10
621.797	1	6
622.985	1	0
624.172	1	6
625.360	1	9
626.547	1	3
627.735	1	11
628.922	1	12
630.109	1	-6
631.297	1	11
632.484	1	15
633.671	1	10
634.858	1	8
636.045	1	0
637.232	1	4
638.419	1	0
639.606	1	6
640.793	1	13
641.980	1	21
643.167	1	9
644.354	1	10
645.541	1	4
646.728	1	9
647.914	1	10
649.101	1	0
650.288	1	1
651.474	1	15
652.661	1	4
653.847	1	9
655.034	1	8
656.220	1	10
657.406	1	3
658.593	1	12
659.779	1	5
660.965	1	4
662.152	1	0
663.338	1	2
664.524	1	12
665.710	1	18
666.896	1	3
668.082	1	2
669.268	1	10
670.454	1	9
671.640	1	9
672.826	1	5
674.011	1	14
675.197	1	10
676.383	1	10
677.569	1	16
678.754	1	16
679.940	1	5
681.125	1	4
682.311	1	16
683.496	1	-1
684.682	1	13
685.867	1	8
687.053	1	25
688.238	1	14
688.746	1	4