File: Data/GaN_150K_450ms/GaN_sample D_spot15_UVVIS_150 K_200um_450 ms 2x2mm1_187.txt
340.368	1	-4
341.565	1	3
342.763	1	9
343.960	1	1
345.157	1	9
346.354	1	7
347.552	1	19
348.749	1	11
349.946	1	-1
351.143	1	7
352.340	1	11
353.537	1	0
354.734	1	5
355.931	1	4
357.127	1	13
358.324	1	13
359.521	1	9
360.718	1	8
361.914	1	7
363.111	1	6
364.308	1	25
365.504	1	5
366.701	1	18
367.897	1	29
369.093	1	18
370.290	1	29
371.486	1	34
372.682	1	25
373.879	1	12
375.075	1	12
376.271	1	11
377.467	1	24
378.663	1	8
379.859	1	9
381.055	1	5
382.251	1	-4
383.447	1	7
384.643	1	0
385.839	1	1
387.035	1	15
388.230	1	8
389.426	1	4
390.622	1	0
391.817	1	1
393.013	1	11
394.208	1	10
395.404	1	12
396.599	1	4
397.795	1	2
398.990	1	5
400.186	1	4
401.381	1	5
402.576	1	8
403.771	1	2
404.967	1	13
406.162	1	1
407.357	1	15
408.552	1	-3
409.747	1	-2
410.942	1	16
412.137	1	16
413.332	1	17
414.526	1	-1
415.721	1	11
416.916	1	6
418.111	1	11
419.305	1	14
420.500	1	3
421.695	1	7
422.889	1	11
424.084	1	4
425.278	1	1
426.472	1	18
427.667	1	2
428.861	1	6
430.055	1	11
431.250	1	19
432.444	1	12
433.638	1	10
434.832	1	2
436.026	1	11
437.220	1	5
438.414	1	-2
439.608	1	1
440.802	1	7
441.996	1	2
443.190	1	10
444.384	1	12
445.578	1	5
446.771	1	4
447.965	1	-4
449.159	1	-1
450.352	1	1
451.546	1	8
452.739	1	-1
453.933	1	-9
455.126	1	2
456.320	1	12
457.513	1	3
458.706	1	14
459.899	1	-2
461.093	1	3
462.286	1	1
463.479	1	7
464.672	1	9
465.865	1	4
467.058	1	6
468.251	1	-2
469.444	1	6
470.637	1	5
471.830	1	2
473.023	1	0
474.215	1	5
475.408	1	0
476.601	1	-3
477.793	1	6
478.986	1	9
480.179	1	6
481.371	1	-3
482.564	1	2
483.756	1	5
484.948	1	5
486.141	1	-4
487.333	1	-3
488.525	1	-8
489.718	1	3
490.910	1	6
492.102	1	4
493.294	1	2
494.486	1	1
495.678	1	4
496.870	1	4
498.062	1	-1
499.254	1	5
500.446	1	10
501.638	1	7
502.829	1	0
504.021	1	2
505.213	1	-4
506.404	1	0
507.596	1	14
508.788	1	7
509.979	1	2
511.171	1	4
512.362	1	9
513.553	1	15
514.745	1	5
515.936	1	-1
517.127	1	13
518.319	1	-1
519.510	1	5
520.701	1	7
521.892	1	9
523.083	1	8
524.274	1	12
525.465	1	14
526.656	1	10
527.847	1	-4
529.038	1	6
530.229	1	12
531.419	1	9
532.610	1	0
533.801	1	7
534.991	1	-1
536.182	1	3
537.373	1	0
538.563	1	-1
539.754	1	-2
540.944	1	-1
542.134	1	3
543.325	1	19
544.515	1	3
545.705	1	5
546.896	1	3
548.086	1	2
549.276	1	-3
550.466	1	0
551.656	1	8
552.846	1	5
554.036	1	13
555.226	1	8
556.416	1	9
557.606	1	2
558.796	1	6
559.986	1	10
561.175	1	7
562.365	1	4
563.555	1	7
564.744	1	13
565.934	1	14
567.123	1	-1
568.313	1	-4
569.502	1	2
570.692	1	9
571.881	1	3
573.070	1	2
574.260	1	13
575.449	1	-3
576.638	1	16
577.827	1	-2
579.016	1	4
580.205	1	7
581.394	1	9
582.583	1	7
583.772	1	8
584.961	1	-6
586.150	1	3
587.339	1	1
588.528	1	6
589.717	1	8
590.905	1	-1
592.094	1	8
593.283	1	1
594.471	1	1
595.660	1	9
596.848	1	-4
598.037	1	0
599.225	1	-9
600.413	1	4
601.602	1	12
602.790	1	6
603.978	1	1
605.166	1	11
606.355	1	-10
607.543	1	8
608.731	1	-1
609.919	1	-8
611.107	1	3
612.295	1	8
613.483	1	-4
614.671	1	6
615.858	1	-6
617.046	1	-3
618.234	1	6
619.422	1	8
620.609	1	3
621.797	1	6
622.985	1	-1
624.172	1	6
625.360	1	3
626.547	1	-7
627.735	1	7
628.922	1	6
630.109	1	3
631.297	1	7
632.484	1	10
633.671	1	10
634.858	1	12
636.045	1	-5
637.232	1	6
638.419	1	3
639.606	1	11
640.793	1	12
641.980	1	12
643.167	1	9
644.354	1	4
645.541	1	5
646.728	1	5
647.914	1	6
649.101	1	-1
650.288	1	10
651.474	1	5
652.661	1	6
653.847	1	12
655.034	1	-3
656.220	1	-3
657.406	1	-3
658.593	1	4
659.779	1	5
660.965	1	8
662.152	1	9
663.338	1	8
664.524	1	7
665.710	1	0
666.896	1	-3
668.082	1	4
669.268	1	6
670.454	1	6
671.640	1	3
672.826	1	-5
674.011	1	12
675.197	1	8
676.383	1	-4
677.569	1	15
678.754	1	6
679.940	1	-10
681.125	1	3
682.311	1	13
683.496	1	-2
684.682	1	7
685.867	1	10
687.053	1	16
688.238	1	5
688.746	1	-1