File: Data/GaN_150K_450ms/GaN_sample D_spot15_UVVIS_150 K_200um_450 ms 2x2mm1_98.txt
340.368	1	6
341.565	1	4
342.763	1	6
343.960	1	3
345.157	1	17
346.354	1	6
347.552	1	16
348.749	1	17
349.946	1	10
351.143	1	12
352.340	1	19
353.537	1	5
354.734	1	10
355.931	1	10
357.127	1	23
358.324	1	15
359.521	1	18
360.718	1	32
361.914	1	34
363.111	1	50
364.308	1	63
365.504	1	72
366.701	1	91
367.897	1	113
369.093	1	102
370.290	1	92
371.486	1	72
372.682	1	70
373.879	1	53
375.075	1	44
376.271	1	44
377.467	1	38
378.663	1	28
379.859	1	29
381.055	1	19
382.251	1	9
383.447	1	23
384.643	1	13
385.839	1	16
387.035	1	24
388.230	1	12
389.426	1	7
390.622	1	10
391.817	1	9
393.013	1	8
394.208	1	10
395.404	1	17
396.599	1	15
397.795	1	13
398.990	1	16
400.186	1	0
401.381	1	13
402.576	1	17
403.771	1	0
404.967	1	6
406.162	1	6
407.357	1	22
408.552	1	4
409.747	1	13
410.942	1	18
412.137	1	4
413.332	1	19
414.526	1	8
415.721	1	9
416.916	1	17
418.111	1	12
419.305	1	10
420.500	1	19
421.695	1	26
422.889	1	5
424.084	1	22
425.278	1	10
426.472	1	27
427.667	1	9
428.861	1	24
430.055	1	14
431.250	1	18
432.444	1	14
433.638	1	22
434.832	1	13
436.026	1	21
437.220	1	18
438.414	1	11
439.608	1	4
440.802	1	14
441.996	1	6
443.190	1	11
444.384	1	16
445.578	1	5
446.771	1	9
447.965	1	11
449.159	1	6
450.352	1	8
451.546	1	15
452.739	1	16
453.933	1	13
455.126	1	8
456.320	1	17
457.513	1	10
458.706	1	16
459.899	1	6
461.093	1	12
462.286	1	-2
463.479	1	4
464.672	1	16
465.865	1	3
467.058	1	11
468.251	1	-5
469.444	1	9
470.637	1	10
471.830	1	7
473.023	1	15
474.215	1	9
475.408	1	13
476.601	1	2
477.793	1	2
478.986	1	16
480.179	1	11
481.371	1	-4
482.564	1	16
483.756	1	12
484.948	1	12
486.141	1	13
487.333	1	0
488.525	1	9
489.718	1	10
490.910	1	18
492.102	1	6
493.294	1	6
494.486	1	16
495.678	1	6
496.870	1	12
498.062	1	3
499.254	1	8
500.446	1	9
501.638	1	19
502.829	1	12
504.021	1	12
505.213	1	9
506.404	1	14
507.596	1	20
508.788	1	29
509.979	1	18
511.171	1	27
512.362	1	20
513.553	1	22
514.745	1	24
515.936	1	14
517.127	1	36
518.319	1	33
519.510	1	19
520.701	1	38
521.892	1	26
523.083	1	16
524.274	1	26
525.465	1	25
526.656	1	20
527.847	1	17
529.038	1	23
530.229	1	32
531.419	1	43
532.610	1	28
533.801	1	27
534.991	1	22
536.182	1	20
537.373	1	24
538.563	1	26
539.754	1	13
540.944	1	30
542.134	1	32
543.325	1	27
544.515	1	29
545.705	1	21
546.896	1	26
548.086	1	34
549.276	1	31
550.466	1	19
551.656	1	13
552.846	1	30
554.036	1	26
555.226	1	19
556.416	1	30
557.606	1	7
558.796	1	21
559.986	1	11
561.175	1	23
562.365	1	15
563.555	1	27
564.744	1	23
565.934	1	23
567.123	1	7
568.313	1	22
569.502	1	11
570.692	1	26
571.881	1	13
573.070	1	28
574.260	1	12
575.449	1	6
576.638	1	18
577.827	1	10
579.016	1	8
580.205	1	11
581.394	1	12
582.583	1	14
583.772	1	17
584.961	1	-5
586.150	1	14
587.339	1	5
588.528	1	3
589.717	1	17
590.905	1	3
592.094	1	13
593.283	1	10
594.471	1	-2
595.660	1	11
596.848	1	10
598.037	1	0
599.225	1	0
600.413	1	-3
601.602	1	11
602.790	1	19
603.978	1	12
605.166	1	7
606.355	1	-1
607.543	1	13
608.731	1	-4
609.919	1	6
611.107	1	16
612.295	1	17
613.483	1	1
614.671	1	14
615.858	1	1
617.046	1	11
618.234	1	5
619.422	1	23
620.609	1	2
621.797	1	2
622.985	1	3
624.172	1	5
625.360	1	9
626.547	1	4
627.735	1	14
628.922	1	14
630.109	1	-5
631.297	1	10
632.484	1	11
633.671	1	8
634.858	1	9
636.045	1	-3
637.232	1	4
638.419	1	0
639.606	1	9
640.793	1	8
641.980	1	14
643.167	1	15
644.354	1	12
645.541	1	10
646.728	1	11
647.914	1	13
649.101	1	-2
650.288	1	19
651.474	1	16
652.661	1	2
653.847	1	5
655.034	1	-10
656.220	1	9
657.406	1	-3
658.593	1	15
659.779	1	7
660.965	1	6
662.152	1	6
663.338	1	6
664.524	1	10
665.710	1	6
666.896	1	7
668.082	1	3
669.268	1	6
670.454	1	14
671.640	1	6
672.826	1	13
674.011	1	3
675.197	1	12
676.383	1	8
677.569	1	22
678.754	1	4
679.940	1	2
681.125	1	0
682.311	1	17
683.496	1	-2
684.682	1	8
685.867	1	6
687.053	1	10
688.238	1	14
688.746	1	1