File: Data/GaN_150K_450ms/GaN_sample D_spot15_UVVIS_150 K_200um_450 ms 2x2mm1_75.txt
340.368	1	4
341.565	1	6
342.763	1	6
343.960	1	8
345.157	1	12
346.354	1	4
347.552	1	13
348.749	1	17
349.946	1	8
351.143	1	12
352.340	1	24
353.537	1	-1
354.734	1	15
355.931	1	13
357.127	1	19
358.324	1	28
359.521	1	41
360.718	1	39
361.914	1	47
363.111	1	72
364.308	1	102
365.504	1	143
366.701	1	178
367.897	1	209
369.093	1	197
370.290	1	169
371.486	1	151
372.682	1	112
373.879	1	99
375.075	1	91
376.271	1	67
377.467	1	65
378.663	1	58
379.859	1	45
381.055	1	36
382.251	1	26
383.447	1	31
384.643	1	24
385.839	1	33
387.035	1	31
388.230	1	19
389.426	1	18
390.622	1	16
391.817	1	14
393.013	1	18
394.208	1	21
395.404	1	25
396.599	1	13
397.795	1	12
398.990	1	25
400.186	1	18
401.381	1	11
402.576	1	24
403.771	1	11
404.967	1	20
406.162	1	6
407.357	1	29
408.552	1	17
409.747	1	14
410.942	1	30
412.137	1	14
413.332	1	16
414.526	1	17
415.721	1	10
416.916	1	13
418.111	1	21
419.305	1	24
420.500	1	13
421.695	1	18
422.889	1	17
424.084	1	16
425.278	1	22
426.472	1	20
427.667	1	20
428.861	1	9
430.055	1	24
431.250	1	20
432.444	1	18
433.638	1	21
434.832	1	14
436.026	1	21
437.220	1	23
438.414	1	12
439.608	1	7
440.802	1	14
441.996	1	15
443.190	1	6
444.384	1	14
445.578	1	7
446.771	1	15
447.965	1	7
449.159	1	4
450.352	1	3
451.546	1	10
452.739	1	4
453.933	1	5
455.126	1	7
456.320	1	18
457.513	1	9
458.706	1	19
459.899	1	5
461.093	1	16
462.286	1	4
463.479	1	6
464.672	1	8
465.865	1	8
467.058	1	10
468.251	1	7
469.444	1	12
470.637	1	11
471.830	1	11
473.023	1	17
474.215	1	16
475.408	1	16
476.601	1	12
477.793	1	6
478.986	1	16
480.179	1	15
481.371	1	8
482.564	1	17
483.756	1	17
484.948	1	18
486.141	1	17
487.333	1	6
488.525	1	7
489.718	1	18
490.910	1	22
492.102	1	13
493.294	1	9
494.486	1	15
495.678	1	17
496.870	1	23
498.062	1	34
499.254	1	16
500.446	1	21
501.638	1	41
502.829	1	32
504.021	1	33
505.213	1	40
506.404	1	40
507.596	1	36
508.788	1	35
509.979	1	42
511.171	1	46
512.362	1	52
513.553	1	41
514.745	1	37
515.936	1	41
517.127	1	51
518.319	1	41
519.510	1	45
520.701	1	58
521.892	1	48
523.083	1	46
524.274	1	48
525.465	1	48
526.656	1	56
527.847	1	47
529.038	1	56
530.229	1	57
531.419	1	57
532.610	1	58
533.801	1	65
534.991	1	51
536.182	1	51
537.373	1	49
538.563	1	44
539.754	1	56
540.944	1	55
542.134	1	49
543.325	1	47
544.515	1	46
545.705	1	52
546.896	1	54
548.086	1	51
549.276	1	45
550.466	1	37
551.656	1	48
552.846	1	40
554.036	1	50
555.226	1	39
556.416	1	48
557.606	1	35
558.796	1	43
559.986	1	36
561.175	1	32
562.365	1	26
563.555	1	37
564.744	1	40
565.934	1	42
567.123	1	19
568.313	1	34
569.502	1	38
570.692	1	36
571.881	1	30
573.070	1	20
574.260	1	29
575.449	1	19
576.638	1	23
577.827	1	16
579.016	1	19
580.205	1	22
581.394	1	17
582.583	1	21
583.772	1	21
584.961	1	11
586.150	1	10
587.339	1	22
588.528	1	11
589.717	1	21
590.905	1	13
592.094	1	16
593.283	1	11
594.471	1	-3
595.660	1	20
596.848	1	19
598.037	1	11
599.225	1	13
600.413	1	17
601.602	1	17
602.790	1	16
603.978	1	8
605.166	1	8
606.355	1	1
607.543	1	13
608.731	1	2
609.919	1	-3
611.107	1	19
612.295	1	16
613.483	1	14
614.671	1	9
615.858	1	2
617.046	1	8
618.234	1	2
619.422	1	26
620.609	1	7
621.797	1	9
622.985	1	8
624.172	1	12
625.360	1	13
626.547	1	11
627.735	1	13
628.922	1	13
630.109	1	-1
631.297	1	8
632.484	1	8
633.671	1	14
634.858	1	14
636.045	1	8
637.232	1	9
638.419	1	12
639.606	1	18
640.793	1	12
641.980	1	8
643.167	1	8
644.354	1	12
645.541	1	7
646.728	1	13
647.914	1	8
649.101	1	4
650.288	1	9
651.474	1	14
652.661	1	16
653.847	1	12
655.034	1	14
656.220	1	15
657.406	1	-1
658.593	1	12
659.779	1	8
660.965	1	12
662.152	1	8
663.338	1	0
664.524	1	7
665.710	1	20
666.896	1	14
668.082	1	14
669.268	1	1
670.454	1	22
671.640	1	10
672.826	1	9
674.011	1	12
675.197	1	6
676.383	1	7
677.569	1	25
678.754	1	5
679.940	1	8
681.125	1	3
682.311	1	16
683.496	1	3
684.682	1	10
685.867	1	8
687.053	1	28
688.238	1	24
688.746	1	5