File: Data/GaN_150K_450ms/GaN_sample D_spot15_UVVIS_150 K_200um_450 ms 2x2mm1_62.txt
340.368	1	3
341.565	1	0
342.763	1	4
343.960	1	6
345.157	1	3
346.354	1	11
347.552	1	17
348.749	1	19
349.946	1	5
351.143	1	8
352.340	1	19
353.537	1	5
354.734	1	9
355.931	1	22
357.127	1	21
358.324	1	36
359.521	1	48
360.718	1	50
361.914	1	81
363.111	1	120
364.308	1	190
365.504	1	258
366.701	1	355
367.897	1	402
369.093	1	402
370.290	1	344
371.486	1	275
372.682	1	224
373.879	1	181
375.075	1	142
376.271	1	124
377.467	1	117
378.663	1	91
379.859	1	78
381.055	1	57
382.251	1	55
383.447	1	53
384.643	1	49
385.839	1	54
387.035	1	45
388.230	1	35
389.426	1	33
390.622	1	26
391.817	1	21
393.013	1	37
394.208	1	37
395.404	1	31
396.599	1	31
397.795	1	30
398.990	1	31
400.186	1	21
401.381	1	15
402.576	1	21
403.771	1	10
404.967	1	17
406.162	1	13
407.357	1	19
408.552	1	20
409.747	1	20
410.942	1	24
412.137	1	13
413.332	1	11
414.526	1	12
415.721	1	28
416.916	1	17
418.111	1	14
419.305	1	28
420.500	1	17
421.695	1	19
422.889	1	15
424.084	1	19
425.278	1	22
426.472	1	18
427.667	1	17
428.861	1	22
430.055	1	17
431.250	1	21
432.444	1	23
433.638	1	20
434.832	1	14
436.026	1	1
437.220	1	22
438.414	1	19
439.608	1	12
440.802	1	12
441.996	1	16
443.190	1	17
444.384	1	12
445.578	1	7
446.771	1	13
447.965	1	12
449.159	1	9
450.352	1	5
451.546	1	9
452.739	1	14
453.933	1	11
455.126	1	9
456.320	1	12
457.513	1	10
458.706	1	19
459.899	1	7
461.093	1	15
462.286	1	8
463.479	1	5
464.672	1	15
465.865	1	5
467.058	1	10
468.251	1	11
469.444	1	11
470.637	1	7
471.830	1	10
473.023	1	13
474.215	1	18
475.408	1	31
476.601	1	18
477.793	1	13
478.986	1	11
480.179	1	20
481.371	1	8
482.564	1	13
483.756	1	28
484.948	1	35
486.141	1	34
487.333	1	14
488.525	1	29
489.718	1	16
490.910	1	33
492.102	1	35
493.294	1	29
494.486	1	40
495.678	1	34
496.870	1	40
498.062	1	38
499.254	1	42
500.446	1	40
501.638	1	52
502.829	1	48
504.021	1	61
505.213	1	63
506.404	1	66
507.596	1	76
508.788	1	61
509.979	1	65
511.171	1	67
512.362	1	77
513.553	1	78
514.745	1	75
515.936	1	67
517.127	1	84
518.319	1	83
519.510	1	71
520.701	1	86
521.892	1	89
523.083	1	86
524.274	1	74
525.465	1	92
526.656	1	84
527.847	1	85
529.038	1	96
530.229	1	99
531.419	1	103
532.610	1	100
533.801	1	99
534.991	1	95
536.182	1	80
537.373	1	76
538.563	1	79
539.754	1	73
540.944	1	88
542.134	1	86
543.325	1	79
544.515	1	82
545.705	1	70
546.896	1	82
548.086	1	91
549.276	1	85
550.466	1	72
551.656	1	81
552.846	1	79
554.036	1	72
555.226	1	67
556.416	1	74
557.606	1	52
558.796	1	67
559.986	1	64
561.175	1	58
562.365	1	53
563.555	1	50
564.744	1	60
565.934	1	69
567.123	1	45
568.313	1	56
569.502	1	53
570.692	1	49
571.881	1	47
573.070	1	50
574.260	1	51
575.449	1	31
576.638	1	51
577.827	1	41
579.016	1	42
580.205	1	37
581.394	1	39
582.583	1	45
583.772	1	44
584.961	1	31
586.150	1	33
587.339	1	32
588.528	1	26
589.717	1	31
590.905	1	29
592.094	1	38
593.283	1	31
594.471	1	23
595.660	1	23
596.848	1	34
598.037	1	23
599.225	1	21
600.413	1	24
601.602	1	17
602.790	1	24
603.978	1	27
605.166	1	28
606.355	1	12
607.543	1	30
608.731	1	19
609.919	1	25
611.107	1	29
612.295	1	20
613.483	1	10
614.671	1	21
615.858	1	12
617.046	1	15
618.234	1	16
619.422	1	30
620.609	1	7
621.797	1	22
622.985	1	9
624.172	1	10
625.360	1	10
626.547	1	8
627.735	1	20
628.922	1	25
630.109	1	9
631.297	1	15
632.484	1	19
633.671	1	17
634.858	1	20
636.045	1	-6
637.232	1	12
638.419	1	13
639.606	1	19
640.793	1	6
641.980	1	23
643.167	1	13
644.354	1	19
645.541	1	13
646.728	1	12
647.914	1	13
649.101	1	16
650.288	1	22
651.474	1	19
652.661	1	13
653.847	1	13
655.034	1	12
656.220	1	10
657.406	1	12
658.593	1	25
659.779	1	16
660.965	1	0
662.152	1	10
663.338	1	11
664.524	1	23
665.710	1	15
666.896	1	9
668.082	1	12
669.268	1	10
670.454	1	21
671.640	1	23
672.826	1	10
674.011	1	12
675.197	1	10
676.383	1	15
677.569	1	18
678.754	1	20
679.940	1	8
681.125	1	5
682.311	1	19
683.496	1	5
684.682	1	11
685.867	1	19
687.053	1	24
688.238	1	29
688.746	1	7