File: Data/GaN_150K_450ms/GaN_sample D_spot15_UVVIS_150 K_200um_450 ms 2x2mm1_279.txt
340.368	1	2
341.565	1	11
342.763	1	4
343.960	1	5
345.157	1	9
346.354	1	-1
347.552	1	7
348.749	1	11
349.946	1	10
351.143	1	4
352.340	1	3
353.537	1	-10
354.734	1	4
355.931	1	8
357.127	1	7
358.324	1	13
359.521	1	6
360.718	1	4
361.914	1	11
363.111	1	0
364.308	1	14
365.504	1	4
366.701	1	13
367.897	1	8
369.093	1	15
370.290	1	16
371.486	1	7
372.682	1	13
373.879	1	1
375.075	1	-6
376.271	1	-2
377.467	1	11
378.663	1	9
379.859	1	0
381.055	1	-4
382.251	1	1
383.447	1	8
384.643	1	3
385.839	1	8
387.035	1	4
388.230	1	-2
389.426	1	4
390.622	1	1
391.817	1	-13
393.013	1	8
394.208	1	-1
395.404	1	14
396.599	1	1
397.795	1	6
398.990	1	6
400.186	1	-5
401.381	1	2
402.576	1	7
403.771	1	-9
404.967	1	-1
406.162	1	-8
407.357	1	12
408.552	1	-10
409.747	1	0
410.942	1	11
412.137	1	0
413.332	1	-1
414.526	1	-3
415.721	1	5
416.916	1	3
418.111	1	4
419.305	1	14
420.500	1	-3
421.695	1	10
422.889	1	5
424.084	1	5
425.278	1	4
426.472	1	8
427.667	1	4
428.861	1	10
430.055	1	5
431.250	1	-2
432.444	1	11
433.638	1	8
434.832	1	2
436.026	1	1
437.220	1	11
438.414	1	12
439.608	1	-5
440.802	1	3
441.996	1	4
443.190	1	-2
444.384	1	6
445.578	1	3
446.771	1	-1
447.965	1	1
449.159	1	5
450.352	1	11
451.546	1	0
452.739	1	-2
453.933	1	-1
455.126	1	2
456.320	1	0
457.513	1	-2
458.706	1	11
459.899	1	-6
461.093	1	9
462.286	1	-3
463.479	1	8
464.672	1	5
465.865	1	3
467.058	1	10
468.251	1	-2
469.444	1	-2
470.637	1	4
471.830	1	4
473.023	1	-1
474.215	1	5
475.408	1	5
476.601	1	-2
477.793	1	-1
478.986	1	5
480.179	1	11
481.371	1	-6
482.564	1	11
483.756	1	5
484.948	1	4
486.141	1	8
487.333	1	-8
488.525	1	-4
489.718	1	-11
490.910	1	-4
492.102	1	7
493.294	1	-7
494.486	1	4
495.678	1	-1
496.870	1	4
498.062	1	1
499.254	1	-4
500.446	1	-7
501.638	1	3
502.829	1	9
504.021	1	6
505.213	1	-4
506.404	1	1
507.596	1	4
508.788	1	4
509.979	1	-8
511.171	1	10
512.362	1	17
513.553	1	17
514.745	1	-1
515.936	1	-4
517.127	1	13
518.319	1	2
519.510	1	-1
520.701	1	9
521.892	1	9
523.083	1	0
524.274	1	8
525.465	1	9
526.656	1	-4
527.847	1	-6
529.038	1	8
530.229	1	7
531.419	1	-1
532.610	1	1
533.801	1	8
534.991	1	2
536.182	1	7
537.373	1	10
538.563	1	6
539.754	1	5
540.944	1	6
542.134	1	12
543.325	1	5
544.515	1	11
545.705	1	7
546.896	1	1
548.086	1	10
549.276	1	-5
550.466	1	1
551.656	1	-1
552.846	1	10
554.036	1	7
555.226	1	3
556.416	1	9
557.606	1	-1
558.796	1	7
559.986	1	3
561.175	1	-6
562.365	1	-1
563.555	1	9
564.744	1	13
565.934	1	9
567.123	1	-7
568.313	1	4
569.502	1	10
570.692	1	8
571.881	1	-5
573.070	1	6
574.260	1	1
575.449	1	-3
576.638	1	4
577.827	1	-6
579.016	1	-1
580.205	1	8
581.394	1	2
582.583	1	-2
583.772	1	9
584.961	1	0
586.150	1	9
587.339	1	-1
588.528	1	-9
589.717	1	4
590.905	1	-5
592.094	1	9
593.283	1	0
594.471	1	-7
595.660	1	10
596.848	1	3
598.037	1	-1
599.225	1	4
600.413	1	-2
601.602	1	13
602.790	1	9
603.978	1	5
605.166	1	2
606.355	1	-3
607.543	1	8
608.731	1	-13
609.919	1	-9
611.107	1	9
612.295	1	7
613.483	1	-4
614.671	1	9
615.858	1	-2
617.046	1	-1
618.234	1	-10
619.422	1	15
620.609	1	-6
621.797	1	4
622.985	1	-2
624.172	1	10
625.360	1	2
626.547	1	-7
627.735	1	6
628.922	1	9
630.109	1	-4
631.297	1	0
632.484	1	7
633.671	1	5
634.858	1	1
636.045	1	-6
637.232	1	1
638.419	1	-8
639.606	1	6
640.793	1	-1
641.980	1	8
643.167	1	6
644.354	1	5
645.541	1	-9
646.728	1	11
647.914	1	6
649.101	1	-10
650.288	1	7
651.474	1	3
652.661	1	1
653.847	1	5
655.034	1	0
656.220	1	1
657.406	1	-4
658.593	1	8
659.779	1	9
660.965	1	8
662.152	1	2
663.338	1	-5
664.524	1	13
665.710	1	8
666.896	1	0
668.082	1	-1
669.268	1	-12
670.454	1	2
671.640	1	4
672.826	1	3
674.011	1	7
675.197	1	5
676.383	1	5
677.569	1	13
678.754	1	-4
679.940	1	-7
681.125	1	0
682.311	1	1
683.496	1	0
684.682	1	22
685.867	1	4
687.053	1	20
688.238	1	10
688.746	1	-6