File: Data/GaN_150K_450ms/GaN_sample D_spot15_UVVIS_150 K_200um_450 ms 2x2mm1_234.txt
340.368	1	1
341.565	1	5
342.763	1	-2
343.960	1	9
345.157	1	7
346.354	1	-8
347.552	1	8
348.749	1	8
349.946	1	-4
351.143	1	5
352.340	1	13
353.537	1	0
354.734	1	9
355.931	1	6
357.127	1	11
358.324	1	0
359.521	1	17
360.718	1	13
361.914	1	5
363.111	1	4
364.308	1	11
365.504	1	2
366.701	1	6
367.897	1	24
369.093	1	19
370.290	1	24
371.486	1	19
372.682	1	11
373.879	1	12
375.075	1	-2
376.271	1	5
377.467	1	13
378.663	1	9
379.859	1	4
381.055	1	1
382.251	1	-1
383.447	1	5
384.643	1	0
385.839	1	10
387.035	1	5
388.230	1	2
389.426	1	4
390.622	1	-15
391.817	1	-5
393.013	1	10
394.208	1	4
395.404	1	14
396.599	1	9
397.795	1	9
398.990	1	6
400.186	1	4
401.381	1	-6
402.576	1	4
403.771	1	-12
404.967	1	1
406.162	1	-3
407.357	1	13
408.552	1	1
409.747	1	-1
410.942	1	15
412.137	1	2
413.332	1	13
414.526	1	-1
415.721	1	10
416.916	1	-4
418.111	1	-3
419.305	1	7
420.500	1	-4
421.695	1	-1
422.889	1	-5
424.084	1	2
425.278	1	0
426.472	1	11
427.667	1	0
428.861	1	3
430.055	1	7
431.250	1	5
432.444	1	3
433.638	1	7
434.832	1	2
436.026	1	-6
437.220	1	10
438.414	1	5
439.608	1	-11
440.802	1	8
441.996	1	2
443.190	1	-1
444.384	1	5
445.578	1	-9
446.771	1	-8
447.965	1	3
449.159	1	-4
450.352	1	6
451.546	1	-4
452.739	1	-2
453.933	1	-1
455.126	1	-1
456.320	1	5
457.513	1	1
458.706	1	9
459.899	1	-1
461.093	1	1
462.286	1	0
463.479	1	-1
464.672	1	3
465.865	1	6
467.058	1	-9
468.251	1	-2
469.444	1	10
470.637	1	6
471.830	1	3
473.023	1	-4
474.215	1	-1
475.408	1	6
476.601	1	0
477.793	1	-5
478.986	1	11
480.179	1	7
481.371	1	1
482.564	1	4
483.756	1	8
484.948	1	6
486.141	1	-1
487.333	1	3
488.525	1	-6
489.718	1	-6
490.910	1	11
492.102	1	0
493.294	1	-11
494.486	1	-3
495.678	1	-9
496.870	1	5
498.062	1	5
499.254	1	2
500.446	1	-1
501.638	1	12
502.829	1	-5
504.021	1	8
505.213	1	5
506.404	1	1
507.596	1	13
508.788	1	-1
509.979	1	6
511.171	1	4
512.362	1	9
513.553	1	7
514.745	1	2
515.936	1	0
517.127	1	15
518.319	1	0
519.510	1	-6
520.701	1	12
521.892	1	2
523.083	1	6
524.274	1	6
525.465	1	15
526.656	1	10
527.847	1	-4
529.038	1	4
530.229	1	8
531.419	1	-4
532.610	1	8
533.801	1	1
534.991	1	10
536.182	1	-5
537.373	1	2
538.563	1	-5
539.754	1	5
540.944	1	0
542.134	1	-5
543.325	1	8
544.515	1	6
545.705	1	-7
546.896	1	11
548.086	1	9
549.276	1	2
550.466	1	1
551.656	1	-5
552.846	1	16
554.036	1	0
555.226	1	9
556.416	1	12
557.606	1	-4
558.796	1	12
559.986	1	9
561.175	1	14
562.365	1	2
563.555	1	9
564.744	1	10
565.934	1	9
567.123	1	2
568.313	1	2
569.502	1	9
570.692	1	4
571.881	1	5
573.070	1	9
574.260	1	4
575.449	1	2
576.638	1	12
577.827	1	0
579.016	1	7
580.205	1	1
581.394	1	0
582.583	1	-1
583.772	1	10
584.961	1	-3
586.150	1	4
587.339	1	7
588.528	1	-9
589.717	1	1
590.905	1	-2
592.094	1	9
593.283	1	5
594.471	1	1
595.660	1	-5
596.848	1	3
598.037	1	2
599.225	1	-1
600.413	1	-5
601.602	1	16
602.790	1	6
603.978	1	3
605.166	1	8
606.355	1	-10
607.543	1	3
608.731	1	-10
609.919	1	-10
611.107	1	12
612.295	1	-2
613.483	1	5
614.671	1	5
615.858	1	-15
617.046	1	3
618.234	1	-6
619.422	1	17
620.609	1	-4
621.797	1	-2
622.985	1	-5
624.172	1	1
625.360	1	-1
626.547	1	-2
627.735	1	11
628.922	1	3
630.109	1	-11
631.297	1	5
632.484	1	5
633.671	1	7
634.858	1	11
636.045	1	-5
637.232	1	6
638.419	1	-5
639.606	1	-1
640.793	1	-1
641.980	1	9
643.167	1	3
644.354	1	4
645.541	1	-1
646.728	1	5
647.914	1	4
649.101	1	-7
650.288	1	6
651.474	1	1
652.661	1	6
653.847	1	5
655.034	1	-7
656.220	1	7
657.406	1	7
658.593	1	4
659.779	1	12
660.965	1	2
662.152	1	-1
663.338	1	-1
664.524	1	6
665.710	1	4
666.896	1	3
668.082	1	7
669.268	1	2
670.454	1	-2
671.640	1	10
672.826	1	3
674.011	1	2
675.197	1	15
676.383	1	5
677.569	1	5
678.754	1	-5
679.940	1	-5
681.125	1	-4
682.311	1	9
683.496	1	-2
684.682	1	5
685.867	1	-5
687.053	1	14
688.238	1	3
688.746	1	-5