File: Data/GaN_150K_450ms/GaN_sample D_spot15_UVVIS_150 K_200um_450 ms 2x2mm1_6.txt
340.368	1	4
341.565	1	5
342.763	1	0
343.960	1	4
345.157	1	8
346.354	1	-6
347.552	1	13
348.749	1	5
349.946	1	-1
351.143	1	5
352.340	1	2
353.537	1	-5
354.734	1	7
355.931	1	-5
357.127	1	4
358.324	1	5
359.521	1	1
360.718	1	4
361.914	1	4
363.111	1	3
364.308	1	-2
365.504	1	0
366.701	1	-4
367.897	1	-3
369.093	1	0
370.290	1	4
371.486	1	10
372.682	1	1
373.879	1	-9
375.075	1	-6
376.271	1	-6
377.467	1	4
378.663	1	5
379.859	1	-3
381.055	1	-7
382.251	1	-10
383.447	1	3
384.643	1	4
385.839	1	-1
387.035	1	-3
388.230	1	-1
389.426	1	-1
390.622	1	-3
391.817	1	-2
393.013	1	4
394.208	1	-2
395.404	1	-1
396.599	1	-5
397.795	1	-3
398.990	1	8
400.186	1	-3
401.381	1	-4
402.576	1	2
403.771	1	-13
404.967	1	0
406.162	1	-6
407.357	1	1
408.552	1	-3
409.747	1	-6
410.942	1	9
412.137	1	-1
413.332	1	5
414.526	1	-6
415.721	1	7
416.916	1	-1
418.111	1	2
419.305	1	10
420.500	1	5
421.695	1	4
422.889	1	2
424.084	1	4
425.278	1	2
426.472	1	9
427.667	1	-2
428.861	1	1
430.055	1	8
431.250	1	6
432.444	1	1
433.638	1	4
434.832	1	-11
436.026	1	-11
437.220	1	-1
438.414	1	5
439.608	1	-3
440.802	1	4
441.996	1	2
443.190	1	6
444.384	1	2
445.578	1	-7
446.771	1	-14
447.965	1	-7
449.159	1	0
450.352	1	-5
451.546	1	-5
452.739	1	1
453.933	1	-8
455.126	1	0
456.320	1	7
457.513	1	-6
458.706	1	12
459.899	1	3
461.093	1	5
462.286	1	4
463.479	1	-4
464.672	1	-2
465.865	1	-9
467.058	1	5
468.251	1	-7
469.444	1	3
470.637	1	3
471.830	1	3
473.023	1	6
474.215	1	-7
475.408	1	-2
476.601	1	3
477.793	1	1
478.986	1	5
480.179	1	2
481.371	1	-10
482.564	1	8
483.756	1	-5
484.948	1	5
486.141	1	3
487.333	1	-12
488.525	1	5
489.718	1	-12
490.910	1	5
492.102	1	4
493.294	1	-12
494.486	1	0
495.678	1	-7
496.870	1	2
498.062	1	-3
499.254	1	-17
500.446	1	-2
501.638	1	-1
502.829	1	-3
504.021	1	-10
505.213	1	-3
506.404	1	11
507.596	1	9
508.788	1	4
509.979	1	3
511.171	1	-4
512.362	1	10
513.553	1	3
514.745	1	0
515.936	1	-4
517.127	1	3
518.319	1	1
519.510	1	-3
520.701	1	4
521.892	1	-4
523.083	1	-10
524.274	1	6
525.465	1	13
526.656	1	9
527.847	1	-9
529.038	1	2
530.229	1	2
531.419	1	2
532.610	1	5
533.801	1	5
534.991	1	6
536.182	1	-4
537.373	1	1
538.563	1	-6
539.754	1	-2
540.944	1	-1
542.134	1	-3
543.325	1	2
544.515	1	-4
545.705	1	4
546.896	1	8
548.086	1	-3
549.276	1	5
550.466	1	-8
551.656	1	8
552.846	1	4
554.036	1	11
555.226	1	-6
556.416	1	0
557.606	1	-13
558.796	1	5
559.986	1	2
561.175	1	-1
562.365	1	0
563.555	1	6
564.744	1	0
565.934	1	-1
567.123	1	-9
568.313	1	-5
569.502	1	9
570.692	1	1
571.881	1	-5
573.070	1	4
574.260	1	5
575.449	1	5
576.638	1	9
577.827	1	-2
579.016	1	8
580.205	1	-1
581.394	1	-4
582.583	1	10
583.772	1	4
584.961	1	-2
586.150	1	7
587.339	1	-3
588.528	1	-7
589.717	1	1
590.905	1	-3
592.094	1	3
593.283	1	6
594.471	1	-9
595.660	1	1
596.848	1	-1
598.037	1	0
599.225	1	-6
600.413	1	-5
601.602	1	7
602.790	1	4
603.978	1	-4
605.166	1	-8
606.355	1	-9
607.543	1	1
608.731	1	-1
609.919	1	-12
611.107	1	2
612.295	1	6
613.483	1	-1
614.671	1	1
615.858	1	-10
617.046	1	-3
618.234	1	-12
619.422	1	5
620.609	1	-2
621.797	1	-4
622.985	1	-3
624.172	1	4
625.360	1	-9
626.547	1	1
627.735	1	1
628.922	1	7
630.109	1	1
631.297	1	2
632.484	1	8
633.671	1	9
634.858	1	3
636.045	1	-4
637.232	1	-1
638.419	1	-2
639.606	1	6
640.793	1	0
641.980	1	6
643.167	1	-9
644.354	1	5
645.541	1	-4
646.728	1	7
647.914	1	12
649.101	1	8
650.288	1	-3
651.474	1	-2
652.661	1	5
653.847	1	2
655.034	1	-1
656.220	1	-3
657.406	1	0
658.593	1	-3
659.779	1	-7
660.965	1	-1
662.152	1	-4
663.338	1	-7
664.524	1	6
665.710	1	6
666.896	1	4
668.082	1	5
669.268	1	-1
670.454	1	10
671.640	1	6
672.826	1	-6
674.011	1	6
675.197	1	1
676.383	1	5
677.569	1	7
678.754	1	5
679.940	1	-3
681.125	1	-3
682.311	1	8
683.496	1	-6
684.682	1	7
685.867	1	5
687.053	1	11
688.238	1	5
688.746	1	1