File: Data/GaN_150K_450ms/GaN_sample D_spot15_UVVIS_150 K_200um_450 ms 2x2mm1_235.txt
340.368	1	11
341.565	1	5
342.763	1	4
343.960	1	8
345.157	1	11
346.354	1	2
347.552	1	18
348.749	1	11
349.946	1	-4
351.143	1	13
352.340	1	6
353.537	1	-1
354.734	1	8
355.931	1	6
357.127	1	1
358.324	1	9
359.521	1	17
360.718	1	1
361.914	1	13
363.111	1	14
364.308	1	10
365.504	1	4
366.701	1	10
367.897	1	17
369.093	1	23
370.290	1	18
371.486	1	24
372.682	1	13
373.879	1	7
375.075	1	1
376.271	1	6
377.467	1	20
378.663	1	11
379.859	1	9
381.055	1	3
382.251	1	-1
383.447	1	2
384.643	1	2
385.839	1	7
387.035	1	7
388.230	1	-3
389.426	1	-4
390.622	1	3
391.817	1	-5
393.013	1	11
394.208	1	4
395.404	1	11
396.599	1	6
397.795	1	8
398.990	1	11
400.186	1	5
401.381	1	2
402.576	1	0
403.771	1	5
404.967	1	6
406.162	1	-7
407.357	1	7
408.552	1	-6
409.747	1	4
410.942	1	10
412.137	1	-2
413.332	1	10
414.526	1	-2
415.721	1	0
416.916	1	0
418.111	1	5
419.305	1	13
420.500	1	3
421.695	1	9
422.889	1	9
424.084	1	3
425.278	1	-9
426.472	1	7
427.667	1	1
428.861	1	6
430.055	1	14
431.250	1	10
432.444	1	13
433.638	1	12
434.832	1	-4
436.026	1	2
437.220	1	6
438.414	1	3
439.608	1	1
440.802	1	5
441.996	1	2
443.190	1	2
444.384	1	8
445.578	1	-5
446.771	1	2
447.965	1	7
449.159	1	-6
450.352	1	-2
451.546	1	1
452.739	1	-3
453.933	1	-1
455.126	1	4
456.320	1	12
457.513	1	-1
458.706	1	6
459.899	1	-3
461.093	1	6
462.286	1	3
463.479	1	1
464.672	1	4
465.865	1	1
467.058	1	6
468.251	1	-1
469.444	1	-1
470.637	1	1
471.830	1	4
473.023	1	10
474.215	1	4
475.408	1	-2
476.601	1	-8
477.793	1	-2
478.986	1	2
480.179	1	-1
481.371	1	-9
482.564	1	5
483.756	1	-6
484.948	1	2
486.141	1	5
487.333	1	0
488.525	1	-11
489.718	1	-7
490.910	1	8
492.102	1	2
493.294	1	-8
494.486	1	3
495.678	1	4
496.870	1	2
498.062	1	-2
499.254	1	6
500.446	1	-8
501.638	1	6
502.829	1	-3
504.021	1	3
505.213	1	-2
506.404	1	-2
507.596	1	12
508.788	1	3
509.979	1	-1
511.171	1	8
512.362	1	6
513.553	1	4
514.745	1	-1
515.936	1	3
517.127	1	7
518.319	1	10
519.510	1	-3
520.701	1	10
521.892	1	7
523.083	1	-3
524.274	1	4
525.465	1	6
526.656	1	4
527.847	1	-10
529.038	1	10
530.229	1	12
531.419	1	4
532.610	1	-6
533.801	1	-1
534.991	1	-1
536.182	1	-2
537.373	1	0
538.563	1	-2
539.754	1	4
540.944	1	2
542.134	1	1
543.325	1	9
544.515	1	3
545.705	1	4
546.896	1	8
548.086	1	8
549.276	1	1
550.466	1	-4
551.656	1	3
552.846	1	0
554.036	1	16
555.226	1	-1
556.416	1	8
557.606	1	-10
558.796	1	12
559.986	1	9
561.175	1	-5
562.365	1	9
563.555	1	6
564.744	1	4
565.934	1	9
567.123	1	-1
568.313	1	4
569.502	1	7
570.692	1	1
571.881	1	-1
573.070	1	5
574.260	1	5
575.449	1	-1
576.638	1	4
577.827	1	-2
579.016	1	-3
580.205	1	-1
581.394	1	4
582.583	1	3
583.772	1	7
584.961	1	-4
586.150	1	8
587.339	1	7
588.528	1	-2
589.717	1	9
590.905	1	4
592.094	1	5
593.283	1	1
594.471	1	0
595.660	1	3
596.848	1	3
598.037	1	-3
599.225	1	-1
600.413	1	6
601.602	1	3
602.790	1	2
603.978	1	9
605.166	1	2
606.355	1	-9
607.543	1	5
608.731	1	-11
609.919	1	-3
611.107	1	11
612.295	1	10
613.483	1	7
614.671	1	-8
615.858	1	-6
617.046	1	-4
618.234	1	-3
619.422	1	15
620.609	1	-3
621.797	1	0
622.985	1	1
624.172	1	5
625.360	1	-3
626.547	1	-1
627.735	1	6
628.922	1	5
630.109	1	-6
631.297	1	12
632.484	1	14
633.671	1	9
634.858	1	6
636.045	1	4
637.232	1	5
638.419	1	-1
639.606	1	5
640.793	1	5
641.980	1	9
643.167	1	-2
644.354	1	11
645.541	1	-6
646.728	1	0
647.914	1	-6
649.101	1	2
650.288	1	5
651.474	1	12
652.661	1	10
653.847	1	7
655.034	1	1
656.220	1	8
657.406	1	-4
658.593	1	6
659.779	1	-1
660.965	1	7
662.152	1	-3
663.338	1	-4
664.524	1	12
665.710	1	1
666.896	1	-4
668.082	1	1
669.268	1	7
670.454	1	5
671.640	1	14
672.826	1	1
674.011	1	12
675.197	1	2
676.383	1	8
677.569	1	6
678.754	1	-5
679.940	1	-1
681.125	1	2
682.311	1	15
683.496	1	-4
684.682	1	8
685.867	1	12
687.053	1	15
688.238	1	8
688.746	1	-7