File: Data/GaN_150K_450ms/GaN_sample D_spot15_UVVIS_150 K_200um_450 ms 2x2mm1_125.txt
340.368	1	5
341.565	1	3
342.763	1	9
343.960	1	5
345.157	1	8
346.354	1	6
347.552	1	16
348.749	1	11
349.946	1	3
351.143	1	6
352.340	1	14
353.537	1	-5
354.734	1	8
355.931	1	11
357.127	1	22
358.324	1	6
359.521	1	22
360.718	1	19
361.914	1	20
363.111	1	20
364.308	1	39
365.504	1	39
366.701	1	43
367.897	1	52
369.093	1	58
370.290	1	57
371.486	1	54
372.682	1	48
373.879	1	28
375.075	1	18
376.271	1	23
377.467	1	30
378.663	1	20
379.859	1	22
381.055	1	17
382.251	1	5
383.447	1	8
384.643	1	8
385.839	1	9
387.035	1	20
388.230	1	8
389.426	1	3
390.622	1	4
391.817	1	0
393.013	1	13
394.208	1	11
395.404	1	13
396.599	1	15
397.795	1	4
398.990	1	18
400.186	1	13
401.381	1	17
402.576	1	10
403.771	1	2
404.967	1	8
406.162	1	2
407.357	1	9
408.552	1	10
409.747	1	20
410.942	1	20
412.137	1	3
413.332	1	14
414.526	1	4
415.721	1	22
416.916	1	4
418.111	1	8
419.305	1	15
420.500	1	16
421.695	1	8
422.889	1	6
424.084	1	9
425.278	1	11
426.472	1	14
427.667	1	7
428.861	1	16
430.055	1	14
431.250	1	19
432.444	1	14
433.638	1	21
434.832	1	5
436.026	1	0
437.220	1	23
438.414	1	19
439.608	1	7
440.802	1	7
441.996	1	12
443.190	1	17
444.384	1	18
445.578	1	9
446.771	1	7
447.965	1	5
449.159	1	3
450.352	1	9
451.546	1	10
452.739	1	12
453.933	1	7
455.126	1	1
456.320	1	9
457.513	1	7
458.706	1	10
459.899	1	4
461.093	1	6
462.286	1	0
463.479	1	13
464.672	1	6
465.865	1	8
467.058	1	11
468.251	1	1
469.444	1	12
470.637	1	7
471.830	1	6
473.023	1	-1
474.215	1	11
475.408	1	-5
476.601	1	5
477.793	1	5
478.986	1	9
480.179	1	5
481.371	1	4
482.564	1	12
483.756	1	1
484.948	1	13
486.141	1	1
487.333	1	-2
488.525	1	5
489.718	1	0
490.910	1	9
492.102	1	10
493.294	1	3
494.486	1	1
495.678	1	11
496.870	1	-2
498.062	1	2
499.254	1	7
500.446	1	9
501.638	1	10
502.829	1	8
504.021	1	18
505.213	1	2
506.404	1	12
507.596	1	16
508.788	1	13
509.979	1	4
511.171	1	13
512.362	1	23
513.553	1	8
514.745	1	9
515.936	1	13
517.127	1	20
518.319	1	11
519.510	1	11
520.701	1	18
521.892	1	4
523.083	1	16
524.274	1	8
525.465	1	32
526.656	1	16
527.847	1	3
529.038	1	12
530.229	1	26
531.419	1	21
532.610	1	20
533.801	1	8
534.991	1	16
536.182	1	15
537.373	1	10
538.563	1	3
539.754	1	6
540.944	1	9
542.134	1	12
543.325	1	18
544.515	1	13
545.705	1	12
546.896	1	11
548.086	1	15
549.276	1	22
550.466	1	6
551.656	1	11
552.846	1	14
554.036	1	23
555.226	1	7
556.416	1	19
557.606	1	3
558.796	1	29
559.986	1	16
561.175	1	8
562.365	1	8
563.555	1	11
564.744	1	11
565.934	1	15
567.123	1	2
568.313	1	11
569.502	1	18
570.692	1	9
571.881	1	-1
573.070	1	12
574.260	1	4
575.449	1	-2
576.638	1	10
577.827	1	6
579.016	1	7
580.205	1	9
581.394	1	1
582.583	1	7
583.772	1	9
584.961	1	-1
586.150	1	15
587.339	1	10
588.528	1	-3
589.717	1	12
590.905	1	1
592.094	1	4
593.283	1	12
594.471	1	-5
595.660	1	-1
596.848	1	6
598.037	1	11
599.225	1	9
600.413	1	5
601.602	1	7
602.790	1	4
603.978	1	13
605.166	1	13
606.355	1	-4
607.543	1	12
608.731	1	-1
609.919	1	-5
611.107	1	15
612.295	1	11
613.483	1	2
614.671	1	9
615.858	1	2
617.046	1	0
618.234	1	0
619.422	1	16
620.609	1	-4
621.797	1	-1
622.985	1	1
624.172	1	9
625.360	1	2
626.547	1	-4
627.735	1	1
628.922	1	9
630.109	1	-1
631.297	1	6
632.484	1	12
633.671	1	2
634.858	1	3
636.045	1	-1
637.232	1	7
638.419	1	-1
639.606	1	7
640.793	1	9
641.980	1	11
643.167	1	9
644.354	1	8
645.541	1	3
646.728	1	14
647.914	1	5
649.101	1	0
650.288	1	8
651.474	1	9
652.661	1	12
653.847	1	10
655.034	1	1
656.220	1	7
657.406	1	-5
658.593	1	9
659.779	1	10
660.965	1	10
662.152	1	-3
663.338	1	-4
664.524	1	13
665.710	1	8
666.896	1	7
668.082	1	11
669.268	1	5
670.454	1	4
671.640	1	10
672.826	1	5
674.011	1	8
675.197	1	8
676.383	1	4
677.569	1	13
678.754	1	6
679.940	1	-4
681.125	1	0
682.311	1	10
683.496	1	-5
684.682	1	16
685.867	1	9
687.053	1	15
688.238	1	5
688.746	1	6