File: Data/GaN_150K_450ms/GaN_sample D_spot15_UVVIS_150 K_200um_450 ms 2x2mm1_322.txt
340.368	1	0
341.565	1	2
342.763	1	0
343.960	1	9
345.157	1	10
346.354	1	-10
347.552	1	6
348.749	1	12
349.946	1	-6
351.143	1	3
352.340	1	-3
353.537	1	-7
354.734	1	10
355.931	1	9
357.127	1	5
358.324	1	4
359.521	1	7
360.718	1	2
361.914	1	3
363.111	1	0
364.308	1	14
365.504	1	3
366.701	1	3
367.897	1	18
369.093	1	10
370.290	1	18
371.486	1	19
372.682	1	1
373.879	1	6
375.075	1	6
376.271	1	9
377.467	1	12
378.663	1	6
379.859	1	3
381.055	1	7
382.251	1	3
383.447	1	-2
384.643	1	0
385.839	1	0
387.035	1	2
388.230	1	-1
389.426	1	1
390.622	1	-2
391.817	1	-10
393.013	1	4
394.208	1	-1
395.404	1	7
396.599	1	2
397.795	1	-6
398.990	1	2
400.186	1	7
401.381	1	8
402.576	1	-1
403.771	1	-9
404.967	1	1
406.162	1	-7
407.357	1	2
408.552	1	8
409.747	1	-3
410.942	1	4
412.137	1	-2
413.332	1	3
414.526	1	-9
415.721	1	9
416.916	1	-1
418.111	1	7
419.305	1	-1
420.500	1	-4
421.695	1	6
422.889	1	1
424.084	1	9
425.278	1	4
426.472	1	11
427.667	1	4
428.861	1	5
430.055	1	5
431.250	1	3
432.444	1	7
433.638	1	6
434.832	1	-4
436.026	1	0
437.220	1	2
438.414	1	21
439.608	1	-2
440.802	1	7
441.996	1	5
443.190	1	8
444.384	1	-2
445.578	1	-11
446.771	1	2
447.965	1	7
449.159	1	-5
450.352	1	-7
451.546	1	3
452.739	1	1
453.933	1	-10
455.126	1	1
456.320	1	10
457.513	1	9
458.706	1	-2
459.899	1	-9
461.093	1	4
462.286	1	-3
463.479	1	-8
464.672	1	4
465.865	1	5
467.058	1	3
468.251	1	-12
469.444	1	0
470.637	1	2
471.830	1	3
473.023	1	-3
474.215	1	0
475.408	1	-3
476.601	1	9
477.793	1	-2
478.986	1	7
480.179	1	-1
481.371	1	-3
482.564	1	-2
483.756	1	-1
484.948	1	6
486.141	1	2
487.333	1	-6
488.525	1	-7
489.718	1	-2
490.910	1	9
492.102	1	5
493.294	1	-5
494.486	1	4
495.678	1	-6
496.870	1	6
498.062	1	1
499.254	1	-5
500.446	1	1
501.638	1	10
502.829	1	-1
504.021	1	8
505.213	1	-2
506.404	1	13
507.596	1	5
508.788	1	2
509.979	1	-7
511.171	1	9
512.362	1	3
513.553	1	-5
514.745	1	-2
515.936	1	5
517.127	1	4
518.319	1	-1
519.510	1	-10
520.701	1	7
521.892	1	5
523.083	1	-8
524.274	1	12
525.465	1	12
526.656	1	-2
527.847	1	-14
529.038	1	-3
530.229	1	5
531.419	1	-6
532.610	1	5
533.801	1	1
534.991	1	-4
536.182	1	-6
537.373	1	3
538.563	1	3
539.754	1	-2
540.944	1	8
542.134	1	5
543.325	1	11
544.515	1	6
545.705	1	2
546.896	1	4
548.086	1	2
549.276	1	6
550.466	1	-4
551.656	1	2
552.846	1	7
554.036	1	1
555.226	1	5
556.416	1	3
557.606	1	-8
558.796	1	3
559.986	1	2
561.175	1	1
562.365	1	-2
563.555	1	9
564.744	1	3
565.934	1	6
567.123	1	2
568.313	1	2
569.502	1	-4
570.692	1	12
571.881	1	-6
573.070	1	-3
574.260	1	10
575.449	1	-10
576.638	1	9
577.827	1	-3
579.016	1	2
580.205	1	5
581.394	1	8
582.583	1	2
583.772	1	6
584.961	1	-9
586.150	1	-1
587.339	1	-6
588.528	1	-4
589.717	1	2
590.905	1	10
592.094	1	5
593.283	1	0
594.471	1	-8
595.660	1	0
596.848	1	5
598.037	1	-9
599.225	1	2
600.413	1	0
601.602	1	3
602.790	1	-3
603.978	1	5
605.166	1	-5
606.355	1	-8
607.543	1	8
608.731	1	-9
609.919	1	-5
611.107	1	11
612.295	1	11
613.483	1	2
614.671	1	1
615.858	1	-1
617.046	1	-4
618.234	1	0
619.422	1	16
620.609	1	2
621.797	1	1
622.985	1	2
624.172	1	5
625.360	1	2
626.547	1	-4
627.735	1	-4
628.922	1	4
630.109	1	0
631.297	1	2
632.484	1	8
633.671	1	8
634.858	1	-1
636.045	1	-7
637.232	1	0
638.419	1	-2
639.606	1	9
640.793	1	0
641.980	1	2
643.167	1	2
644.354	1	8
645.541	1	4
646.728	1	0
647.914	1	9
649.101	1	-2
650.288	1	3
651.474	1	9
652.661	1	1
653.847	1	0
655.034	1	3
656.220	1	6
657.406	1	9
658.593	1	8
659.779	1	9
660.965	1	0
662.152	1	3
663.338	1	-11
664.524	1	8
665.710	1	1
666.896	1	-2
668.082	1	-3
669.268	1	-10
670.454	1	9
671.640	1	2
672.826	1	3
674.011	1	6
675.197	1	2
676.383	1	2
677.569	1	12
678.754	1	1
679.940	1	4
681.125	1	-3
682.311	1	-2
683.496	1	3
684.682	1	2
685.867	1	-1
687.053	1	21
688.238	1	16
688.746	1	0