File: Data/GaN_150K_450ms/GaN_sample D_spot15_UVVIS_150 K_200um_450 ms 2x2mm1_184.txt
340.368	1	-7
341.565	1	11
342.763	1	7
343.960	1	7
345.157	1	15
346.354	1	11
347.552	1	16
348.749	1	12
349.946	1	-2
351.143	1	12
352.340	1	10
353.537	1	-2
354.734	1	10
355.931	1	18
357.127	1	9
358.324	1	7
359.521	1	11
360.718	1	4
361.914	1	14
363.111	1	12
364.308	1	15
365.504	1	7
366.701	1	20
367.897	1	23
369.093	1	24
370.290	1	24
371.486	1	25
372.682	1	21
373.879	1	23
375.075	1	12
376.271	1	13
377.467	1	21
378.663	1	16
379.859	1	12
381.055	1	5
382.251	1	-4
383.447	1	17
384.643	1	5
385.839	1	12
387.035	1	9
388.230	1	1
389.426	1	9
390.622	1	-1
391.817	1	-3
393.013	1	8
394.208	1	3
395.404	1	7
396.599	1	2
397.795	1	6
398.990	1	16
400.186	1	4
401.381	1	-1
402.576	1	1
403.771	1	0
404.967	1	0
406.162	1	-13
407.357	1	11
408.552	1	3
409.747	1	0
410.942	1	12
412.137	1	-7
413.332	1	6
414.526	1	-5
415.721	1	12
416.916	1	5
418.111	1	15
419.305	1	12
420.500	1	-4
421.695	1	11
422.889	1	7
424.084	1	1
425.278	1	-1
426.472	1	15
427.667	1	12
428.861	1	11
430.055	1	5
431.250	1	7
432.444	1	7
433.638	1	7
434.832	1	2
436.026	1	2
437.220	1	13
438.414	1	8
439.608	1	10
440.802	1	3
441.996	1	9
443.190	1	15
444.384	1	6
445.578	1	12
446.771	1	8
447.965	1	7
449.159	1	0
450.352	1	-4
451.546	1	5
452.739	1	7
453.933	1	-3
455.126	1	5
456.320	1	6
457.513	1	3
458.706	1	9
459.899	1	4
461.093	1	11
462.286	1	3
463.479	1	4
464.672	1	3
465.865	1	-5
467.058	1	7
468.251	1	-6
469.444	1	7
470.637	1	7
471.830	1	8
473.023	1	2
474.215	1	4
475.408	1	4
476.601	1	3
477.793	1	4
478.986	1	10
480.179	1	3
481.371	1	1
482.564	1	8
483.756	1	12
484.948	1	12
486.141	1	-1
487.333	1	0
488.525	1	-8
489.718	1	0
490.910	1	15
492.102	1	13
493.294	1	-5
494.486	1	-4
495.678	1	-3
496.870	1	10
498.062	1	10
499.254	1	4
500.446	1	-6
501.638	1	6
502.829	1	6
504.021	1	0
505.213	1	-3
506.404	1	12
507.596	1	12
508.788	1	5
509.979	1	7
511.171	1	9
512.362	1	12
513.553	1	7
514.745	1	6
515.936	1	7
517.127	1	9
518.319	1	8
519.510	1	5
520.701	1	4
521.892	1	3
523.083	1	-3
524.274	1	11
525.465	1	12
526.656	1	7
527.847	1	-8
529.038	1	12
530.229	1	16
531.419	1	12
532.610	1	9
533.801	1	15
534.991	1	1
536.182	1	8
537.373	1	2
538.563	1	8
539.754	1	12
540.944	1	13
542.134	1	3
543.325	1	8
544.515	1	12
545.705	1	7
546.896	1	11
548.086	1	6
549.276	1	10
550.466	1	-1
551.656	1	8
552.846	1	13
554.036	1	21
555.226	1	8
556.416	1	12
557.606	1	-3
558.796	1	12
559.986	1	20
561.175	1	1
562.365	1	1
563.555	1	4
564.744	1	11
565.934	1	10
567.123	1	-3
568.313	1	3
569.502	1	10
570.692	1	12
571.881	1	1
573.070	1	13
574.260	1	6
575.449	1	0
576.638	1	12
577.827	1	0
579.016	1	4
580.205	1	3
581.394	1	9
582.583	1	15
583.772	1	13
584.961	1	-2
586.150	1	14
587.339	1	-1
588.528	1	3
589.717	1	9
590.905	1	-2
592.094	1	4
593.283	1	4
594.471	1	-2
595.660	1	3
596.848	1	4
598.037	1	-6
599.225	1	2
600.413	1	12
601.602	1	3
602.790	1	12
603.978	1	7
605.166	1	2
606.355	1	-3
607.543	1	6
608.731	1	-5
609.919	1	-8
611.107	1	8
612.295	1	8
613.483	1	6
614.671	1	13
615.858	1	-6
617.046	1	0
618.234	1	0
619.422	1	17
620.609	1	-1
621.797	1	0
622.985	1	0
624.172	1	3
625.360	1	2
626.547	1	5
627.735	1	-1
628.922	1	7
630.109	1	-4
631.297	1	1
632.484	1	7
633.671	1	6
634.858	1	10
636.045	1	-4
637.232	1	5
638.419	1	2
639.606	1	4
640.793	1	1
641.980	1	9
643.167	1	8
644.354	1	16
645.541	1	3
646.728	1	3
647.914	1	-2
649.101	1	-4
650.288	1	0
651.474	1	11
652.661	1	3
653.847	1	5
655.034	1	-4
656.220	1	16
657.406	1	10
658.593	1	13
659.779	1	0
660.965	1	5
662.152	1	8
663.338	1	4
664.524	1	4
665.710	1	5
666.896	1	8
668.082	1	8
669.268	1	-1
670.454	1	8
671.640	1	12
672.826	1	3
674.011	1	9
675.197	1	10
676.383	1	-1
677.569	1	5
678.754	1	9
679.940	1	-5
681.125	1	5
682.311	1	11
683.496	1	9
684.682	1	6
685.867	1	-3
687.053	1	14
688.238	1	10
688.746	1	-9