File: Data/GaN_150K_450ms/GaN_sample D_spot15_UVVIS_150 K_200um_450 ms 2x2mm1_124.txt
340.368	1	8
341.565	1	16
342.763	1	9
343.960	1	3
345.157	1	17
346.354	1	5
347.552	1	20
348.749	1	11
349.946	1	3
351.143	1	9
352.340	1	6
353.537	1	1
354.734	1	6
355.931	1	12
357.127	1	15
358.324	1	15
359.521	1	20
360.718	1	8
361.914	1	17
363.111	1	19
364.308	1	37
365.504	1	31
366.701	1	52
367.897	1	52
369.093	1	56
370.290	1	57
371.486	1	50
372.682	1	47
373.879	1	33
375.075	1	31
376.271	1	20
377.467	1	30
378.663	1	20
379.859	1	15
381.055	1	10
382.251	1	11
383.447	1	14
384.643	1	15
385.839	1	20
387.035	1	11
388.230	1	14
389.426	1	8
390.622	1	6
391.817	1	-2
393.013	1	19
394.208	1	10
395.404	1	15
396.599	1	7
397.795	1	13
398.990	1	24
400.186	1	12
401.381	1	6
402.576	1	16
403.771	1	0
404.967	1	2
406.162	1	7
407.357	1	20
408.552	1	9
409.747	1	1
410.942	1	17
412.137	1	6
413.332	1	17
414.526	1	0
415.721	1	20
416.916	1	12
418.111	1	19
419.305	1	22
420.500	1	20
421.695	1	30
422.889	1	10
424.084	1	5
425.278	1	11
426.472	1	11
427.667	1	11
428.861	1	7
430.055	1	18
431.250	1	14
432.444	1	13
433.638	1	14
434.832	1	10
436.026	1	12
437.220	1	20
438.414	1	25
439.608	1	9
440.802	1	11
441.996	1	6
443.190	1	6
444.384	1	13
445.578	1	11
446.771	1	9
447.965	1	1
449.159	1	3
450.352	1	5
451.546	1	14
452.739	1	8
453.933	1	6
455.126	1	9
456.320	1	9
457.513	1	5
458.706	1	20
459.899	1	-1
461.093	1	8
462.286	1	4
463.479	1	11
464.672	1	8
465.865	1	3
467.058	1	4
468.251	1	10
469.444	1	7
470.637	1	8
471.830	1	-2
473.023	1	12
474.215	1	10
475.408	1	8
476.601	1	5
477.793	1	4
478.986	1	5
480.179	1	5
481.371	1	-6
482.564	1	13
483.756	1	9
484.948	1	10
486.141	1	15
487.333	1	-2
488.525	1	-8
489.718	1	12
490.910	1	11
492.102	1	12
493.294	1	-3
494.486	1	2
495.678	1	3
496.870	1	16
498.062	1	5
499.254	1	-2
500.446	1	5
501.638	1	13
502.829	1	0
504.021	1	16
505.213	1	6
506.404	1	11
507.596	1	13
508.788	1	11
509.979	1	11
511.171	1	9
512.362	1	21
513.553	1	7
514.745	1	11
515.936	1	3
517.127	1	16
518.319	1	20
519.510	1	11
520.701	1	22
521.892	1	5
523.083	1	10
524.274	1	14
525.465	1	25
526.656	1	14
527.847	1	1
529.038	1	20
530.229	1	27
531.419	1	20
532.610	1	15
533.801	1	16
534.991	1	13
536.182	1	22
537.373	1	7
538.563	1	11
539.754	1	24
540.944	1	14
542.134	1	13
543.325	1	19
544.515	1	7
545.705	1	11
546.896	1	13
548.086	1	8
549.276	1	16
550.466	1	19
551.656	1	13
552.846	1	13
554.036	1	17
555.226	1	12
556.416	1	14
557.606	1	6
558.796	1	11
559.986	1	18
561.175	1	11
562.365	1	16
563.555	1	12
564.744	1	19
565.934	1	23
567.123	1	18
568.313	1	13
569.502	1	9
570.692	1	11
571.881	1	12
573.070	1	13
574.260	1	13
575.449	1	0
576.638	1	16
577.827	1	6
579.016	1	12
580.205	1	12
581.394	1	7
582.583	1	10
583.772	1	19
584.961	1	1
586.150	1	-1
587.339	1	6
588.528	1	0
589.717	1	9
590.905	1	6
592.094	1	14
593.283	1	9
594.471	1	-11
595.660	1	12
596.848	1	12
598.037	1	-9
599.225	1	6
600.413	1	1
601.602	1	7
602.790	1	9
603.978	1	2
605.166	1	6
606.355	1	-7
607.543	1	11
608.731	1	-5
609.919	1	-3
611.107	1	21
612.295	1	14
613.483	1	2
614.671	1	-6
615.858	1	3
617.046	1	-2
618.234	1	0
619.422	1	19
620.609	1	-4
621.797	1	9
622.985	1	2
624.172	1	8
625.360	1	8
626.547	1	3
627.735	1	3
628.922	1	6
630.109	1	-4
631.297	1	6
632.484	1	2
633.671	1	15
634.858	1	7
636.045	1	-4
637.232	1	8
638.419	1	4
639.606	1	10
640.793	1	11
641.980	1	12
643.167	1	4
644.354	1	9
645.541	1	6
646.728	1	4
647.914	1	5
649.101	1	4
650.288	1	10
651.474	1	8
652.661	1	9
653.847	1	7
655.034	1	4
656.220	1	7
657.406	1	-1
658.593	1	13
659.779	1	10
660.965	1	8
662.152	1	7
663.338	1	1
664.524	1	4
665.710	1	6
666.896	1	15
668.082	1	7
669.268	1	-7
670.454	1	16
671.640	1	13
672.826	1	-3
674.011	1	16
675.197	1	8
676.383	1	1
677.569	1	17
678.754	1	5
679.940	1	-5
681.125	1	-3
682.311	1	11
683.496	1	-2
684.682	1	7
685.867	1	-3
687.053	1	19
688.238	1	11
688.746	1	1