File: Data/GaN_150K_450ms/GaN_sample D_spot15_UVVIS_150 K_200um_450 ms 2x2mm1_67.txt
340.368	1	-2
341.565	1	14
342.763	1	4
343.960	1	10
345.157	1	16
346.354	1	6
347.552	1	18
348.749	1	15
349.946	1	3
351.143	1	4
352.340	1	13
353.537	1	8
354.734	1	15
355.931	1	14
357.127	1	27
358.324	1	27
359.521	1	40
360.718	1	52
361.914	1	77
363.111	1	87
364.308	1	149
365.504	1	184
366.701	1	267
367.897	1	318
369.093	1	300
370.290	1	263
371.486	1	200
372.682	1	171
373.879	1	136
375.075	1	124
376.271	1	93
377.467	1	93
378.663	1	66
379.859	1	63
381.055	1	46
382.251	1	34
383.447	1	49
384.643	1	30
385.839	1	43
387.035	1	41
388.230	1	35
389.426	1	31
390.622	1	30
391.817	1	23
393.013	1	21
394.208	1	17
395.404	1	24
396.599	1	17
397.795	1	21
398.990	1	28
400.186	1	22
401.381	1	18
402.576	1	19
403.771	1	13
404.967	1	16
406.162	1	12
407.357	1	26
408.552	1	12
409.747	1	18
410.942	1	28
412.137	1	13
413.332	1	22
414.526	1	17
415.721	1	20
416.916	1	14
418.111	1	21
419.305	1	20
420.500	1	13
421.695	1	20
422.889	1	19
424.084	1	14
425.278	1	11
426.472	1	22
427.667	1	8
428.861	1	18
430.055	1	10
431.250	1	24
432.444	1	19
433.638	1	15
434.832	1	-5
436.026	1	13
437.220	1	26
438.414	1	10
439.608	1	4
440.802	1	11
441.996	1	7
443.190	1	21
444.384	1	11
445.578	1	1
446.771	1	12
447.965	1	11
449.159	1	7
450.352	1	9
451.546	1	7
452.739	1	7
453.933	1	16
455.126	1	6
456.320	1	11
457.513	1	16
458.706	1	18
459.899	1	13
461.093	1	10
462.286	1	10
463.479	1	6
464.672	1	18
465.865	1	8
467.058	1	11
468.251	1	-3
469.444	1	18
470.637	1	4
471.830	1	5
473.023	1	16
474.215	1	11
475.408	1	11
476.601	1	1
477.793	1	11
478.986	1	18
480.179	1	15
481.371	1	9
482.564	1	20
483.756	1	18
484.948	1	24
486.141	1	12
487.333	1	14
488.525	1	16
489.718	1	4
490.910	1	35
492.102	1	21
493.294	1	21
494.486	1	30
495.678	1	48
496.870	1	32
498.062	1	27
499.254	1	42
500.446	1	33
501.638	1	35
502.829	1	37
504.021	1	43
505.213	1	49
506.404	1	49
507.596	1	48
508.788	1	53
509.979	1	54
511.171	1	56
512.362	1	69
513.553	1	67
514.745	1	58
515.936	1	63
517.127	1	73
518.319	1	53
519.510	1	56
520.701	1	69
521.892	1	63
523.083	1	69
524.274	1	70
525.465	1	79
526.656	1	73
527.847	1	66
529.038	1	67
530.229	1	79
531.419	1	65
532.610	1	80
533.801	1	68
534.991	1	68
536.182	1	59
537.373	1	58
538.563	1	67
539.754	1	64
540.944	1	66
542.134	1	63
543.325	1	70
544.515	1	66
545.705	1	66
546.896	1	60
548.086	1	72
549.276	1	66
550.466	1	68
551.656	1	53
552.846	1	57
554.036	1	60
555.226	1	53
556.416	1	55
557.606	1	40
558.796	1	51
559.986	1	57
561.175	1	41
562.365	1	44
563.555	1	39
564.744	1	47
565.934	1	54
567.123	1	35
568.313	1	39
569.502	1	49
570.692	1	38
571.881	1	33
573.070	1	43
574.260	1	32
575.449	1	17
576.638	1	38
577.827	1	28
579.016	1	32
580.205	1	31
581.394	1	21
582.583	1	40
583.772	1	19
584.961	1	19
586.150	1	24
587.339	1	11
588.528	1	26
589.717	1	36
590.905	1	20
592.094	1	26
593.283	1	30
594.471	1	19
595.660	1	27
596.848	1	21
598.037	1	23
599.225	1	8
600.413	1	13
601.602	1	22
602.790	1	31
603.978	1	13
605.166	1	18
606.355	1	3
607.543	1	13
608.731	1	4
609.919	1	8
611.107	1	21
612.295	1	22
613.483	1	16
614.671	1	14
615.858	1	7
617.046	1	9
618.234	1	10
619.422	1	24
620.609	1	9
621.797	1	14
622.985	1	12
624.172	1	18
625.360	1	12
626.547	1	12
627.735	1	10
628.922	1	20
630.109	1	4
631.297	1	15
632.484	1	14
633.671	1	10
634.858	1	19
636.045	1	7
637.232	1	13
638.419	1	4
639.606	1	12
640.793	1	15
641.980	1	9
643.167	1	10
644.354	1	19
645.541	1	4
646.728	1	20
647.914	1	7
649.101	1	8
650.288	1	17
651.474	1	11
652.661	1	10
653.847	1	18
655.034	1	11
656.220	1	14
657.406	1	8
658.593	1	15
659.779	1	16
660.965	1	8
662.152	1	14
663.338	1	6
664.524	1	19
665.710	1	7
666.896	1	14
668.082	1	13
669.268	1	6
670.454	1	9
671.640	1	15
672.826	1	5
674.011	1	16
675.197	1	11
676.383	1	16
677.569	1	16
678.754	1	15
679.940	1	4
681.125	1	6
682.311	1	20
683.496	1	5
684.682	1	15
685.867	1	10
687.053	1	28
688.238	1	23
688.746	1	20