File: Data/GaN_150K_450ms/GaN_sample D_spot15_UVVIS_150 K_200um_450 ms 2x2mm1_318.txt
340.368	1	-2
341.565	1	4
342.763	1	0
343.960	1	5
345.157	1	14
346.354	1	4
347.552	1	13
348.749	1	9
349.946	1	0
351.143	1	4
352.340	1	8
353.537	1	-1
354.734	1	-4
355.931	1	4
357.127	1	9
358.324	1	1
359.521	1	14
360.718	1	0
361.914	1	6
363.111	1	3
364.308	1	8
365.504	1	-1
366.701	1	10
367.897	1	6
369.093	1	7
370.290	1	22
371.486	1	17
372.682	1	8
373.879	1	3
375.075	1	-7
376.271	1	2
377.467	1	14
378.663	1	-1
379.859	1	1
381.055	1	-6
382.251	1	2
383.447	1	8
384.643	1	6
385.839	1	10
387.035	1	0
388.230	1	3
389.426	1	0
390.622	1	-9
391.817	1	-2
393.013	1	11
394.208	1	7
395.404	1	4
396.599	1	1
397.795	1	-6
398.990	1	6
400.186	1	5
401.381	1	-3
402.576	1	-1
403.771	1	-7
404.967	1	2
406.162	1	-6
407.357	1	6
408.552	1	-1
409.747	1	7
410.942	1	8
412.137	1	2
413.332	1	7
414.526	1	-10
415.721	1	4
416.916	1	-11
418.111	1	9
419.305	1	3
420.500	1	2
421.695	1	2
422.889	1	1
424.084	1	5
425.278	1	-5
426.472	1	10
427.667	1	-4
428.861	1	7
430.055	1	7
431.250	1	7
432.444	1	10
433.638	1	3
434.832	1	1
436.026	1	0
437.220	1	4
438.414	1	9
439.608	1	-1
440.802	1	-2
441.996	1	5
443.190	1	-1
444.384	1	7
445.578	1	-4
446.771	1	8
447.965	1	0
449.159	1	-9
450.352	1	-9
451.546	1	-3
452.739	1	4
453.933	1	-4
455.126	1	3
456.320	1	0
457.513	1	-2
458.706	1	9
459.899	1	2
461.093	1	3
462.286	1	-8
463.479	1	3
464.672	1	9
465.865	1	-3
467.058	1	3
468.251	1	-2
469.444	1	-5
470.637	1	6
471.830	1	-2
473.023	1	9
474.215	1	8
475.408	1	0
476.601	1	-3
477.793	1	4
478.986	1	7
480.179	1	7
481.371	1	-2
482.564	1	0
483.756	1	4
484.948	1	5
486.141	1	4
487.333	1	-11
488.525	1	-3
489.718	1	-5
490.910	1	2
492.102	1	1
493.294	1	-10
494.486	1	-6
495.678	1	-1
496.870	1	4
498.062	1	0
499.254	1	-6
500.446	1	-7
501.638	1	-2
502.829	1	-8
504.021	1	6
505.213	1	-10
506.404	1	4
507.596	1	5
508.788	1	-4
509.979	1	2
511.171	1	11
512.362	1	12
513.553	1	2
514.745	1	5
515.936	1	5
517.127	1	9
518.319	1	5
519.510	1	-7
520.701	1	6
521.892	1	2
523.083	1	0
524.274	1	-5
525.465	1	5
526.656	1	5
527.847	1	-4
529.038	1	10
530.229	1	5
531.419	1	5
532.610	1	16
533.801	1	7
534.991	1	-1
536.182	1	1
537.373	1	3
538.563	1	4
539.754	1	-9
540.944	1	6
542.134	1	1
543.325	1	5
544.515	1	-4
545.705	1	0
546.896	1	0
548.086	1	12
549.276	1	1
550.466	1	5
551.656	1	0
552.846	1	9
554.036	1	5
555.226	1	-2
556.416	1	17
557.606	1	-11
558.796	1	17
559.986	1	-1
561.175	1	0
562.365	1	-1
563.555	1	5
564.744	1	9
565.934	1	5
567.123	1	1
568.313	1	4
569.502	1	0
570.692	1	7
571.881	1	-7
573.070	1	4
574.260	1	9
575.449	1	1
576.638	1	10
577.827	1	2
579.016	1	-5
580.205	1	7
581.394	1	2
582.583	1	0
583.772	1	8
584.961	1	0
586.150	1	-2
587.339	1	1
588.528	1	2
589.717	1	4
590.905	1	1
592.094	1	5
593.283	1	3
594.471	1	-3
595.660	1	5
596.848	1	2
598.037	1	-1
599.225	1	-9
600.413	1	1
601.602	1	11
602.790	1	7
603.978	1	2
605.166	1	-4
606.355	1	-16
607.543	1	8
608.731	1	-9
609.919	1	1
611.107	1	6
612.295	1	4
613.483	1	-2
614.671	1	2
615.858	1	-12
617.046	1	3
618.234	1	-5
619.422	1	13
620.609	1	-11
621.797	1	0
622.985	1	2
624.172	1	-2
625.360	1	-9
626.547	1	-5
627.735	1	0
628.922	1	7
630.109	1	-10
631.297	1	8
632.484	1	15
633.671	1	1
634.858	1	3
636.045	1	-5
637.232	1	4
638.419	1	3
639.606	1	6
640.793	1	3
641.980	1	0
643.167	1	1
644.354	1	0
645.541	1	-2
646.728	1	0
647.914	1	9
649.101	1	5
650.288	1	8
651.474	1	9
652.661	1	-1
653.847	1	-2
655.034	1	1
656.220	1	7
657.406	1	-4
658.593	1	5
659.779	1	-1
660.965	1	-2
662.152	1	-4
663.338	1	3
664.524	1	6
665.710	1	3
666.896	1	8
668.082	1	7
669.268	1	-3
670.454	1	-2
671.640	1	-3
672.826	1	-4
674.011	1	2
675.197	1	10
676.383	1	4
677.569	1	10
678.754	1	2
679.940	1	-11
681.125	1	1
682.311	1	9
683.496	1	-4
684.682	1	8
685.867	1	1
687.053	1	16
688.238	1	1
688.746	1	2