File: Data/GaN_150K_450ms/GaN_sample D_spot15_UVVIS_150 K_200um_450 ms 2x2mm1_203.txt
340.368	1	-1
341.565	1	6
342.763	1	1
343.960	1	8
345.157	1	10
346.354	1	1
347.552	1	13
348.749	1	15
349.946	1	0
351.143	1	5
352.340	1	6
353.537	1	-1
354.734	1	5
355.931	1	12
357.127	1	10
358.324	1	15
359.521	1	10
360.718	1	10
361.914	1	11
363.111	1	5
364.308	1	19
365.504	1	24
366.701	1	17
367.897	1	26
369.093	1	31
370.290	1	26
371.486	1	20
372.682	1	14
373.879	1	20
375.075	1	5
376.271	1	10
377.467	1	21
378.663	1	4
379.859	1	15
381.055	1	8
382.251	1	4
383.447	1	6
384.643	1	-4
385.839	1	7
387.035	1	8
388.230	1	2
389.426	1	-3
390.622	1	-9
391.817	1	-12
393.013	1	12
394.208	1	-1
395.404	1	6
396.599	1	6
397.795	1	0
398.990	1	17
400.186	1	1
401.381	1	-5
402.576	1	8
403.771	1	-11
404.967	1	8
406.162	1	-4
407.357	1	2
408.552	1	1
409.747	1	-1
410.942	1	12
412.137	1	7
413.332	1	2
414.526	1	-1
415.721	1	12
416.916	1	-6
418.111	1	4
419.305	1	7
420.500	1	2
421.695	1	-1
422.889	1	3
424.084	1	11
425.278	1	2
426.472	1	13
427.667	1	1
428.861	1	6
430.055	1	15
431.250	1	12
432.444	1	9
433.638	1	13
434.832	1	-4
436.026	1	4
437.220	1	11
438.414	1	0
439.608	1	8
440.802	1	7
441.996	1	5
443.190	1	10
444.384	1	14
445.578	1	5
446.771	1	-2
447.965	1	7
449.159	1	-4
450.352	1	1
451.546	1	4
452.739	1	10
453.933	1	2
455.126	1	1
456.320	1	15
457.513	1	5
458.706	1	9
459.899	1	3
461.093	1	8
462.286	1	0
463.479	1	6
464.672	1	2
465.865	1	2
467.058	1	8
468.251	1	-4
469.444	1	2
470.637	1	-2
471.830	1	5
473.023	1	4
474.215	1	2
475.408	1	-2
476.601	1	3
477.793	1	2
478.986	1	5
480.179	1	6
481.371	1	-11
482.564	1	10
483.756	1	5
484.948	1	6
486.141	1	2
487.333	1	-7
488.525	1	-5
489.718	1	3
490.910	1	16
492.102	1	-1
493.294	1	-8
494.486	1	6
495.678	1	1
496.870	1	3
498.062	1	-1
499.254	1	1
500.446	1	-7
501.638	1	5
502.829	1	4
504.021	1	6
505.213	1	3
506.404	1	6
507.596	1	12
508.788	1	5
509.979	1	6
511.171	1	7
512.362	1	12
513.553	1	6
514.745	1	5
515.936	1	3
517.127	1	8
518.319	1	11
519.510	1	0
520.701	1	3
521.892	1	9
523.083	1	1
524.274	1	4
525.465	1	7
526.656	1	4
527.847	1	-3
529.038	1	9
530.229	1	13
531.419	1	2
532.610	1	5
533.801	1	5
534.991	1	10
536.182	1	10
537.373	1	4
538.563	1	5
539.754	1	14
540.944	1	7
542.134	1	11
543.325	1	6
544.515	1	12
545.705	1	12
546.896	1	10
548.086	1	2
549.276	1	2
550.466	1	5
551.656	1	9
552.846	1	5
554.036	1	10
555.226	1	5
556.416	1	11
557.606	1	-4
558.796	1	4
559.986	1	10
561.175	1	4
562.365	1	6
563.555	1	6
564.744	1	15
565.934	1	14
567.123	1	5
568.313	1	5
569.502	1	4
570.692	1	11
571.881	1	-4
573.070	1	-2
574.260	1	7
575.449	1	-5
576.638	1	7
577.827	1	1
579.016	1	-1
580.205	1	7
581.394	1	3
582.583	1	-1
583.772	1	9
584.961	1	4
586.150	1	3
587.339	1	13
588.528	1	-6
589.717	1	1
590.905	1	0
592.094	1	7
593.283	1	6
594.471	1	-5
595.660	1	7
596.848	1	8
598.037	1	-2
599.225	1	4
600.413	1	5
601.602	1	6
602.790	1	2
603.978	1	4
605.166	1	12
606.355	1	-13
607.543	1	7
608.731	1	1
609.919	1	-5
611.107	1	-1
612.295	1	5
613.483	1	6
614.671	1	-1
615.858	1	-9
617.046	1	6
618.234	1	-11
619.422	1	21
620.609	1	5
621.797	1	7
622.985	1	-7
624.172	1	-1
625.360	1	-1
626.547	1	-5
627.735	1	6
628.922	1	14
630.109	1	-8
631.297	1	0
632.484	1	5
633.671	1	3
634.858	1	8
636.045	1	0
637.232	1	7
638.419	1	-12
639.606	1	5
640.793	1	3
641.980	1	4
643.167	1	3
644.354	1	9
645.541	1	1
646.728	1	0
647.914	1	1
649.101	1	4
650.288	1	7
651.474	1	2
652.661	1	7
653.847	1	9
655.034	1	-3
656.220	1	10
657.406	1	-3
658.593	1	8
659.779	1	8
660.965	1	7
662.152	1	-8
663.338	1	-7
664.524	1	14
665.710	1	2
666.896	1	16
668.082	1	3
669.268	1	-4
670.454	1	5
671.640	1	-1
672.826	1	6
674.011	1	5
675.197	1	0
676.383	1	-8
677.569	1	8
678.754	1	4
679.940	1	-10
681.125	1	-1
682.311	1	6
683.496	1	6
684.682	1	7
685.867	1	-3
687.053	1	22
688.238	1	9
688.746	1	-7