File: Data/GaN_150K_450ms/GaN_sample D_spot15_UVVIS_150 K_200um_450 ms 2x2mm1_208.txt
340.368	1	4
341.565	1	11
342.763	1	2
343.960	1	7
345.157	1	19
346.354	1	9
347.552	1	15
348.749	1	9
349.946	1	-1
351.143	1	-7
352.340	1	9
353.537	1	-5
354.734	1	-2
355.931	1	2
357.127	1	5
358.324	1	7
359.521	1	8
360.718	1	9
361.914	1	15
363.111	1	3
364.308	1	10
365.504	1	5
366.701	1	18
367.897	1	28
369.093	1	25
370.290	1	13
371.486	1	29
372.682	1	14
373.879	1	17
375.075	1	6
376.271	1	13
377.467	1	20
378.663	1	13
379.859	1	-1
381.055	1	-3
382.251	1	-3
383.447	1	8
384.643	1	4
385.839	1	4
387.035	1	6
388.230	1	3
389.426	1	-2
390.622	1	-7
391.817	1	-4
393.013	1	3
394.208	1	4
395.404	1	7
396.599	1	5
397.795	1	2
398.990	1	18
400.186	1	11
401.381	1	2
402.576	1	8
403.771	1	-3
404.967	1	4
406.162	1	-7
407.357	1	7
408.552	1	-3
409.747	1	-2
410.942	1	12
412.137	1	0
413.332	1	12
414.526	1	-15
415.721	1	6
416.916	1	2
418.111	1	8
419.305	1	8
420.500	1	2
421.695	1	-3
422.889	1	8
424.084	1	6
425.278	1	4
426.472	1	21
427.667	1	3
428.861	1	11
430.055	1	16
431.250	1	8
432.444	1	9
433.638	1	13
434.832	1	-3
436.026	1	-4
437.220	1	7
438.414	1	6
439.608	1	1
440.802	1	7
441.996	1	-2
443.190	1	8
444.384	1	10
445.578	1	-7
446.771	1	10
447.965	1	7
449.159	1	1
450.352	1	-2
451.546	1	3
452.739	1	9
453.933	1	-11
455.126	1	8
456.320	1	11
457.513	1	2
458.706	1	13
459.899	1	1
461.093	1	8
462.286	1	-2
463.479	1	-1
464.672	1	8
465.865	1	1
467.058	1	2
468.251	1	-11
469.444	1	2
470.637	1	-3
471.830	1	3
473.023	1	-3
474.215	1	0
475.408	1	4
476.601	1	8
477.793	1	2
478.986	1	13
480.179	1	9
481.371	1	1
482.564	1	11
483.756	1	7
484.948	1	11
486.141	1	15
487.333	1	4
488.525	1	-1
489.718	1	-2
490.910	1	8
492.102	1	1
493.294	1	4
494.486	1	11
495.678	1	-8
496.870	1	5
498.062	1	5
499.254	1	-6
500.446	1	0
501.638	1	6
502.829	1	3
504.021	1	0
505.213	1	-4
506.404	1	8
507.596	1	3
508.788	1	6
509.979	1	7
511.171	1	8
512.362	1	10
513.553	1	9
514.745	1	2
515.936	1	-6
517.127	1	18
518.319	1	6
519.510	1	1
520.701	1	6
521.892	1	10
523.083	1	2
524.274	1	11
525.465	1	12
526.656	1	10
527.847	1	1
529.038	1	7
530.229	1	14
531.419	1	0
532.610	1	4
533.801	1	2
534.991	1	-1
536.182	1	5
537.373	1	-3
538.563	1	-2
539.754	1	2
540.944	1	8
542.134	1	3
543.325	1	10
544.515	1	2
545.705	1	10
546.896	1	-1
548.086	1	7
549.276	1	11
550.466	1	5
551.656	1	9
552.846	1	15
554.036	1	2
555.226	1	10
556.416	1	13
557.606	1	1
558.796	1	12
559.986	1	15
561.175	1	6
562.365	1	1
563.555	1	8
564.744	1	17
565.934	1	11
567.123	1	6
568.313	1	5
569.502	1	10
570.692	1	10
571.881	1	2
573.070	1	7
574.260	1	4
575.449	1	-8
576.638	1	10
577.827	1	-1
579.016	1	-1
580.205	1	7
581.394	1	2
582.583	1	8
583.772	1	10
584.961	1	0
586.150	1	6
587.339	1	4
588.528	1	-5
589.717	1	5
590.905	1	-8
592.094	1	18
593.283	1	6
594.471	1	0
595.660	1	10
596.848	1	6
598.037	1	-4
599.225	1	2
600.413	1	4
601.602	1	15
602.790	1	7
603.978	1	11
605.166	1	4
606.355	1	-4
607.543	1	2
608.731	1	-8
609.919	1	-9
611.107	1	17
612.295	1	14
613.483	1	3
614.671	1	8
615.858	1	-2
617.046	1	-1
618.234	1	-1
619.422	1	8
620.609	1	-7
621.797	1	3
622.985	1	4
624.172	1	1
625.360	1	4
626.547	1	0
627.735	1	3
628.922	1	11
630.109	1	-3
631.297	1	5
632.484	1	10
633.671	1	6
634.858	1	7
636.045	1	-1
637.232	1	-2
638.419	1	-1
639.606	1	3
640.793	1	2
641.980	1	2
643.167	1	4
644.354	1	9
645.541	1	-5
646.728	1	8
647.914	1	8
649.101	1	6
650.288	1	10
651.474	1	6
652.661	1	11
653.847	1	7
655.034	1	-2
656.220	1	5
657.406	1	4
658.593	1	11
659.779	1	10
660.965	1	4
662.152	1	3
663.338	1	-2
664.524	1	15
665.710	1	-3
666.896	1	9
668.082	1	0
669.268	1	-2
670.454	1	9
671.640	1	4
672.826	1	-4
674.011	1	8
675.197	1	3
676.383	1	-1
677.569	1	10
678.754	1	5
679.940	1	-1
681.125	1	-1
682.311	1	7
683.496	1	8
684.682	1	5
685.867	1	-2
687.053	1	22
688.238	1	11
688.746	1	-4