File: Data/GaN_150K_450ms/GaN_sample D_spot15_UVVIS_150 K_200um_450 ms 2x2mm1_84.txt
340.368	1	5
341.565	1	7
342.763	1	3
343.960	1	8
345.157	1	17
346.354	1	11
347.552	1	13
348.749	1	17
349.946	1	7
351.143	1	17
352.340	1	21
353.537	1	8
354.734	1	12
355.931	1	20
357.127	1	20
358.324	1	28
359.521	1	24
360.718	1	36
361.914	1	45
363.111	1	53
364.308	1	80
365.504	1	91
366.701	1	130
367.897	1	142
369.093	1	140
370.290	1	119
371.486	1	108
372.682	1	92
373.879	1	68
375.075	1	60
376.271	1	61
377.467	1	55
378.663	1	40
379.859	1	35
381.055	1	36
382.251	1	22
383.447	1	29
384.643	1	10
385.839	1	33
387.035	1	23
388.230	1	17
389.426	1	16
390.622	1	15
391.817	1	6
393.013	1	32
394.208	1	16
395.404	1	19
396.599	1	15
397.795	1	10
398.990	1	17
400.186	1	21
401.381	1	18
402.576	1	14
403.771	1	14
404.967	1	17
406.162	1	5
407.357	1	22
408.552	1	12
409.747	1	24
410.942	1	25
412.137	1	15
413.332	1	12
414.526	1	8
415.721	1	13
416.916	1	5
418.111	1	7
419.305	1	19
420.500	1	14
421.695	1	23
422.889	1	10
424.084	1	14
425.278	1	12
426.472	1	23
427.667	1	9
428.861	1	26
430.055	1	15
431.250	1	20
432.444	1	15
433.638	1	17
434.832	1	18
436.026	1	17
437.220	1	16
438.414	1	24
439.608	1	1
440.802	1	12
441.996	1	11
443.190	1	11
444.384	1	15
445.578	1	4
446.771	1	13
447.965	1	11
449.159	1	14
450.352	1	14
451.546	1	18
452.739	1	12
453.933	1	5
455.126	1	10
456.320	1	13
457.513	1	9
458.706	1	22
459.899	1	14
461.093	1	4
462.286	1	2
463.479	1	5
464.672	1	10
465.865	1	14
467.058	1	14
468.251	1	2
469.444	1	17
470.637	1	8
471.830	1	5
473.023	1	12
474.215	1	4
475.408	1	22
476.601	1	7
477.793	1	7
478.986	1	8
480.179	1	14
481.371	1	7
482.564	1	15
483.756	1	9
484.948	1	17
486.141	1	16
487.333	1	5
488.525	1	5
489.718	1	7
490.910	1	15
492.102	1	21
493.294	1	9
494.486	1	5
495.678	1	12
496.870	1	23
498.062	1	15
499.254	1	15
500.446	1	16
501.638	1	18
502.829	1	13
504.021	1	25
505.213	1	28
506.404	1	21
507.596	1	37
508.788	1	24
509.979	1	25
511.171	1	35
512.362	1	44
513.553	1	42
514.745	1	27
515.936	1	32
517.127	1	45
518.319	1	36
519.510	1	32
520.701	1	35
521.892	1	40
523.083	1	47
524.274	1	43
525.465	1	44
526.656	1	44
527.847	1	35
529.038	1	38
530.229	1	46
531.419	1	45
532.610	1	48
533.801	1	34
534.991	1	42
536.182	1	41
537.373	1	33
538.563	1	22
539.754	1	30
540.944	1	40
542.134	1	35
543.325	1	42
544.515	1	34
545.705	1	41
546.896	1	44
548.086	1	36
549.276	1	42
550.466	1	34
551.656	1	34
552.846	1	35
554.036	1	39
555.226	1	35
556.416	1	35
557.606	1	21
558.796	1	37
559.986	1	29
561.175	1	23
562.365	1	28
563.555	1	24
564.744	1	24
565.934	1	38
567.123	1	17
568.313	1	20
569.502	1	32
570.692	1	22
571.881	1	14
573.070	1	21
574.260	1	16
575.449	1	14
576.638	1	23
577.827	1	14
579.016	1	12
580.205	1	21
581.394	1	17
582.583	1	14
583.772	1	16
584.961	1	-2
586.150	1	28
587.339	1	10
588.528	1	1
589.717	1	15
590.905	1	-1
592.094	1	14
593.283	1	17
594.471	1	-5
595.660	1	14
596.848	1	20
598.037	1	19
599.225	1	8
600.413	1	6
601.602	1	18
602.790	1	16
603.978	1	13
605.166	1	17
606.355	1	-2
607.543	1	18
608.731	1	1
609.919	1	8
611.107	1	11
612.295	1	11
613.483	1	11
614.671	1	14
615.858	1	8
617.046	1	6
618.234	1	4
619.422	1	26
620.609	1	4
621.797	1	1
622.985	1	9
624.172	1	13
625.360	1	10
626.547	1	3
627.735	1	11
628.922	1	15
630.109	1	5
631.297	1	10
632.484	1	13
633.671	1	7
634.858	1	7
636.045	1	1
637.232	1	15
638.419	1	4
639.606	1	10
640.793	1	5
641.980	1	8
643.167	1	15
644.354	1	16
645.541	1	14
646.728	1	5
647.914	1	8
649.101	1	7
650.288	1	8
651.474	1	7
652.661	1	12
653.847	1	9
655.034	1	1
656.220	1	11
657.406	1	6
658.593	1	6
659.779	1	18
660.965	1	4
662.152	1	6
663.338	1	7
664.524	1	18
665.710	1	11
666.896	1	11
668.082	1	12
669.268	1	8
670.454	1	16
671.640	1	11
672.826	1	9
674.011	1	10
675.197	1	14
676.383	1	6
677.569	1	13
678.754	1	6
679.940	1	4
681.125	1	7
682.311	1	14
683.496	1	7
684.682	1	14
685.867	1	4
687.053	1	20
688.238	1	19
688.746	1	12