File: Data/GaN_150K_450ms/GaN_sample D_spot15_UVVIS_150 K_200um_450 ms 2x2mm1_330.txt
340.368	1	0
341.565	1	3
342.763	1	-7
343.960	1	6
345.157	1	19
346.354	1	9
347.552	1	14
348.749	1	-1
349.946	1	3
351.143	1	11
352.340	1	4
353.537	1	-3
354.734	1	0
355.931	1	10
357.127	1	7
358.324	1	2
359.521	1	7
360.718	1	-6
361.914	1	14
363.111	1	2
364.308	1	13
365.504	1	7
366.701	1	-2
367.897	1	10
369.093	1	12
370.290	1	17
371.486	1	15
372.682	1	13
373.879	1	8
375.075	1	-3
376.271	1	1
377.467	1	19
378.663	1	5
379.859	1	0
381.055	1	-2
382.251	1	0
383.447	1	12
384.643	1	-6
385.839	1	4
387.035	1	1
388.230	1	1
389.426	1	7
390.622	1	-1
391.817	1	-11
393.013	1	-2
394.208	1	7
395.404	1	4
396.599	1	-8
397.795	1	-8
398.990	1	9
400.186	1	-5
401.381	1	3
402.576	1	9
403.771	1	-4
404.967	1	11
406.162	1	-2
407.357	1	0
408.552	1	0
409.747	1	-3
410.942	1	3
412.137	1	4
413.332	1	1
414.526	1	-9
415.721	1	15
416.916	1	5
418.111	1	6
419.305	1	4
420.500	1	1
421.695	1	0
422.889	1	2
424.084	1	8
425.278	1	-1
426.472	1	3
427.667	1	-6
428.861	1	4
430.055	1	7
431.250	1	-1
432.444	1	5
433.638	1	14
434.832	1	-1
436.026	1	-10
437.220	1	5
438.414	1	12
439.608	1	-5
440.802	1	4
441.996	1	-2
443.190	1	13
444.384	1	4
445.578	1	2
446.771	1	4
447.965	1	2
449.159	1	0
450.352	1	-7
451.546	1	-1
452.739	1	1
453.933	1	-2
455.126	1	-1
456.320	1	9
457.513	1	2
458.706	1	7
459.899	1	-8
461.093	1	4
462.286	1	-6
463.479	1	-2
464.672	1	2
465.865	1	-1
467.058	1	-1
468.251	1	-3
469.444	1	4
470.637	1	6
471.830	1	4
473.023	1	6
474.215	1	3
475.408	1	4
476.601	1	2
477.793	1	4
478.986	1	9
480.179	1	5
481.371	1	-14
482.564	1	10
483.756	1	6
484.948	1	5
486.141	1	3
487.333	1	0
488.525	1	-7
489.718	1	-7
490.910	1	4
492.102	1	-1
493.294	1	-7
494.486	1	3
495.678	1	1
496.870	1	4
498.062	1	2
499.254	1	6
500.446	1	-7
501.638	1	0
502.829	1	0
504.021	1	0
505.213	1	0
506.404	1	1
507.596	1	7
508.788	1	-1
509.979	1	6
511.171	1	3
512.362	1	9
513.553	1	2
514.745	1	0
515.936	1	-1
517.127	1	0
518.319	1	2
519.510	1	1
520.701	1	6
521.892	1	6
523.083	1	-5
524.274	1	4
525.465	1	11
526.656	1	12
527.847	1	-7
529.038	1	-3
530.229	1	11
531.419	1	2
532.610	1	8
533.801	1	4
534.991	1	-1
536.182	1	-6
537.373	1	1
538.563	1	-2
539.754	1	4
540.944	1	3
542.134	1	7
543.325	1	9
544.515	1	-5
545.705	1	-1
546.896	1	-2
548.086	1	-2
549.276	1	7
550.466	1	-4
551.656	1	3
552.846	1	4
554.036	1	11
555.226	1	9
556.416	1	10
557.606	1	-15
558.796	1	5
559.986	1	-4
561.175	1	1
562.365	1	-4
563.555	1	2
564.744	1	8
565.934	1	10
567.123	1	-6
568.313	1	-5
569.502	1	9
570.692	1	-3
571.881	1	-5
573.070	1	6
574.260	1	7
575.449	1	0
576.638	1	7
577.827	1	0
579.016	1	0
580.205	1	6
581.394	1	0
582.583	1	2
583.772	1	4
584.961	1	-12
586.150	1	9
587.339	1	-6
588.528	1	-8
589.717	1	2
590.905	1	-5
592.094	1	8
593.283	1	4
594.471	1	0
595.660	1	12
596.848	1	-9
598.037	1	5
599.225	1	10
600.413	1	0
601.602	1	8
602.790	1	4
603.978	1	4
605.166	1	4
606.355	1	-11
607.543	1	7
608.731	1	-8
609.919	1	-6
611.107	1	10
612.295	1	9
613.483	1	12
614.671	1	1
615.858	1	-6
617.046	1	2
618.234	1	2
619.422	1	17
620.609	1	-2
621.797	1	5
622.985	1	-5
624.172	1	7
625.360	1	-1
626.547	1	1
627.735	1	3
628.922	1	6
630.109	1	-7
631.297	1	3
632.484	1	3
633.671	1	3
634.858	1	-1
636.045	1	-4
637.232	1	2
638.419	1	-3
639.606	1	8
640.793	1	-1
641.980	1	6
643.167	1	2
644.354	1	3
645.541	1	1
646.728	1	3
647.914	1	-3
649.101	1	-11
650.288	1	-2
651.474	1	0
652.661	1	8
653.847	1	3
655.034	1	-5
656.220	1	0
657.406	1	-2
658.593	1	-4
659.779	1	6
660.965	1	2
662.152	1	9
663.338	1	-8
664.524	1	4
665.710	1	0
666.896	1	12
668.082	1	-1
669.268	1	-4
670.454	1	6
671.640	1	4
672.826	1	7
674.011	1	7
675.197	1	11
676.383	1	0
677.569	1	8
678.754	1	-2
679.940	1	-4
681.125	1	-6
682.311	1	-2
683.496	1	3
684.682	1	14
685.867	1	-2
687.053	1	8
688.238	1	15
688.746	1	-2