File: Data/GaN_150K_450ms/GaN_sample D_spot15_UVVIS_150 K_200um_450 ms 2x2mm1_85.txt
340.368	1	9
341.565	1	11
342.763	1	3
343.960	1	6
345.157	1	16
346.354	1	5
347.552	1	22
348.749	1	17
349.946	1	9
351.143	1	13
352.340	1	8
353.537	1	7
354.734	1	9
355.931	1	14
357.127	1	23
358.324	1	24
359.521	1	25
360.718	1	27
361.914	1	47
363.111	1	48
364.308	1	80
365.504	1	92
366.701	1	126
367.897	1	131
369.093	1	148
370.290	1	122
371.486	1	113
372.682	1	91
373.879	1	71
375.075	1	48
376.271	1	55
377.467	1	55
378.663	1	38
379.859	1	31
381.055	1	30
382.251	1	17
383.447	1	34
384.643	1	19
385.839	1	26
387.035	1	25
388.230	1	26
389.426	1	7
390.622	1	7
391.817	1	8
393.013	1	26
394.208	1	13
395.404	1	10
396.599	1	18
397.795	1	13
398.990	1	22
400.186	1	10
401.381	1	12
402.576	1	23
403.771	1	1
404.967	1	13
406.162	1	8
407.357	1	27
408.552	1	3
409.747	1	14
410.942	1	17
412.137	1	5
413.332	1	11
414.526	1	3
415.721	1	15
416.916	1	21
418.111	1	10
419.305	1	15
420.500	1	14
421.695	1	19
422.889	1	13
424.084	1	11
425.278	1	12
426.472	1	25
427.667	1	17
428.861	1	14
430.055	1	28
431.250	1	20
432.444	1	20
433.638	1	9
434.832	1	10
436.026	1	17
437.220	1	21
438.414	1	13
439.608	1	9
440.802	1	13
441.996	1	9
443.190	1	16
444.384	1	12
445.578	1	9
446.771	1	11
447.965	1	9
449.159	1	11
450.352	1	8
451.546	1	7
452.739	1	11
453.933	1	-5
455.126	1	-2
456.320	1	18
457.513	1	17
458.706	1	13
459.899	1	2
461.093	1	21
462.286	1	12
463.479	1	5
464.672	1	13
465.865	1	9
467.058	1	9
468.251	1	3
469.444	1	11
470.637	1	8
471.830	1	5
473.023	1	17
474.215	1	9
475.408	1	15
476.601	1	7
477.793	1	11
478.986	1	15
480.179	1	4
481.371	1	-4
482.564	1	21
483.756	1	14
484.948	1	12
486.141	1	10
487.333	1	8
488.525	1	7
489.718	1	2
490.910	1	20
492.102	1	11
493.294	1	2
494.486	1	17
495.678	1	8
496.870	1	15
498.062	1	15
499.254	1	10
500.446	1	13
501.638	1	19
502.829	1	18
504.021	1	18
505.213	1	15
506.404	1	26
507.596	1	28
508.788	1	20
509.979	1	23
511.171	1	33
512.362	1	37
513.553	1	43
514.745	1	26
515.936	1	29
517.127	1	40
518.319	1	22
519.510	1	28
520.701	1	44
521.892	1	28
523.083	1	31
524.274	1	39
525.465	1	36
526.656	1	44
527.847	1	33
529.038	1	38
530.229	1	43
531.419	1	45
532.610	1	42
533.801	1	41
534.991	1	41
536.182	1	37
537.373	1	35
538.563	1	30
539.754	1	29
540.944	1	31
542.134	1	39
543.325	1	43
544.515	1	37
545.705	1	29
546.896	1	27
548.086	1	33
549.276	1	36
550.466	1	25
551.656	1	31
552.846	1	30
554.036	1	40
555.226	1	38
556.416	1	28
557.606	1	13
558.796	1	40
559.986	1	25
561.175	1	22
562.365	1	14
563.555	1	26
564.744	1	32
565.934	1	24
567.123	1	20
568.313	1	17
569.502	1	22
570.692	1	20
571.881	1	18
573.070	1	23
574.260	1	24
575.449	1	21
576.638	1	19
577.827	1	17
579.016	1	15
580.205	1	14
581.394	1	18
582.583	1	14
583.772	1	26
584.961	1	4
586.150	1	19
587.339	1	10
588.528	1	7
589.717	1	17
590.905	1	8
592.094	1	18
593.283	1	12
594.471	1	1
595.660	1	11
596.848	1	17
598.037	1	6
599.225	1	11
600.413	1	14
601.602	1	14
602.790	1	5
603.978	1	14
605.166	1	13
606.355	1	2
607.543	1	6
608.731	1	-1
609.919	1	6
611.107	1	19
612.295	1	16
613.483	1	4
614.671	1	10
615.858	1	3
617.046	1	7
618.234	1	-2
619.422	1	17
620.609	1	10
621.797	1	13
622.985	1	2
624.172	1	18
625.360	1	7
626.547	1	-1
627.735	1	9
628.922	1	13
630.109	1	-3
631.297	1	18
632.484	1	17
633.671	1	22
634.858	1	12
636.045	1	-3
637.232	1	1
638.419	1	6
639.606	1	13
640.793	1	14
641.980	1	4
643.167	1	5
644.354	1	22
645.541	1	2
646.728	1	17
647.914	1	3
649.101	1	12
650.288	1	7
651.474	1	8
652.661	1	-1
653.847	1	-1
655.034	1	3
656.220	1	7
657.406	1	2
658.593	1	17
659.779	1	11
660.965	1	2
662.152	1	0
663.338	1	-4
664.524	1	5
665.710	1	7
666.896	1	8
668.082	1	5
669.268	1	-2
670.454	1	8
671.640	1	0
672.826	1	-3
674.011	1	8
675.197	1	11
676.383	1	4
677.569	1	25
678.754	1	12
679.940	1	1
681.125	1	9
682.311	1	12
683.496	1	-3
684.682	1	15
685.867	1	2
687.053	1	26
688.238	1	16
688.746	1	9