File: Data/GaN_150K_450ms/GaN_sample D_spot15_UVVIS_150 K_200um_450 ms 2x2mm1_28.txt
340.368	1	-1
341.565	1	5
342.763	1	7
343.960	1	3
345.157	1	12
346.354	1	5
347.552	1	15
348.749	1	1
349.946	1	3
351.143	1	6
352.340	1	4
353.537	1	-8
354.734	1	3
355.931	1	4
357.127	1	4
358.324	1	0
359.521	1	9
360.718	1	1
361.914	1	6
363.111	1	-5
364.308	1	-1
365.504	1	-1
366.701	1	0
367.897	1	-6
369.093	1	-6
370.290	1	4
371.486	1	6
372.682	1	11
373.879	1	-1
375.075	1	-9
376.271	1	-6
377.467	1	13
378.663	1	5
379.859	1	-7
381.055	1	-7
382.251	1	-14
383.447	1	-4
384.643	1	2
385.839	1	5
387.035	1	2
388.230	1	0
389.426	1	3
390.622	1	-6
391.817	1	-1
393.013	1	8
394.208	1	2
395.404	1	2
396.599	1	8
397.795	1	-3
398.990	1	11
400.186	1	-11
401.381	1	5
402.576	1	7
403.771	1	-7
404.967	1	10
406.162	1	-9
407.357	1	7
408.552	1	-3
409.747	1	-2
410.942	1	14
412.137	1	-1
413.332	1	7
414.526	1	-10
415.721	1	3
416.916	1	-9
418.111	1	5
419.305	1	6
420.500	1	4
421.695	1	4
422.889	1	3
424.084	1	5
425.278	1	-2
426.472	1	1
427.667	1	5
428.861	1	1
430.055	1	1
431.250	1	1
432.444	1	1
433.638	1	3
434.832	1	-2
436.026	1	-9
437.220	1	5
438.414	1	5
439.608	1	-3
440.802	1	5
441.996	1	-3
443.190	1	9
444.384	1	4
445.578	1	-3
446.771	1	3
447.965	1	-4
449.159	1	-2
450.352	1	5
451.546	1	-1
452.739	1	1
453.933	1	-1
455.126	1	4
456.320	1	15
457.513	1	2
458.706	1	11
459.899	1	3
461.093	1	9
462.286	1	-1
463.479	1	2
464.672	1	3
465.865	1	1
467.058	1	2
468.251	1	5
469.444	1	2
470.637	1	1
471.830	1	1
473.023	1	7
474.215	1	7
475.408	1	4
476.601	1	1
477.793	1	4
478.986	1	6
480.179	1	0
481.371	1	-2
482.564	1	18
483.756	1	9
484.948	1	9
486.141	1	0
487.333	1	-8
488.525	1	-6
489.718	1	-7
490.910	1	5
492.102	1	4
493.294	1	-5
494.486	1	1
495.678	1	-7
496.870	1	-3
498.062	1	-1
499.254	1	-6
500.446	1	-4
501.638	1	-2
502.829	1	-7
504.021	1	7
505.213	1	-8
506.404	1	-2
507.596	1	9
508.788	1	-1
509.979	1	1
511.171	1	8
512.362	1	8
513.553	1	7
514.745	1	8
515.936	1	-8
517.127	1	7
518.319	1	-2
519.510	1	1
520.701	1	7
521.892	1	1
523.083	1	-7
524.274	1	6
525.465	1	8
526.656	1	3
527.847	1	-15
529.038	1	0
530.229	1	6
531.419	1	7
532.610	1	8
533.801	1	0
534.991	1	-5
536.182	1	-2
537.373	1	9
538.563	1	2
539.754	1	3
540.944	1	-2
542.134	1	4
543.325	1	7
544.515	1	8
545.705	1	7
546.896	1	0
548.086	1	8
549.276	1	7
550.466	1	-6
551.656	1	1
552.846	1	4
554.036	1	6
555.226	1	5
556.416	1	7
557.606	1	-9
558.796	1	1
559.986	1	-4
561.175	1	-4
562.365	1	0
563.555	1	3
564.744	1	10
565.934	1	12
567.123	1	1
568.313	1	-8
569.502	1	-3
570.692	1	7
571.881	1	-6
573.070	1	-2
574.260	1	6
575.449	1	-3
576.638	1	0
577.827	1	-3
579.016	1	12
580.205	1	-3
581.394	1	1
582.583	1	5
583.772	1	-7
584.961	1	-13
586.150	1	-3
587.339	1	-2
588.528	1	-7
589.717	1	-2
590.905	1	-5
592.094	1	13
593.283	1	12
594.471	1	2
595.660	1	10
596.848	1	7
598.037	1	-1
599.225	1	7
600.413	1	1
601.602	1	-2
602.790	1	6
603.978	1	0
605.166	1	0
606.355	1	-9
607.543	1	4
608.731	1	-6
609.919	1	-6
611.107	1	14
612.295	1	1
613.483	1	-2
614.671	1	-3
615.858	1	-11
617.046	1	-6
618.234	1	-3
619.422	1	6
620.609	1	3
621.797	1	-4
622.985	1	-2
624.172	1	-2
625.360	1	2
626.547	1	-6
627.735	1	6
628.922	1	6
630.109	1	-3
631.297	1	-2
632.484	1	10
633.671	1	3
634.858	1	2
636.045	1	-5
637.232	1	4
638.419	1	-1
639.606	1	12
640.793	1	1
641.980	1	5
643.167	1	6
644.354	1	2
645.541	1	-5
646.728	1	8
647.914	1	9
649.101	1	-9
650.288	1	5
651.474	1	8
652.661	1	6
653.847	1	1
655.034	1	-5
656.220	1	2
657.406	1	-6
658.593	1	2
659.779	1	2
660.965	1	7
662.152	1	5
663.338	1	-9
664.524	1	4
665.710	1	2
666.896	1	10
668.082	1	0
669.268	1	-4
670.454	1	2
671.640	1	5
672.826	1	-1
674.011	1	-2
675.197	1	-2
676.383	1	-4
677.569	1	10
678.754	1	-4
679.940	1	-12
681.125	1	-5
682.311	1	9
683.496	1	-1
684.682	1	4
685.867	1	-3
687.053	1	14
688.238	1	6
688.746	1	-7