File: Data/GaN_150K_450ms/GaN_sample D_spot15_UVVIS_150 K_200um_450 ms 2x2mm1_165.txt
340.368	1	4
341.565	1	5
342.763	1	7
343.960	1	1
345.157	1	12
346.354	1	5
347.552	1	16
348.749	1	8
349.946	1	-2
351.143	1	2
352.340	1	3
353.537	1	-2
354.734	1	2
355.931	1	10
357.127	1	13
358.324	1	14
359.521	1	11
360.718	1	12
361.914	1	10
363.111	1	9
364.308	1	29
365.504	1	6
366.701	1	29
367.897	1	28
369.093	1	36
370.290	1	36
371.486	1	29
372.682	1	13
373.879	1	27
375.075	1	14
376.271	1	14
377.467	1	16
378.663	1	13
379.859	1	11
381.055	1	8
382.251	1	3
383.447	1	0
384.643	1	5
385.839	1	9
387.035	1	9
388.230	1	7
389.426	1	5
390.622	1	2
391.817	1	5
393.013	1	18
394.208	1	0
395.404	1	2
396.599	1	14
397.795	1	3
398.990	1	11
400.186	1	3
401.381	1	6
402.576	1	9
403.771	1	0
404.967	1	1
406.162	1	1
407.357	1	12
408.552	1	1
409.747	1	7
410.942	1	17
412.137	1	7
413.332	1	13
414.526	1	3
415.721	1	14
416.916	1	4
418.111	1	15
419.305	1	8
420.500	1	14
421.695	1	16
422.889	1	6
424.084	1	4
425.278	1	13
426.472	1	22
427.667	1	1
428.861	1	14
430.055	1	6
431.250	1	4
432.444	1	7
433.638	1	14
434.832	1	7
436.026	1	8
437.220	1	15
438.414	1	12
439.608	1	7
440.802	1	11
441.996	1	6
443.190	1	19
444.384	1	13
445.578	1	-6
446.771	1	16
447.965	1	4
449.159	1	-5
450.352	1	-1
451.546	1	6
452.739	1	9
453.933	1	-4
455.126	1	4
456.320	1	12
457.513	1	7
458.706	1	15
459.899	1	5
461.093	1	16
462.286	1	0
463.479	1	-4
464.672	1	1
465.865	1	8
467.058	1	10
468.251	1	-1
469.444	1	9
470.637	1	0
471.830	1	5
473.023	1	6
474.215	1	4
475.408	1	6
476.601	1	7
477.793	1	1
478.986	1	5
480.179	1	2
481.371	1	-2
482.564	1	9
483.756	1	7
484.948	1	5
486.141	1	6
487.333	1	-4
488.525	1	8
489.718	1	-15
490.910	1	1
492.102	1	9
493.294	1	-11
494.486	1	4
495.678	1	0
496.870	1	4
498.062	1	2
499.254	1	-3
500.446	1	-6
501.638	1	11
502.829	1	-5
504.021	1	11
505.213	1	1
506.404	1	8
507.596	1	2
508.788	1	17
509.979	1	6
511.171	1	8
512.362	1	10
513.553	1	12
514.745	1	6
515.936	1	7
517.127	1	7
518.319	1	8
519.510	1	1
520.701	1	7
521.892	1	14
523.083	1	8
524.274	1	7
525.465	1	9
526.656	1	14
527.847	1	-5
529.038	1	16
530.229	1	16
531.419	1	15
532.610	1	23
533.801	1	9
534.991	1	1
536.182	1	7
537.373	1	12
538.563	1	5
539.754	1	6
540.944	1	5
542.134	1	1
543.325	1	4
544.515	1	10
545.705	1	6
546.896	1	6
548.086	1	11
549.276	1	7
550.466	1	8
551.656	1	11
552.846	1	8
554.036	1	16
555.226	1	0
556.416	1	12
557.606	1	-5
558.796	1	15
559.986	1	8
561.175	1	6
562.365	1	0
563.555	1	10
564.744	1	17
565.934	1	27
567.123	1	-2
568.313	1	7
569.502	1	13
570.692	1	6
571.881	1	4
573.070	1	-1
574.260	1	14
575.449	1	-1
576.638	1	17
577.827	1	-1
579.016	1	10
580.205	1	10
581.394	1	8
582.583	1	7
583.772	1	12
584.961	1	3
586.150	1	3
587.339	1	3
588.528	1	-10
589.717	1	5
590.905	1	9
592.094	1	18
593.283	1	16
594.471	1	-7
595.660	1	9
596.848	1	9
598.037	1	2
599.225	1	4
600.413	1	3
601.602	1	-4
602.790	1	5
603.978	1	2
605.166	1	2
606.355	1	-4
607.543	1	1
608.731	1	-6
609.919	1	-5
611.107	1	10
612.295	1	8
613.483	1	4
614.671	1	7
615.858	1	1
617.046	1	2
618.234	1	-3
619.422	1	14
620.609	1	5
621.797	1	4
622.985	1	1
624.172	1	3
625.360	1	1
626.547	1	3
627.735	1	1
628.922	1	12
630.109	1	-7
631.297	1	2
632.484	1	8
633.671	1	4
634.858	1	-1
636.045	1	-7
637.232	1	9
638.419	1	0
639.606	1	9
640.793	1	7
641.980	1	12
643.167	1	8
644.354	1	7
645.541	1	-3
646.728	1	12
647.914	1	6
649.101	1	4
650.288	1	4
651.474	1	5
652.661	1	1
653.847	1	7
655.034	1	-1
656.220	1	9
657.406	1	3
658.593	1	7
659.779	1	6
660.965	1	-3
662.152	1	-1
663.338	1	-1
664.524	1	16
665.710	1	13
666.896	1	8
668.082	1	5
669.268	1	-6
670.454	1	12
671.640	1	15
672.826	1	12
674.011	1	4
675.197	1	7
676.383	1	12
677.569	1	17
678.754	1	2
679.940	1	3
681.125	1	1
682.311	1	9
683.496	1	-2
684.682	1	5
685.867	1	4
687.053	1	19
688.238	1	9
688.746	1	-5