File: Data/GaN_150K_450ms/GaN_sample D_spot15_UVVIS_150 K_200um_450 ms 2x2mm1_74.txt
340.368	1	-2
341.565	1	4
342.763	1	7
343.960	1	16
345.157	1	16
346.354	1	7
347.552	1	18
348.749	1	15
349.946	1	4
351.143	1	14
352.340	1	13
353.537	1	2
354.734	1	16
355.931	1	20
357.127	1	28
358.324	1	23
359.521	1	36
360.718	1	40
361.914	1	45
363.111	1	69
364.308	1	114
365.504	1	140
366.701	1	169
367.897	1	218
369.093	1	207
370.290	1	172
371.486	1	145
372.682	1	130
373.879	1	92
375.075	1	81
376.271	1	71
377.467	1	62
378.663	1	58
379.859	1	42
381.055	1	34
382.251	1	33
383.447	1	42
384.643	1	37
385.839	1	33
387.035	1	33
388.230	1	32
389.426	1	20
390.622	1	27
391.817	1	9
393.013	1	28
394.208	1	19
395.404	1	35
396.599	1	14
397.795	1	15
398.990	1	24
400.186	1	20
401.381	1	11
402.576	1	22
403.771	1	4
404.967	1	15
406.162	1	5
407.357	1	12
408.552	1	12
409.747	1	6
410.942	1	24
412.137	1	13
413.332	1	21
414.526	1	11
415.721	1	19
416.916	1	10
418.111	1	14
419.305	1	24
420.500	1	27
421.695	1	19
422.889	1	21
424.084	1	19
425.278	1	17
426.472	1	26
427.667	1	12
428.861	1	10
430.055	1	15
431.250	1	17
432.444	1	21
433.638	1	22
434.832	1	10
436.026	1	10
437.220	1	15
438.414	1	15
439.608	1	8
440.802	1	20
441.996	1	15
443.190	1	20
444.384	1	13
445.578	1	8
446.771	1	6
447.965	1	13
449.159	1	5
450.352	1	14
451.546	1	10
452.739	1	14
453.933	1	5
455.126	1	3
456.320	1	17
457.513	1	3
458.706	1	18
459.899	1	7
461.093	1	11
462.286	1	5
463.479	1	8
464.672	1	11
465.865	1	2
467.058	1	16
468.251	1	9
469.444	1	18
470.637	1	6
471.830	1	7
473.023	1	14
474.215	1	14
475.408	1	12
476.601	1	2
477.793	1	15
478.986	1	20
480.179	1	13
481.371	1	9
482.564	1	13
483.756	1	13
484.948	1	20
486.141	1	19
487.333	1	15
488.525	1	15
489.718	1	4
490.910	1	24
492.102	1	26
493.294	1	2
494.486	1	22
495.678	1	24
496.870	1	17
498.062	1	28
499.254	1	14
500.446	1	24
501.638	1	25
502.829	1	29
504.021	1	34
505.213	1	28
506.404	1	38
507.596	1	51
508.788	1	35
509.979	1	43
511.171	1	49
512.362	1	49
513.553	1	41
514.745	1	41
515.936	1	41
517.127	1	53
518.319	1	57
519.510	1	35
520.701	1	60
521.892	1	55
523.083	1	55
524.274	1	59
525.465	1	55
526.656	1	52
527.847	1	50
529.038	1	50
530.229	1	54
531.419	1	63
532.610	1	51
533.801	1	57
534.991	1	50
536.182	1	40
537.373	1	57
538.563	1	41
539.754	1	50
540.944	1	42
542.134	1	52
543.325	1	58
544.515	1	50
545.705	1	45
546.896	1	48
548.086	1	52
549.276	1	46
550.466	1	46
551.656	1	40
552.846	1	45
554.036	1	36
555.226	1	34
556.416	1	44
557.606	1	25
558.796	1	42
559.986	1	41
561.175	1	34
562.365	1	35
563.555	1	43
564.744	1	37
565.934	1	42
567.123	1	33
568.313	1	37
569.502	1	24
570.692	1	30
571.881	1	23
573.070	1	36
574.260	1	26
575.449	1	18
576.638	1	32
577.827	1	14
579.016	1	12
580.205	1	25
581.394	1	15
582.583	1	18
583.772	1	25
584.961	1	9
586.150	1	21
587.339	1	6
588.528	1	7
589.717	1	10
590.905	1	12
592.094	1	23
593.283	1	17
594.471	1	7
595.660	1	17
596.848	1	14
598.037	1	8
599.225	1	19
600.413	1	12
601.602	1	8
602.790	1	20
603.978	1	18
605.166	1	19
606.355	1	-5
607.543	1	10
608.731	1	6
609.919	1	6
611.107	1	20
612.295	1	7
613.483	1	14
614.671	1	9
615.858	1	0
617.046	1	14
618.234	1	1
619.422	1	22
620.609	1	3
621.797	1	14
622.985	1	6
624.172	1	13
625.360	1	11
626.547	1	6
627.735	1	10
628.922	1	9
630.109	1	-2
631.297	1	9
632.484	1	12
633.671	1	12
634.858	1	4
636.045	1	8
637.232	1	13
638.419	1	0
639.606	1	10
640.793	1	7
641.980	1	13
643.167	1	10
644.354	1	11
645.541	1	5
646.728	1	17
647.914	1	7
649.101	1	-3
650.288	1	9
651.474	1	19
652.661	1	13
653.847	1	16
655.034	1	10
656.220	1	10
657.406	1	6
658.593	1	16
659.779	1	10
660.965	1	-6
662.152	1	4
663.338	1	4
664.524	1	20
665.710	1	10
666.896	1	0
668.082	1	17
669.268	1	10
670.454	1	7
671.640	1	13
672.826	1	7
674.011	1	23
675.197	1	9
676.383	1	7
677.569	1	10
678.754	1	5
679.940	1	1
681.125	1	8
682.311	1	10
683.496	1	15
684.682	1	13
685.867	1	16
687.053	1	25
688.238	1	15
688.746	1	8