File: Data/GaN_150K_450ms/GaN_sample D_spot15_UVVIS_150 K_200um_450 ms 2x2mm1_121.txt
340.368	1	11
341.565	1	3
342.763	1	10
343.960	1	6
345.157	1	15
346.354	1	1
347.552	1	15
348.749	1	7
349.946	1	4
351.143	1	1
352.340	1	7
353.537	1	1
354.734	1	8
355.931	1	10
357.127	1	16
358.324	1	12
359.521	1	28
360.718	1	13
361.914	1	18
363.111	1	16
364.308	1	34
365.504	1	34
366.701	1	41
367.897	1	61
369.093	1	62
370.290	1	56
371.486	1	54
372.682	1	44
373.879	1	28
375.075	1	25
376.271	1	27
377.467	1	32
378.663	1	17
379.859	1	10
381.055	1	9
382.251	1	8
383.447	1	10
384.643	1	10
385.839	1	16
387.035	1	10
388.230	1	7
389.426	1	9
390.622	1	1
391.817	1	5
393.013	1	8
394.208	1	3
395.404	1	10
396.599	1	15
397.795	1	1
398.990	1	14
400.186	1	17
401.381	1	12
402.576	1	15
403.771	1	1
404.967	1	9
406.162	1	8
407.357	1	16
408.552	1	11
409.747	1	0
410.942	1	16
412.137	1	-1
413.332	1	9
414.526	1	7
415.721	1	14
416.916	1	12
418.111	1	15
419.305	1	17
420.500	1	9
421.695	1	19
422.889	1	14
424.084	1	10
425.278	1	6
426.472	1	14
427.667	1	8
428.861	1	20
430.055	1	19
431.250	1	13
432.444	1	9
433.638	1	18
434.832	1	15
436.026	1	10
437.220	1	12
438.414	1	15
439.608	1	8
440.802	1	9
441.996	1	9
443.190	1	11
444.384	1	15
445.578	1	6
446.771	1	11
447.965	1	15
449.159	1	5
450.352	1	8
451.546	1	4
452.739	1	17
453.933	1	5
455.126	1	6
456.320	1	12
457.513	1	2
458.706	1	18
459.899	1	2
461.093	1	10
462.286	1	4
463.479	1	2
464.672	1	6
465.865	1	4
467.058	1	6
468.251	1	0
469.444	1	5
470.637	1	-2
471.830	1	2
473.023	1	8
474.215	1	9
475.408	1	9
476.601	1	14
477.793	1	8
478.986	1	14
480.179	1	17
481.371	1	-7
482.564	1	8
483.756	1	15
484.948	1	11
486.141	1	11
487.333	1	0
488.525	1	-2
489.718	1	2
490.910	1	13
492.102	1	18
493.294	1	-1
494.486	1	7
495.678	1	5
496.870	1	9
498.062	1	5
499.254	1	10
500.446	1	2
501.638	1	12
502.829	1	7
504.021	1	15
505.213	1	11
506.404	1	13
507.596	1	18
508.788	1	12
509.979	1	7
511.171	1	18
512.362	1	9
513.553	1	11
514.745	1	11
515.936	1	13
517.127	1	20
518.319	1	18
519.510	1	10
520.701	1	17
521.892	1	17
523.083	1	11
524.274	1	14
525.465	1	17
526.656	1	23
527.847	1	3
529.038	1	14
530.229	1	13
531.419	1	24
532.610	1	18
533.801	1	17
534.991	1	17
536.182	1	9
537.373	1	12
538.563	1	12
539.754	1	9
540.944	1	25
542.134	1	17
543.325	1	13
544.515	1	13
545.705	1	23
546.896	1	17
548.086	1	12
549.276	1	19
550.466	1	7
551.656	1	10
552.846	1	14
554.036	1	21
555.226	1	8
556.416	1	14
557.606	1	10
558.796	1	17
559.986	1	11
561.175	1	7
562.365	1	9
563.555	1	12
564.744	1	17
565.934	1	21
567.123	1	6
568.313	1	18
569.502	1	16
570.692	1	12
571.881	1	6
573.070	1	9
574.260	1	5
575.449	1	9
576.638	1	16
577.827	1	3
579.016	1	4
580.205	1	15
581.394	1	8
582.583	1	4
583.772	1	12
584.961	1	8
586.150	1	13
587.339	1	8
588.528	1	-3
589.717	1	10
590.905	1	2
592.094	1	17
593.283	1	4
594.471	1	4
595.660	1	10
596.848	1	10
598.037	1	6
599.225	1	-2
600.413	1	10
601.602	1	10
602.790	1	8
603.978	1	6
605.166	1	4
606.355	1	-5
607.543	1	-1
608.731	1	-7
609.919	1	-8
611.107	1	18
612.295	1	8
613.483	1	3
614.671	1	0
615.858	1	3
617.046	1	4
618.234	1	-3
619.422	1	17
620.609	1	8
621.797	1	-5
622.985	1	2
624.172	1	9
625.360	1	7
626.547	1	2
627.735	1	6
628.922	1	10
630.109	1	-4
631.297	1	6
632.484	1	12
633.671	1	7
634.858	1	0
636.045	1	-2
637.232	1	3
638.419	1	-3
639.606	1	10
640.793	1	4
641.980	1	13
643.167	1	0
644.354	1	8
645.541	1	7
646.728	1	6
647.914	1	-5
649.101	1	5
650.288	1	10
651.474	1	15
652.661	1	11
653.847	1	12
655.034	1	-3
656.220	1	6
657.406	1	7
658.593	1	6
659.779	1	9
660.965	1	6
662.152	1	8
663.338	1	12
664.524	1	9
665.710	1	10
666.896	1	11
668.082	1	5
669.268	1	1
670.454	1	13
671.640	1	4
672.826	1	11
674.011	1	7
675.197	1	5
676.383	1	-2
677.569	1	17
678.754	1	10
679.940	1	1
681.125	1	8
682.311	1	7
683.496	1	-2
684.682	1	11
685.867	1	5
687.053	1	20
688.238	1	16
688.746	1	4