File: Data/GaN_150K_450ms/GaN_sample D_spot15_UVVIS_150 K_200um_450 ms 2x2mm1_332.txt
340.368	1	6
341.565	1	3
342.763	1	0
343.960	1	3
345.157	1	15
346.354	1	4
347.552	1	9
348.749	1	7
349.946	1	-1
351.143	1	0
352.340	1	11
353.537	1	-9
354.734	1	5
355.931	1	6
357.127	1	8
358.324	1	4
359.521	1	15
360.718	1	-3
361.914	1	10
363.111	1	-5
364.308	1	17
365.504	1	5
366.701	1	2
367.897	1	12
369.093	1	13
370.290	1	14
371.486	1	11
372.682	1	-1
373.879	1	1
375.075	1	-1
376.271	1	-2
377.467	1	9
378.663	1	7
379.859	1	2
381.055	1	1
382.251	1	1
383.447	1	-2
384.643	1	-5
385.839	1	-5
387.035	1	7
388.230	1	1
389.426	1	0
390.622	1	-5
391.817	1	-5
393.013	1	3
394.208	1	-2
395.404	1	4
396.599	1	5
397.795	1	3
398.990	1	14
400.186	1	3
401.381	1	-3
402.576	1	-2
403.771	1	-12
404.967	1	-1
406.162	1	-3
407.357	1	9
408.552	1	-5
409.747	1	4
410.942	1	5
412.137	1	5
413.332	1	0
414.526	1	-4
415.721	1	7
416.916	1	1
418.111	1	0
419.305	1	7
420.500	1	1
421.695	1	1
422.889	1	3
424.084	1	-1
425.278	1	3
426.472	1	16
427.667	1	-6
428.861	1	6
430.055	1	7
431.250	1	2
432.444	1	10
433.638	1	3
434.832	1	-4
436.026	1	-6
437.220	1	1
438.414	1	7
439.608	1	-6
440.802	1	1
441.996	1	5
443.190	1	13
444.384	1	1
445.578	1	-9
446.771	1	2
447.965	1	-3
449.159	1	-6
450.352	1	3
451.546	1	6
452.739	1	1
453.933	1	-13
455.126	1	4
456.320	1	7
457.513	1	-9
458.706	1	5
459.899	1	1
461.093	1	6
462.286	1	-6
463.479	1	-2
464.672	1	2
465.865	1	4
467.058	1	1
468.251	1	-2
469.444	1	-3
470.637	1	7
471.830	1	-6
473.023	1	6
474.215	1	6
475.408	1	1
476.601	1	-8
477.793	1	0
478.986	1	8
480.179	1	0
481.371	1	0
482.564	1	3
483.756	1	7
484.948	1	2
486.141	1	5
487.333	1	-8
488.525	1	-7
489.718	1	-10
490.910	1	2
492.102	1	0
493.294	1	-4
494.486	1	2
495.678	1	-7
496.870	1	1
498.062	1	-2
499.254	1	-6
500.446	1	-8
501.638	1	3
502.829	1	-1
504.021	1	4
505.213	1	-6
506.404	1	3
507.596	1	9
508.788	1	6
509.979	1	-4
511.171	1	6
512.362	1	4
513.553	1	-1
514.745	1	-2
515.936	1	-2
517.127	1	8
518.319	1	1
519.510	1	-5
520.701	1	2
521.892	1	10
523.083	1	-7
524.274	1	1
525.465	1	0
526.656	1	7
527.847	1	-12
529.038	1	-3
530.229	1	7
531.419	1	-1
532.610	1	-2
533.801	1	1
534.991	1	-3
536.182	1	1
537.373	1	-1
538.563	1	5
539.754	1	7
540.944	1	-6
542.134	1	0
543.325	1	7
544.515	1	4
545.705	1	1
546.896	1	0
548.086	1	2
549.276	1	-6
550.466	1	4
551.656	1	1
552.846	1	8
554.036	1	7
555.226	1	2
556.416	1	16
557.606	1	-3
558.796	1	6
559.986	1	7
561.175	1	-3
562.365	1	-6
563.555	1	3
564.744	1	13
565.934	1	8
567.123	1	-1
568.313	1	-10
569.502	1	11
570.692	1	4
571.881	1	-2
573.070	1	7
574.260	1	9
575.449	1	-8
576.638	1	14
577.827	1	-2
579.016	1	3
580.205	1	4
581.394	1	-3
582.583	1	-2
583.772	1	1
584.961	1	-11
586.150	1	2
587.339	1	-4
588.528	1	0
589.717	1	5
590.905	1	-7
592.094	1	4
593.283	1	1
594.471	1	-6
595.660	1	0
596.848	1	2
598.037	1	6
599.225	1	2
600.413	1	-1
601.602	1	8
602.790	1	4
603.978	1	0
605.166	1	4
606.355	1	-13
607.543	1	3
608.731	1	-6
609.919	1	-13
611.107	1	10
612.295	1	3
613.483	1	-3
614.671	1	5
615.858	1	-9
617.046	1	0
618.234	1	-8
619.422	1	6
620.609	1	0
621.797	1	2
622.985	1	-1
624.172	1	-4
625.360	1	-1
626.547	1	-3
627.735	1	5
628.922	1	6
630.109	1	-14
631.297	1	4
632.484	1	12
633.671	1	11
634.858	1	2
636.045	1	2
637.232	1	-2
638.419	1	-2
639.606	1	6
640.793	1	-2
641.980	1	9
643.167	1	-1
644.354	1	0
645.541	1	-5
646.728	1	-3
647.914	1	5
649.101	1	-8
650.288	1	2
651.474	1	3
652.661	1	6
653.847	1	0
655.034	1	-3
656.220	1	8
657.406	1	-8
658.593	1	8
659.779	1	9
660.965	1	2
662.152	1	2
663.338	1	5
664.524	1	8
665.710	1	1
666.896	1	7
668.082	1	-5
669.268	1	-9
670.454	1	1
671.640	1	0
672.826	1	5
674.011	1	5
675.197	1	10
676.383	1	7
677.569	1	9
678.754	1	-6
679.940	1	-6
681.125	1	2
682.311	1	5
683.496	1	2
684.682	1	8
685.867	1	2
687.053	1	22
688.238	1	9
688.746	1	-12