File: Data/GaN_150K_450ms/GaN_sample D_spot15_UVVIS_150 K_200um_450 ms 2x2mm1_112.txt
340.368	1	7
341.565	1	5
342.763	1	0
343.960	1	6
345.157	1	14
346.354	1	7
347.552	1	23
348.749	1	14
349.946	1	9
351.143	1	3
352.340	1	7
353.537	1	-4
354.734	1	10
355.931	1	13
357.127	1	16
358.324	1	20
359.521	1	22
360.718	1	26
361.914	1	26
363.111	1	31
364.308	1	53
365.504	1	45
366.701	1	65
367.897	1	81
369.093	1	74
370.290	1	78
371.486	1	64
372.682	1	55
373.879	1	43
375.075	1	32
376.271	1	34
377.467	1	33
378.663	1	37
379.859	1	9
381.055	1	10
382.251	1	9
383.447	1	10
384.643	1	5
385.839	1	18
387.035	1	19
388.230	1	17
389.426	1	6
390.622	1	6
391.817	1	3
393.013	1	15
394.208	1	8
395.404	1	11
396.599	1	13
397.795	1	6
398.990	1	15
400.186	1	6
401.381	1	7
402.576	1	16
403.771	1	5
404.967	1	10
406.162	1	13
407.357	1	17
408.552	1	8
409.747	1	12
410.942	1	18
412.137	1	14
413.332	1	14
414.526	1	2
415.721	1	16
416.916	1	14
418.111	1	12
419.305	1	15
420.500	1	15
421.695	1	18
422.889	1	22
424.084	1	18
425.278	1	11
426.472	1	22
427.667	1	14
428.861	1	18
430.055	1	23
431.250	1	14
432.444	1	7
433.638	1	15
434.832	1	4
436.026	1	9
437.220	1	17
438.414	1	15
439.608	1	6
440.802	1	15
441.996	1	10
443.190	1	12
444.384	1	20
445.578	1	15
446.771	1	6
447.965	1	12
449.159	1	5
450.352	1	6
451.546	1	1
452.739	1	13
453.933	1	3
455.126	1	6
456.320	1	9
457.513	1	10
458.706	1	19
459.899	1	9
461.093	1	14
462.286	1	2
463.479	1	3
464.672	1	16
465.865	1	10
467.058	1	-3
468.251	1	4
469.444	1	7
470.637	1	5
471.830	1	10
473.023	1	11
474.215	1	-1
475.408	1	22
476.601	1	8
477.793	1	3
478.986	1	19
480.179	1	12
481.371	1	-8
482.564	1	8
483.756	1	11
484.948	1	15
486.141	1	-3
487.333	1	-7
488.525	1	5
489.718	1	4
490.910	1	13
492.102	1	3
493.294	1	1
494.486	1	2
495.678	1	12
496.870	1	12
498.062	1	15
499.254	1	-1
500.446	1	6
501.638	1	12
502.829	1	9
504.021	1	15
505.213	1	0
506.404	1	23
507.596	1	21
508.788	1	16
509.979	1	10
511.171	1	21
512.362	1	22
513.553	1	20
514.745	1	16
515.936	1	12
517.127	1	14
518.319	1	15
519.510	1	9
520.701	1	23
521.892	1	25
523.083	1	16
524.274	1	20
525.465	1	26
526.656	1	17
527.847	1	4
529.038	1	20
530.229	1	27
531.419	1	18
532.610	1	23
533.801	1	25
534.991	1	23
536.182	1	18
537.373	1	13
538.563	1	10
539.754	1	16
540.944	1	15
542.134	1	14
543.325	1	30
544.515	1	15
545.705	1	16
546.896	1	18
548.086	1	16
549.276	1	25
550.466	1	16
551.656	1	13
552.846	1	17
554.036	1	21
555.226	1	11
556.416	1	25
557.606	1	5
558.796	1	18
559.986	1	23
561.175	1	10
562.365	1	11
563.555	1	21
564.744	1	24
565.934	1	21
567.123	1	7
568.313	1	5
569.502	1	12
570.692	1	11
571.881	1	2
573.070	1	6
574.260	1	14
575.449	1	8
576.638	1	15
577.827	1	6
579.016	1	1
580.205	1	9
581.394	1	7
582.583	1	15
583.772	1	11
584.961	1	7
586.150	1	14
587.339	1	11
588.528	1	13
589.717	1	9
590.905	1	2
592.094	1	17
593.283	1	14
594.471	1	-3
595.660	1	10
596.848	1	8
598.037	1	10
599.225	1	2
600.413	1	11
601.602	1	8
602.790	1	14
603.978	1	3
605.166	1	0
606.355	1	-5
607.543	1	2
608.731	1	-2
609.919	1	-6
611.107	1	13
612.295	1	7
613.483	1	9
614.671	1	16
615.858	1	2
617.046	1	5
618.234	1	-6
619.422	1	8
620.609	1	1
621.797	1	2
622.985	1	2
624.172	1	16
625.360	1	9
626.547	1	-6
627.735	1	9
628.922	1	6
630.109	1	-5
631.297	1	10
632.484	1	8
633.671	1	6
634.858	1	10
636.045	1	-6
637.232	1	12
638.419	1	4
639.606	1	14
640.793	1	0
641.980	1	18
643.167	1	6
644.354	1	20
645.541	1	5
646.728	1	4
647.914	1	-5
649.101	1	-2
650.288	1	4
651.474	1	15
652.661	1	15
653.847	1	5
655.034	1	1
656.220	1	6
657.406	1	0
658.593	1	1
659.779	1	10
660.965	1	5
662.152	1	2
663.338	1	-7
664.524	1	14
665.710	1	8
666.896	1	6
668.082	1	5
669.268	1	0
670.454	1	6
671.640	1	12
672.826	1	5
674.011	1	12
675.197	1	9
676.383	1	-1
677.569	1	19
678.754	1	10
679.940	1	-5
681.125	1	-1
682.311	1	9
683.496	1	7
684.682	1	8
685.867	1	7
687.053	1	23
688.238	1	15
688.746	1	1