File: Data/GaN_150K_450ms/GaN_sample D_spot15_UVVIS_150 K_200um_450 ms 2x2mm1_220.txt
340.368	1	3
341.565	1	4
342.763	1	1
343.960	1	0
345.157	1	11
346.354	1	6
347.552	1	22
348.749	1	13
349.946	1	1
351.143	1	4
352.340	1	8
353.537	1	-8
354.734	1	-7
355.931	1	7
357.127	1	6
358.324	1	10
359.521	1	4
360.718	1	4
361.914	1	10
363.111	1	14
364.308	1	16
365.504	1	10
366.701	1	22
367.897	1	20
369.093	1	25
370.290	1	24
371.486	1	22
372.682	1	17
373.879	1	7
375.075	1	-3
376.271	1	7
377.467	1	16
378.663	1	16
379.859	1	-1
381.055	1	4
382.251	1	0
383.447	1	9
384.643	1	0
385.839	1	3
387.035	1	5
388.230	1	-3
389.426	1	-4
390.622	1	4
391.817	1	-9
393.013	1	1
394.208	1	2
395.404	1	10
396.599	1	0
397.795	1	2
398.990	1	12
400.186	1	1
401.381	1	-3
402.576	1	0
403.771	1	-1
404.967	1	4
406.162	1	6
407.357	1	5
408.552	1	1
409.747	1	8
410.942	1	13
412.137	1	5
413.332	1	13
414.526	1	-6
415.721	1	14
416.916	1	2
418.111	1	4
419.305	1	6
420.500	1	3
421.695	1	7
422.889	1	6
424.084	1	11
425.278	1	4
426.472	1	7
427.667	1	-5
428.861	1	6
430.055	1	7
431.250	1	11
432.444	1	11
433.638	1	1
434.832	1	-4
436.026	1	2
437.220	1	5
438.414	1	10
439.608	1	7
440.802	1	5
441.996	1	-1
443.190	1	6
444.384	1	9
445.578	1	2
446.771	1	-6
447.965	1	7
449.159	1	-9
450.352	1	-2
451.546	1	8
452.739	1	7
453.933	1	-10
455.126	1	3
456.320	1	10
457.513	1	-2
458.706	1	6
459.899	1	-5
461.093	1	1
462.286	1	-6
463.479	1	0
464.672	1	5
465.865	1	-4
467.058	1	10
468.251	1	-10
469.444	1	1
470.637	1	-2
471.830	1	6
473.023	1	2
474.215	1	-3
475.408	1	9
476.601	1	13
477.793	1	-3
478.986	1	5
480.179	1	13
481.371	1	-1
482.564	1	7
483.756	1	2
484.948	1	3
486.141	1	7
487.333	1	4
488.525	1	-4
489.718	1	-5
490.910	1	15
492.102	1	5
493.294	1	-12
494.486	1	0
495.678	1	-9
496.870	1	-2
498.062	1	8
499.254	1	-1
500.446	1	0
501.638	1	-1
502.829	1	1
504.021	1	2
505.213	1	1
506.404	1	0
507.596	1	9
508.788	1	-1
509.979	1	-4
511.171	1	12
512.362	1	11
513.553	1	7
514.745	1	5
515.936	1	7
517.127	1	5
518.319	1	6
519.510	1	-2
520.701	1	13
521.892	1	6
523.083	1	-6
524.274	1	6
525.465	1	21
526.656	1	13
527.847	1	-8
529.038	1	5
530.229	1	10
531.419	1	8
532.610	1	13
533.801	1	5
534.991	1	4
536.182	1	4
537.373	1	2
538.563	1	4
539.754	1	3
540.944	1	7
542.134	1	7
543.325	1	4
544.515	1	9
545.705	1	-5
546.896	1	4
548.086	1	5
549.276	1	6
550.466	1	8
551.656	1	5
552.846	1	12
554.036	1	13
555.226	1	11
556.416	1	5
557.606	1	-12
558.796	1	12
559.986	1	3
561.175	1	8
562.365	1	-1
563.555	1	-2
564.744	1	15
565.934	1	10
567.123	1	-2
568.313	1	3
569.502	1	5
570.692	1	1
571.881	1	0
573.070	1	1
574.260	1	2
575.449	1	3
576.638	1	5
577.827	1	3
579.016	1	-2
580.205	1	6
581.394	1	5
582.583	1	6
583.772	1	9
584.961	1	-4
586.150	1	3
587.339	1	-2
588.528	1	-4
589.717	1	1
590.905	1	1
592.094	1	9
593.283	1	6
594.471	1	6
595.660	1	8
596.848	1	7
598.037	1	0
599.225	1	-3
600.413	1	13
601.602	1	3
602.790	1	4
603.978	1	12
605.166	1	3
606.355	1	-4
607.543	1	-1
608.731	1	-8
609.919	1	-11
611.107	1	13
612.295	1	7
613.483	1	11
614.671	1	3
615.858	1	-2
617.046	1	6
618.234	1	-6
619.422	1	16
620.609	1	-10
621.797	1	1
622.985	1	-2
624.172	1	6
625.360	1	-1
626.547	1	-4
627.735	1	-2
628.922	1	15
630.109	1	2
631.297	1	4
632.484	1	10
633.671	1	5
634.858	1	6
636.045	1	-2
637.232	1	2
638.419	1	-2
639.606	1	7
640.793	1	0
641.980	1	11
643.167	1	19
644.354	1	12
645.541	1	-3
646.728	1	9
647.914	1	0
649.101	1	-3
650.288	1	7
651.474	1	4
652.661	1	8
653.847	1	6
655.034	1	-1
656.220	1	5
657.406	1	1
658.593	1	12
659.779	1	5
660.965	1	-1
662.152	1	-5
663.338	1	-1
664.524	1	7
665.710	1	8
666.896	1	5
668.082	1	7
669.268	1	5
670.454	1	-5
671.640	1	-6
672.826	1	5
674.011	1	3
675.197	1	6
676.383	1	8
677.569	1	11
678.754	1	10
679.940	1	-4
681.125	1	-2
682.311	1	8
683.496	1	0
684.682	1	6
685.867	1	0
687.053	1	18
688.238	1	7
688.746	1	-5