File: Data/GaN_150K_450ms/GaN_sample D_spot15_UVVIS_150 K_200um_450 ms 2x2mm1_259.txt
340.368	1	3
341.565	1	-6
342.763	1	-7
343.960	1	14
345.157	1	17
346.354	1	1
347.552	1	15
348.749	1	12
349.946	1	-3
351.143	1	9
352.340	1	11
353.537	1	-2
354.734	1	-8
355.931	1	12
357.127	1	8
358.324	1	9
359.521	1	12
360.718	1	1
361.914	1	7
363.111	1	-1
364.308	1	13
365.504	1	-2
366.701	1	14
367.897	1	15
369.093	1	21
370.290	1	8
371.486	1	23
372.682	1	9
373.879	1	6
375.075	1	1
376.271	1	8
377.467	1	15
378.663	1	1
379.859	1	5
381.055	1	3
382.251	1	-11
383.447	1	-2
384.643	1	5
385.839	1	6
387.035	1	8
388.230	1	0
389.426	1	-6
390.622	1	8
391.817	1	-7
393.013	1	-4
394.208	1	-6
395.404	1	15
396.599	1	11
397.795	1	2
398.990	1	12
400.186	1	2
401.381	1	-2
402.576	1	1
403.771	1	-5
404.967	1	3
406.162	1	-6
407.357	1	8
408.552	1	3
409.747	1	5
410.942	1	12
412.137	1	-6
413.332	1	4
414.526	1	-7
415.721	1	8
416.916	1	1
418.111	1	2
419.305	1	4
420.500	1	2
421.695	1	6
422.889	1	7
424.084	1	2
425.278	1	13
426.472	1	7
427.667	1	3
428.861	1	6
430.055	1	7
431.250	1	3
432.444	1	1
433.638	1	12
434.832	1	5
436.026	1	2
437.220	1	14
438.414	1	5
439.608	1	7
440.802	1	3
441.996	1	5
443.190	1	3
444.384	1	4
445.578	1	-7
446.771	1	3
447.965	1	7
449.159	1	2
450.352	1	-4
451.546	1	0
452.739	1	3
453.933	1	-3
455.126	1	5
456.320	1	14
457.513	1	1
458.706	1	10
459.899	1	5
461.093	1	13
462.286	1	1
463.479	1	-6
464.672	1	1
465.865	1	5
467.058	1	7
468.251	1	-10
469.444	1	2
470.637	1	0
471.830	1	0
473.023	1	-1
474.215	1	9
475.408	1	6
476.601	1	5
477.793	1	-10
478.986	1	7
480.179	1	7
481.371	1	-5
482.564	1	7
483.756	1	9
484.948	1	10
486.141	1	0
487.333	1	0
488.525	1	-1
489.718	1	-1
490.910	1	-2
492.102	1	6
493.294	1	-2
494.486	1	5
495.678	1	3
496.870	1	-2
498.062	1	1
499.254	1	-6
500.446	1	-4
501.638	1	6
502.829	1	-1
504.021	1	1
505.213	1	3
506.404	1	12
507.596	1	15
508.788	1	1
509.979	1	-4
511.171	1	3
512.362	1	12
513.553	1	0
514.745	1	-4
515.936	1	-4
517.127	1	7
518.319	1	-1
519.510	1	3
520.701	1	8
521.892	1	5
523.083	1	-5
524.274	1	-2
525.465	1	13
526.656	1	3
527.847	1	-10
529.038	1	2
530.229	1	5
531.419	1	12
532.610	1	12
533.801	1	-1
534.991	1	8
536.182	1	-2
537.373	1	5
538.563	1	-7
539.754	1	-1
540.944	1	11
542.134	1	8
543.325	1	4
544.515	1	6
545.705	1	6
546.896	1	2
548.086	1	3
549.276	1	6
550.466	1	9
551.656	1	6
552.846	1	7
554.036	1	10
555.226	1	14
556.416	1	10
557.606	1	-5
558.796	1	9
559.986	1	5
561.175	1	-4
562.365	1	-6
563.555	1	2
564.744	1	8
565.934	1	9
567.123	1	4
568.313	1	0
569.502	1	7
570.692	1	6
571.881	1	-2
573.070	1	8
574.260	1	5
575.449	1	4
576.638	1	2
577.827	1	-2
579.016	1	3
580.205	1	4
581.394	1	3
582.583	1	2
583.772	1	3
584.961	1	-7
586.150	1	0
587.339	1	0
588.528	1	-3
589.717	1	3
590.905	1	10
592.094	1	10
593.283	1	3
594.471	1	-3
595.660	1	8
596.848	1	8
598.037	1	-1
599.225	1	7
600.413	1	-4
601.602	1	2
602.790	1	10
603.978	1	-1
605.166	1	2
606.355	1	-13
607.543	1	12
608.731	1	-10
609.919	1	-11
611.107	1	7
612.295	1	10
613.483	1	-1
614.671	1	-3
615.858	1	-6
617.046	1	-1
618.234	1	-1
619.422	1	17
620.609	1	3
621.797	1	-4
622.985	1	-6
624.172	1	12
625.360	1	-1
626.547	1	1
627.735	1	-3
628.922	1	5
630.109	1	-12
631.297	1	-3
632.484	1	8
633.671	1	-3
634.858	1	8
636.045	1	-4
637.232	1	-3
638.419	1	1
639.606	1	5
640.793	1	9
641.980	1	19
643.167	1	7
644.354	1	3
645.541	1	4
646.728	1	10
647.914	1	1
649.101	1	-3
650.288	1	0
651.474	1	7
652.661	1	2
653.847	1	1
655.034	1	-2
656.220	1	5
657.406	1	-3
658.593	1	15
659.779	1	-3
660.965	1	-2
662.152	1	4
663.338	1	7
664.524	1	12
665.710	1	2
666.896	1	9
668.082	1	-2
669.268	1	-1
670.454	1	-5
671.640	1	5
672.826	1	6
674.011	1	6
675.197	1	2
676.383	1	0
677.569	1	7
678.754	1	-3
679.940	1	2
681.125	1	-9
682.311	1	3
683.496	1	-3
684.682	1	9
685.867	1	-3
687.053	1	14
688.238	1	10
688.746	1	1