File: Data/GaN_150K_450ms/GaN_sample D_spot15_UVVIS_150 K_200um_450 ms 2x2mm1_218.txt
340.368	1	4
341.565	1	2
342.763	1	-4
343.960	1	4
345.157	1	19
346.354	1	1
347.552	1	16
348.749	1	14
349.946	1	-4
351.143	1	10
352.340	1	7
353.537	1	-4
354.734	1	-2
355.931	1	8
357.127	1	15
358.324	1	6
359.521	1	14
360.718	1	6
361.914	1	13
363.111	1	16
364.308	1	14
365.504	1	9
366.701	1	9
367.897	1	20
369.093	1	27
370.290	1	21
371.486	1	18
372.682	1	22
373.879	1	11
375.075	1	4
376.271	1	11
377.467	1	16
378.663	1	13
379.859	1	4
381.055	1	1
382.251	1	-2
383.447	1	-5
384.643	1	12
385.839	1	5
387.035	1	5
388.230	1	8
389.426	1	-7
390.622	1	-9
391.817	1	-2
393.013	1	6
394.208	1	-4
395.404	1	9
396.599	1	13
397.795	1	0
398.990	1	13
400.186	1	0
401.381	1	-1
402.576	1	6
403.771	1	-7
404.967	1	0
406.162	1	-4
407.357	1	8
408.552	1	-7
409.747	1	0
410.942	1	15
412.137	1	4
413.332	1	12
414.526	1	-4
415.721	1	7
416.916	1	0
418.111	1	15
419.305	1	9
420.500	1	6
421.695	1	12
422.889	1	11
424.084	1	5
425.278	1	4
426.472	1	9
427.667	1	11
428.861	1	8
430.055	1	8
431.250	1	-4
432.444	1	8
433.638	1	11
434.832	1	-6
436.026	1	1
437.220	1	4
438.414	1	6
439.608	1	-4
440.802	1	3
441.996	1	1
443.190	1	9
444.384	1	3
445.578	1	-2
446.771	1	4
447.965	1	-1
449.159	1	1
450.352	1	-1
451.546	1	4
452.739	1	7
453.933	1	-2
455.126	1	-4
456.320	1	15
457.513	1	-4
458.706	1	8
459.899	1	4
461.093	1	1
462.286	1	-15
463.479	1	-3
464.672	1	5
465.865	1	1
467.058	1	1
468.251	1	-10
469.444	1	2
470.637	1	0
471.830	1	2
473.023	1	6
474.215	1	4
475.408	1	4
476.601	1	2
477.793	1	-5
478.986	1	3
480.179	1	3
481.371	1	4
482.564	1	6
483.756	1	11
484.948	1	3
486.141	1	-3
487.333	1	-13
488.525	1	-5
489.718	1	-3
490.910	1	8
492.102	1	0
493.294	1	-4
494.486	1	-4
495.678	1	4
496.870	1	5
498.062	1	7
499.254	1	-3
500.446	1	1
501.638	1	11
502.829	1	-7
504.021	1	1
505.213	1	3
506.404	1	4
507.596	1	10
508.788	1	1
509.979	1	6
511.171	1	14
512.362	1	14
513.553	1	2
514.745	1	0
515.936	1	-4
517.127	1	13
518.319	1	3
519.510	1	6
520.701	1	6
521.892	1	10
523.083	1	-3
524.274	1	2
525.465	1	5
526.656	1	5
527.847	1	-11
529.038	1	-2
530.229	1	10
531.419	1	3
532.610	1	9
533.801	1	8
534.991	1	0
536.182	1	7
537.373	1	7
538.563	1	0
539.754	1	6
540.944	1	7
542.134	1	1
543.325	1	11
544.515	1	3
545.705	1	6
546.896	1	2
548.086	1	8
549.276	1	7
550.466	1	7
551.656	1	7
552.846	1	1
554.036	1	7
555.226	1	4
556.416	1	13
557.606	1	-8
558.796	1	11
559.986	1	6
561.175	1	4
562.365	1	9
563.555	1	6
564.744	1	8
565.934	1	10
567.123	1	4
568.313	1	5
569.502	1	6
570.692	1	9
571.881	1	1
573.070	1	-1
574.260	1	7
575.449	1	1
576.638	1	-1
577.827	1	0
579.016	1	7
580.205	1	-3
581.394	1	2
582.583	1	0
583.772	1	6
584.961	1	7
586.150	1	2
587.339	1	-2
588.528	1	0
589.717	1	10
590.905	1	3
592.094	1	11
593.283	1	10
594.471	1	1
595.660	1	12
596.848	1	3
598.037	1	-4
599.225	1	-5
600.413	1	3
601.602	1	4
602.790	1	5
603.978	1	0
605.166	1	1
606.355	1	-5
607.543	1	5
608.731	1	-8
609.919	1	-4
611.107	1	9
612.295	1	9
613.483	1	6
614.671	1	2
615.858	1	1
617.046	1	-1
618.234	1	-5
619.422	1	16
620.609	1	1
621.797	1	7
622.985	1	2
624.172	1	0
625.360	1	1
626.547	1	-7
627.735	1	3
628.922	1	3
630.109	1	-11
631.297	1	0
632.484	1	13
633.671	1	10
634.858	1	6
636.045	1	-7
637.232	1	1
638.419	1	4
639.606	1	7
640.793	1	8
641.980	1	7
643.167	1	9
644.354	1	7
645.541	1	4
646.728	1	1
647.914	1	2
649.101	1	-1
650.288	1	6
651.474	1	6
652.661	1	11
653.847	1	4
655.034	1	-3
656.220	1	2
657.406	1	3
658.593	1	16
659.779	1	5
660.965	1	0
662.152	1	7
663.338	1	-6
664.524	1	12
665.710	1	14
666.896	1	5
668.082	1	6
669.268	1	-1
670.454	1	3
671.640	1	3
672.826	1	5
674.011	1	3
675.197	1	10
676.383	1	2
677.569	1	13
678.754	1	6
679.940	1	-5
681.125	1	1
682.311	1	15
683.496	1	-5
684.682	1	14
685.867	1	-2
687.053	1	13
688.238	1	16
688.746	1	-2