File: Data/GaN_150K_450ms/GaN_sample D_spot15_UVVIS_150 K_200um_450 ms 2x2mm1_14.txt
340.368	1	-3
341.565	1	-2
342.763	1	5
343.960	1	-2
345.157	1	11
346.354	1	4
347.552	1	7
348.749	1	9
349.946	1	-6
351.143	1	4
352.340	1	5
353.537	1	-6
354.734	1	2
355.931	1	6
357.127	1	5
358.324	1	1
359.521	1	0
360.718	1	0
361.914	1	7
363.111	1	7
364.308	1	-7
365.504	1	2
366.701	1	-4
367.897	1	-9
369.093	1	9
370.290	1	2
371.486	1	2
372.682	1	1
373.879	1	2
375.075	1	-10
376.271	1	-5
377.467	1	10
378.663	1	8
379.859	1	4
381.055	1	2
382.251	1	-1
383.447	1	-6
384.643	1	-3
385.839	1	0
387.035	1	9
388.230	1	-5
389.426	1	-5
390.622	1	-4
391.817	1	-6
393.013	1	7
394.208	1	-9
395.404	1	3
396.599	1	6
397.795	1	-5
398.990	1	4
400.186	1	4
401.381	1	-4
402.576	1	3
403.771	1	-5
404.967	1	5
406.162	1	6
407.357	1	4
408.552	1	-4
409.747	1	-9
410.942	1	9
412.137	1	2
413.332	1	10
414.526	1	-6
415.721	1	-11
416.916	1	-4
418.111	1	4
419.305	1	10
420.500	1	6
421.695	1	-2
422.889	1	7
424.084	1	5
425.278	1	-6
426.472	1	4
427.667	1	1
428.861	1	5
430.055	1	7
431.250	1	3
432.444	1	2
433.638	1	2
434.832	1	-9
436.026	1	-9
437.220	1	11
438.414	1	3
439.608	1	0
440.802	1	-1
441.996	1	3
443.190	1	-8
444.384	1	12
445.578	1	-12
446.771	1	5
447.965	1	-1
449.159	1	-7
450.352	1	-8
451.546	1	9
452.739	1	0
453.933	1	-7
455.126	1	-4
456.320	1	3
457.513	1	2
458.706	1	11
459.899	1	3
461.093	1	2
462.286	1	-3
463.479	1	-5
464.672	1	-1
465.865	1	2
467.058	1	-1
468.251	1	-5
469.444	1	-2
470.637	1	0
471.830	1	7
473.023	1	-6
474.215	1	-5
475.408	1	3
476.601	1	6
477.793	1	-4
478.986	1	6
480.179	1	-2
481.371	1	-2
482.564	1	2
483.756	1	5
484.948	1	8
486.141	1	2
487.333	1	-9
488.525	1	-6
489.718	1	-6
490.910	1	-1
492.102	1	-4
493.294	1	-6
494.486	1	1
495.678	1	3
496.870	1	-1
498.062	1	-1
499.254	1	-1
500.446	1	-3
501.638	1	2
502.829	1	-5
504.021	1	6
505.213	1	-7
506.404	1	-4
507.596	1	10
508.788	1	4
509.979	1	-3
511.171	1	7
512.362	1	4
513.553	1	5
514.745	1	4
515.936	1	1
517.127	1	1
518.319	1	-3
519.510	1	-5
520.701	1	0
521.892	1	7
523.083	1	1
524.274	1	0
525.465	1	7
526.656	1	5
527.847	1	-17
529.038	1	8
530.229	1	8
531.419	1	-2
532.610	1	9
533.801	1	2
534.991	1	-3
536.182	1	-3
537.373	1	-2
538.563	1	-8
539.754	1	-2
540.944	1	2
542.134	1	1
543.325	1	2
544.515	1	4
545.705	1	-1
546.896	1	-3
548.086	1	2
549.276	1	0
550.466	1	-4
551.656	1	9
552.846	1	2
554.036	1	18
555.226	1	3
556.416	1	-1
557.606	1	-8
558.796	1	11
559.986	1	2
561.175	1	-7
562.365	1	-5
563.555	1	-2
564.744	1	6
565.934	1	11
567.123	1	1
568.313	1	7
569.502	1	8
570.692	1	-3
571.881	1	-4
573.070	1	4
574.260	1	3
575.449	1	0
576.638	1	8
577.827	1	1
579.016	1	-2
580.205	1	3
581.394	1	0
582.583	1	3
583.772	1	6
584.961	1	-6
586.150	1	6
587.339	1	-1
588.528	1	-4
589.717	1	-3
590.905	1	-9
592.094	1	5
593.283	1	11
594.471	1	-3
595.660	1	8
596.848	1	2
598.037	1	0
599.225	1	-1
600.413	1	3
601.602	1	7
602.790	1	9
603.978	1	-4
605.166	1	-3
606.355	1	-15
607.543	1	-3
608.731	1	-16
609.919	1	-11
611.107	1	13
612.295	1	4
613.483	1	-1
614.671	1	-1
615.858	1	-7
617.046	1	-10
618.234	1	-9
619.422	1	15
620.609	1	-1
621.797	1	0
622.985	1	0
624.172	1	5
625.360	1	9
626.547	1	-3
627.735	1	-2
628.922	1	2
630.109	1	-4
631.297	1	4
632.484	1	12
633.671	1	6
634.858	1	4
636.045	1	-8
637.232	1	-5
638.419	1	-2
639.606	1	6
640.793	1	-3
641.980	1	11
643.167	1	8
644.354	1	7
645.541	1	-1
646.728	1	1
647.914	1	3
649.101	1	-10
650.288	1	3
651.474	1	4
652.661	1	7
653.847	1	-3
655.034	1	1
656.220	1	2
657.406	1	-2
658.593	1	-4
659.779	1	7
660.965	1	2
662.152	1	0
663.338	1	2
664.524	1	8
665.710	1	17
666.896	1	9
668.082	1	0
669.268	1	3
670.454	1	6
671.640	1	5
672.826	1	1
674.011	1	4
675.197	1	-4
676.383	1	-8
677.569	1	10
678.754	1	4
679.940	1	-6
681.125	1	3
682.311	1	7
683.496	1	0
684.682	1	9
685.867	1	0
687.053	1	18
688.238	1	8
688.746	1	5