File: Data/GaN_150K_450ms/GaN_sample D_spot15_UVVIS_150 K_200um_450 ms 2x2mm1_233.txt
340.368	1	-9
341.565	1	3
342.763	1	10
343.960	1	9
345.157	1	11
346.354	1	9
347.552	1	15
348.749	1	13
349.946	1	-1
351.143	1	7
352.340	1	2
353.537	1	-7
354.734	1	6
355.931	1	12
357.127	1	9
358.324	1	10
359.521	1	8
360.718	1	1
361.914	1	2
363.111	1	10
364.308	1	14
365.504	1	16
366.701	1	15
367.897	1	23
369.093	1	25
370.290	1	20
371.486	1	15
372.682	1	10
373.879	1	9
375.075	1	-4
376.271	1	5
377.467	1	18
378.663	1	3
379.859	1	0
381.055	1	0
382.251	1	-5
383.447	1	0
384.643	1	-4
385.839	1	9
387.035	1	8
388.230	1	-4
389.426	1	-5
390.622	1	-1
391.817	1	-4
393.013	1	8
394.208	1	4
395.404	1	8
396.599	1	-3
397.795	1	4
398.990	1	7
400.186	1	10
401.381	1	8
402.576	1	6
403.771	1	-10
404.967	1	2
406.162	1	-9
407.357	1	5
408.552	1	4
409.747	1	0
410.942	1	10
412.137	1	-1
413.332	1	13
414.526	1	-1
415.721	1	2
416.916	1	0
418.111	1	6
419.305	1	10
420.500	1	11
421.695	1	8
422.889	1	7
424.084	1	3
425.278	1	0
426.472	1	11
427.667	1	6
428.861	1	11
430.055	1	4
431.250	1	12
432.444	1	8
433.638	1	0
434.832	1	-10
436.026	1	3
437.220	1	2
438.414	1	5
439.608	1	-3
440.802	1	6
441.996	1	8
443.190	1	-3
444.384	1	6
445.578	1	-5
446.771	1	1
447.965	1	3
449.159	1	-2
450.352	1	1
451.546	1	-5
452.739	1	5
453.933	1	-10
455.126	1	6
456.320	1	13
457.513	1	-2
458.706	1	12
459.899	1	3
461.093	1	5
462.286	1	-6
463.479	1	-2
464.672	1	2
465.865	1	2
467.058	1	4
468.251	1	-7
469.444	1	1
470.637	1	-4
471.830	1	-7
473.023	1	7
474.215	1	-1
475.408	1	7
476.601	1	-3
477.793	1	-7
478.986	1	7
480.179	1	-3
481.371	1	-11
482.564	1	0
483.756	1	1
484.948	1	12
486.141	1	3
487.333	1	-2
488.525	1	-3
489.718	1	-11
490.910	1	-5
492.102	1	1
493.294	1	-15
494.486	1	0
495.678	1	-1
496.870	1	0
498.062	1	2
499.254	1	-3
500.446	1	-5
501.638	1	0
502.829	1	9
504.021	1	7
505.213	1	-7
506.404	1	7
507.596	1	8
508.788	1	3
509.979	1	2
511.171	1	7
512.362	1	4
513.553	1	5
514.745	1	6
515.936	1	4
517.127	1	11
518.319	1	0
519.510	1	-4
520.701	1	10
521.892	1	0
523.083	1	2
524.274	1	-9
525.465	1	11
526.656	1	5
527.847	1	-8
529.038	1	0
530.229	1	10
531.419	1	7
532.610	1	6
533.801	1	3
534.991	1	0
536.182	1	2
537.373	1	-5
538.563	1	1
539.754	1	0
540.944	1	12
542.134	1	10
543.325	1	9
544.515	1	2
545.705	1	0
546.896	1	4
548.086	1	8
549.276	1	3
550.466	1	1
551.656	1	4
552.846	1	8
554.036	1	8
555.226	1	1
556.416	1	12
557.606	1	-9
558.796	1	3
559.986	1	1
561.175	1	5
562.365	1	2
563.555	1	6
564.744	1	17
565.934	1	15
567.123	1	-2
568.313	1	9
569.502	1	6
570.692	1	6
571.881	1	2
573.070	1	8
574.260	1	9
575.449	1	2
576.638	1	11
577.827	1	7
579.016	1	7
580.205	1	0
581.394	1	3
582.583	1	11
583.772	1	7
584.961	1	-11
586.150	1	2
587.339	1	-2
588.528	1	3
589.717	1	-2
590.905	1	-5
592.094	1	8
593.283	1	0
594.471	1	-9
595.660	1	7
596.848	1	8
598.037	1	4
599.225	1	4
600.413	1	7
601.602	1	8
602.790	1	4
603.978	1	-5
605.166	1	2
606.355	1	-18
607.543	1	-6
608.731	1	-4
609.919	1	-17
611.107	1	13
612.295	1	5
613.483	1	3
614.671	1	2
615.858	1	-4
617.046	1	-2
618.234	1	-4
619.422	1	13
620.609	1	-5
621.797	1	-5
622.985	1	3
624.172	1	9
625.360	1	6
626.547	1	-5
627.735	1	8
628.922	1	10
630.109	1	-9
631.297	1	2
632.484	1	2
633.671	1	4
634.858	1	12
636.045	1	-8
637.232	1	1
638.419	1	6
639.606	1	8
640.793	1	-5
641.980	1	6
643.167	1	4
644.354	1	12
645.541	1	2
646.728	1	-1
647.914	1	4
649.101	1	-3
650.288	1	-2
651.474	1	9
652.661	1	10
653.847	1	3
655.034	1	-1
656.220	1	2
657.406	1	2
658.593	1	7
659.779	1	-2
660.965	1	-1
662.152	1	7
663.338	1	-6
664.524	1	11
665.710	1	3
666.896	1	-3
668.082	1	0
669.268	1	4
670.454	1	7
671.640	1	6
672.826	1	0
674.011	1	10
675.197	1	5
676.383	1	4
677.569	1	9
678.754	1	6
679.940	1	-2
681.125	1	-6
682.311	1	12
683.496	1	-6
684.682	1	9
685.867	1	-7
687.053	1	17
688.238	1	4
688.746	1	-4