File: Data/GaN_150K_450ms/GaN_sample D_spot15_UVVIS_150 K_200um_450 ms 2x2mm1_168.txt
340.368	1	7
341.565	1	4
342.763	1	-2
343.960	1	9
345.157	1	14
346.354	1	3
347.552	1	17
348.749	1	10
349.946	1	2
351.143	1	1
352.340	1	13
353.537	1	7
354.734	1	1
355.931	1	11
357.127	1	11
358.324	1	3
359.521	1	16
360.718	1	12
361.914	1	11
363.111	1	12
364.308	1	20
365.504	1	20
366.701	1	29
367.897	1	36
369.093	1	28
370.290	1	33
371.486	1	34
372.682	1	17
373.879	1	15
375.075	1	5
376.271	1	7
377.467	1	24
378.663	1	14
379.859	1	13
381.055	1	5
382.251	1	8
383.447	1	12
384.643	1	3
385.839	1	8
387.035	1	16
388.230	1	7
389.426	1	17
390.622	1	-5
391.817	1	0
393.013	1	16
394.208	1	6
395.404	1	10
396.599	1	5
397.795	1	10
398.990	1	14
400.186	1	11
401.381	1	4
402.576	1	3
403.771	1	-2
404.967	1	-3
406.162	1	4
407.357	1	10
408.552	1	0
409.747	1	13
410.942	1	17
412.137	1	6
413.332	1	12
414.526	1	8
415.721	1	17
416.916	1	5
418.111	1	11
419.305	1	13
420.500	1	11
421.695	1	12
422.889	1	4
424.084	1	16
425.278	1	13
426.472	1	13
427.667	1	7
428.861	1	10
430.055	1	8
431.250	1	11
432.444	1	-1
433.638	1	21
434.832	1	1
436.026	1	-1
437.220	1	14
438.414	1	15
439.608	1	4
440.802	1	6
441.996	1	4
443.190	1	4
444.384	1	12
445.578	1	4
446.771	1	7
447.965	1	4
449.159	1	6
450.352	1	3
451.546	1	6
452.739	1	16
453.933	1	-3
455.126	1	5
456.320	1	13
457.513	1	8
458.706	1	17
459.899	1	5
461.093	1	3
462.286	1	-3
463.479	1	3
464.672	1	5
465.865	1	13
467.058	1	12
468.251	1	6
469.444	1	0
470.637	1	4
471.830	1	2
473.023	1	7
474.215	1	5
475.408	1	7
476.601	1	5
477.793	1	-1
478.986	1	16
480.179	1	5
481.371	1	-4
482.564	1	14
483.756	1	8
484.948	1	8
486.141	1	9
487.333	1	-1
488.525	1	4
489.718	1	0
490.910	1	7
492.102	1	4
493.294	1	-4
494.486	1	2
495.678	1	-3
496.870	1	1
498.062	1	-1
499.254	1	1
500.446	1	-3
501.638	1	15
502.829	1	6
504.021	1	4
505.213	1	0
506.404	1	9
507.596	1	10
508.788	1	8
509.979	1	4
511.171	1	13
512.362	1	8
513.553	1	6
514.745	1	7
515.936	1	8
517.127	1	13
518.319	1	8
519.510	1	3
520.701	1	7
521.892	1	5
523.083	1	0
524.274	1	9
525.465	1	16
526.656	1	10
527.847	1	-9
529.038	1	8
530.229	1	10
531.419	1	6
532.610	1	14
533.801	1	13
534.991	1	7
536.182	1	17
537.373	1	8
538.563	1	3
539.754	1	-2
540.944	1	10
542.134	1	14
543.325	1	5
544.515	1	13
545.705	1	12
546.896	1	8
548.086	1	8
549.276	1	14
550.466	1	11
551.656	1	11
552.846	1	14
554.036	1	13
555.226	1	6
556.416	1	5
557.606	1	-10
558.796	1	19
559.986	1	9
561.175	1	2
562.365	1	6
563.555	1	7
564.744	1	16
565.934	1	10
567.123	1	7
568.313	1	13
569.502	1	11
570.692	1	-4
571.881	1	4
573.070	1	10
574.260	1	8
575.449	1	-3
576.638	1	19
577.827	1	-4
579.016	1	4
580.205	1	4
581.394	1	4
582.583	1	-3
583.772	1	2
584.961	1	3
586.150	1	8
587.339	1	4
588.528	1	-7
589.717	1	12
590.905	1	-7
592.094	1	12
593.283	1	17
594.471	1	-4
595.660	1	5
596.848	1	11
598.037	1	1
599.225	1	3
600.413	1	6
601.602	1	15
602.790	1	10
603.978	1	4
605.166	1	2
606.355	1	-14
607.543	1	-4
608.731	1	-5
609.919	1	-9
611.107	1	16
612.295	1	8
613.483	1	8
614.671	1	1
615.858	1	-2
617.046	1	0
618.234	1	2
619.422	1	15
620.609	1	-5
621.797	1	-1
622.985	1	-4
624.172	1	2
625.360	1	0
626.547	1	-4
627.735	1	12
628.922	1	18
630.109	1	-2
631.297	1	7
632.484	1	2
633.671	1	12
634.858	1	13
636.045	1	-6
637.232	1	10
638.419	1	0
639.606	1	9
640.793	1	5
641.980	1	10
643.167	1	5
644.354	1	12
645.541	1	6
646.728	1	3
647.914	1	4
649.101	1	-3
650.288	1	1
651.474	1	9
652.661	1	-2
653.847	1	2
655.034	1	1
656.220	1	11
657.406	1	-2
658.593	1	3
659.779	1	13
660.965	1	7
662.152	1	6
663.338	1	-3
664.524	1	11
665.710	1	10
666.896	1	1
668.082	1	7
669.268	1	3
670.454	1	11
671.640	1	8
672.826	1	2
674.011	1	6
675.197	1	12
676.383	1	4
677.569	1	11
678.754	1	10
679.940	1	0
681.125	1	12
682.311	1	14
683.496	1	-8
684.682	1	13
685.867	1	1
687.053	1	27
688.238	1	16
688.746	1	4