File: Data/GaN_150K_450ms/GaN_sample D_spot15_UVVIS_150 K_200um_450 ms 2x2mm1_205.txt
340.368	1	5
341.565	1	2
342.763	1	8
343.960	1	11
345.157	1	11
346.354	1	-1
347.552	1	17
348.749	1	19
349.946	1	3
351.143	1	0
352.340	1	3
353.537	1	-1
354.734	1	4
355.931	1	12
357.127	1	11
358.324	1	12
359.521	1	14
360.718	1	7
361.914	1	8
363.111	1	2
364.308	1	14
365.504	1	8
366.701	1	13
367.897	1	27
369.093	1	19
370.290	1	21
371.486	1	26
372.682	1	17
373.879	1	8
375.075	1	-5
376.271	1	11
377.467	1	23
378.663	1	7
379.859	1	11
381.055	1	4
382.251	1	-3
383.447	1	3
384.643	1	1
385.839	1	2
387.035	1	3
388.230	1	3
389.426	1	1
390.622	1	-2
391.817	1	2
393.013	1	20
394.208	1	1
395.404	1	12
396.599	1	11
397.795	1	3
398.990	1	7
400.186	1	1
401.381	1	3
402.576	1	1
403.771	1	-3
404.967	1	4
406.162	1	-5
407.357	1	4
408.552	1	6
409.747	1	4
410.942	1	9
412.137	1	4
413.332	1	14
414.526	1	-2
415.721	1	5
416.916	1	-3
418.111	1	7
419.305	1	14
420.500	1	5
421.695	1	7
422.889	1	3
424.084	1	7
425.278	1	7
426.472	1	18
427.667	1	10
428.861	1	11
430.055	1	5
431.250	1	11
432.444	1	6
433.638	1	8
434.832	1	0
436.026	1	7
437.220	1	12
438.414	1	17
439.608	1	3
440.802	1	7
441.996	1	8
443.190	1	0
444.384	1	3
445.578	1	4
446.771	1	4
447.965	1	8
449.159	1	-2
450.352	1	-3
451.546	1	4
452.739	1	8
453.933	1	-2
455.126	1	6
456.320	1	12
457.513	1	2
458.706	1	13
459.899	1	3
461.093	1	2
462.286	1	3
463.479	1	5
464.672	1	5
465.865	1	-6
467.058	1	10
468.251	1	-5
469.444	1	-1
470.637	1	-1
471.830	1	4
473.023	1	4
474.215	1	3
475.408	1	6
476.601	1	2
477.793	1	5
478.986	1	11
480.179	1	10
481.371	1	-8
482.564	1	6
483.756	1	12
484.948	1	-3
486.141	1	13
487.333	1	-1
488.525	1	-2
489.718	1	-4
490.910	1	5
492.102	1	2
493.294	1	3
494.486	1	4
495.678	1	5
496.870	1	2
498.062	1	-6
499.254	1	-6
500.446	1	1
501.638	1	5
502.829	1	1
504.021	1	4
505.213	1	-3
506.404	1	-7
507.596	1	9
508.788	1	5
509.979	1	-1
511.171	1	-1
512.362	1	16
513.553	1	6
514.745	1	2
515.936	1	4
517.127	1	17
518.319	1	1
519.510	1	-6
520.701	1	13
521.892	1	2
523.083	1	-5
524.274	1	12
525.465	1	8
526.656	1	11
527.847	1	7
529.038	1	3
530.229	1	8
531.419	1	5
532.610	1	18
533.801	1	-2
534.991	1	5
536.182	1	9
537.373	1	10
538.563	1	4
539.754	1	0
540.944	1	2
542.134	1	8
543.325	1	8
544.515	1	7
545.705	1	11
546.896	1	5
548.086	1	8
549.276	1	11
550.466	1	1
551.656	1	3
552.846	1	16
554.036	1	13
555.226	1	7
556.416	1	10
557.606	1	-12
558.796	1	17
559.986	1	3
561.175	1	-3
562.365	1	-6
563.555	1	15
564.744	1	7
565.934	1	21
567.123	1	4
568.313	1	3
569.502	1	8
570.692	1	3
571.881	1	-8
573.070	1	8
574.260	1	4
575.449	1	6
576.638	1	10
577.827	1	-4
579.016	1	4
580.205	1	4
581.394	1	2
582.583	1	12
583.772	1	4
584.961	1	-13
586.150	1	14
587.339	1	-3
588.528	1	6
589.717	1	6
590.905	1	-4
592.094	1	1
593.283	1	3
594.471	1	-11
595.660	1	6
596.848	1	12
598.037	1	4
599.225	1	-1
600.413	1	5
601.602	1	4
602.790	1	7
603.978	1	2
605.166	1	4
606.355	1	-5
607.543	1	5
608.731	1	4
609.919	1	-8
611.107	1	16
612.295	1	15
613.483	1	1
614.671	1	3
615.858	1	-8
617.046	1	0
618.234	1	-2
619.422	1	5
620.609	1	6
621.797	1	17
622.985	1	0
624.172	1	11
625.360	1	5
626.547	1	-5
627.735	1	-2
628.922	1	2
630.109	1	0
631.297	1	4
632.484	1	7
633.671	1	13
634.858	1	11
636.045	1	2
637.232	1	5
638.419	1	0
639.606	1	8
640.793	1	2
641.980	1	8
643.167	1	-2
644.354	1	8
645.541	1	4
646.728	1	6
647.914	1	0
649.101	1	2
650.288	1	6
651.474	1	9
652.661	1	12
653.847	1	7
655.034	1	6
656.220	1	10
657.406	1	-9
658.593	1	4
659.779	1	0
660.965	1	0
662.152	1	8
663.338	1	3
664.524	1	11
665.710	1	9
666.896	1	11
668.082	1	8
669.268	1	5
670.454	1	2
671.640	1	19
672.826	1	11
674.011	1	-5
675.197	1	4
676.383	1	9
677.569	1	7
678.754	1	-2
679.940	1	-5
681.125	1	4
682.311	1	0
683.496	1	-8
684.682	1	10
685.867	1	6
687.053	1	20
688.238	1	4
688.746	1	2