File: Data/GaN_150K_450ms/GaN_sample D_spot15_UVVIS_150 K_200um_450 ms 2x2mm1_217.txt
340.368	1	3
341.565	1	0
342.763	1	3
343.960	1	0
345.157	1	10
346.354	1	-4
347.552	1	11
348.749	1	18
349.946	1	-2
351.143	1	-4
352.340	1	14
353.537	1	-6
354.734	1	11
355.931	1	3
357.127	1	18
358.324	1	6
359.521	1	15
360.718	1	1
361.914	1	11
363.111	1	2
364.308	1	17
365.504	1	13
366.701	1	14
367.897	1	18
369.093	1	24
370.290	1	27
371.486	1	26
372.682	1	20
373.879	1	-1
375.075	1	5
376.271	1	13
377.467	1	13
378.663	1	11
379.859	1	7
381.055	1	3
382.251	1	-3
383.447	1	14
384.643	1	3
385.839	1	0
387.035	1	5
388.230	1	6
389.426	1	-3
390.622	1	-7
391.817	1	2
393.013	1	6
394.208	1	-3
395.404	1	9
396.599	1	2
397.795	1	-5
398.990	1	11
400.186	1	3
401.381	1	-3
402.576	1	3
403.771	1	-3
404.967	1	0
406.162	1	-1
407.357	1	11
408.552	1	-9
409.747	1	-2
410.942	1	11
412.137	1	6
413.332	1	12
414.526	1	-3
415.721	1	2
416.916	1	-3
418.111	1	3
419.305	1	4
420.500	1	9
421.695	1	4
422.889	1	11
424.084	1	7
425.278	1	-1
426.472	1	11
427.667	1	-4
428.861	1	5
430.055	1	9
431.250	1	9
432.444	1	10
433.638	1	1
434.832	1	7
436.026	1	-3
437.220	1	3
438.414	1	5
439.608	1	4
440.802	1	-2
441.996	1	-8
443.190	1	10
444.384	1	5
445.578	1	-1
446.771	1	-3
447.965	1	3
449.159	1	-3
450.352	1	-8
451.546	1	8
452.739	1	-6
453.933	1	5
455.126	1	3
456.320	1	8
457.513	1	1
458.706	1	14
459.899	1	0
461.093	1	4
462.286	1	-3
463.479	1	8
464.672	1	8
465.865	1	10
467.058	1	10
468.251	1	-2
469.444	1	1
470.637	1	-5
471.830	1	10
473.023	1	6
474.215	1	-3
475.408	1	8
476.601	1	4
477.793	1	0
478.986	1	10
480.179	1	4
481.371	1	-2
482.564	1	8
483.756	1	3
484.948	1	7
486.141	1	9
487.333	1	-5
488.525	1	-14
489.718	1	-9
490.910	1	5
492.102	1	5
493.294	1	0
494.486	1	5
495.678	1	6
496.870	1	10
498.062	1	-3
499.254	1	1
500.446	1	-1
501.638	1	6
502.829	1	-9
504.021	1	5
505.213	1	2
506.404	1	2
507.596	1	9
508.788	1	2
509.979	1	1
511.171	1	6
512.362	1	7
513.553	1	2
514.745	1	-4
515.936	1	5
517.127	1	10
518.319	1	1
519.510	1	1
520.701	1	9
521.892	1	7
523.083	1	-5
524.274	1	8
525.465	1	3
526.656	1	-6
527.847	1	-6
529.038	1	3
530.229	1	12
531.419	1	13
532.610	1	10
533.801	1	-1
534.991	1	-1
536.182	1	4
537.373	1	2
538.563	1	-5
539.754	1	3
540.944	1	1
542.134	1	4
543.325	1	5
544.515	1	-3
545.705	1	11
546.896	1	5
548.086	1	12
549.276	1	1
550.466	1	1
551.656	1	6
552.846	1	9
554.036	1	7
555.226	1	7
556.416	1	9
557.606	1	-6
558.796	1	8
559.986	1	9
561.175	1	0
562.365	1	-5
563.555	1	5
564.744	1	13
565.934	1	9
567.123	1	-3
568.313	1	10
569.502	1	15
570.692	1	9
571.881	1	1
573.070	1	5
574.260	1	0
575.449	1	-5
576.638	1	8
577.827	1	-5
579.016	1	11
580.205	1	8
581.394	1	-2
582.583	1	7
583.772	1	5
584.961	1	-4
586.150	1	9
587.339	1	0
588.528	1	-3
589.717	1	-4
590.905	1	-3
592.094	1	10
593.283	1	-3
594.471	1	0
595.660	1	10
596.848	1	9
598.037	1	6
599.225	1	-5
600.413	1	9
601.602	1	11
602.790	1	13
603.978	1	2
605.166	1	2
606.355	1	-11
607.543	1	3
608.731	1	-13
609.919	1	-3
611.107	1	3
612.295	1	6
613.483	1	-3
614.671	1	7
615.858	1	-9
617.046	1	-8
618.234	1	-9
619.422	1	13
620.609	1	0
621.797	1	0
622.985	1	-3
624.172	1	7
625.360	1	3
626.547	1	-8
627.735	1	0
628.922	1	-2
630.109	1	4
631.297	1	6
632.484	1	8
633.671	1	4
634.858	1	7
636.045	1	-4
637.232	1	8
638.419	1	1
639.606	1	19
640.793	1	1
641.980	1	10
643.167	1	-5
644.354	1	8
645.541	1	6
646.728	1	4
647.914	1	-3
649.101	1	-6
650.288	1	0
651.474	1	-5
652.661	1	10
653.847	1	5
655.034	1	0
656.220	1	0
657.406	1	3
658.593	1	4
659.779	1	1
660.965	1	4
662.152	1	-6
663.338	1	2
664.524	1	13
665.710	1	6
666.896	1	-1
668.082	1	1
669.268	1	-2
670.454	1	0
671.640	1	8
672.826	1	-5
674.011	1	4
675.197	1	5
676.383	1	-3
677.569	1	18
678.754	1	4
679.940	1	-1
681.125	1	2
682.311	1	1
683.496	1	4
684.682	1	10
685.867	1	-8
687.053	1	23
688.238	1	6
688.746	1	2