File: Data/GaN_150K_450ms/GaN_sample D_spot15_UVVIS_150 K_200um_450 ms 2x2mm1_140.txt
340.368	1	-3
341.565	1	0
342.763	1	0
343.960	1	7
345.157	1	13
346.354	1	5
347.552	1	24
348.749	1	16
349.946	1	10
351.143	1	11
352.340	1	8
353.537	1	7
354.734	1	5
355.931	1	3
357.127	1	14
358.324	1	4
359.521	1	19
360.718	1	13
361.914	1	25
363.111	1	15
364.308	1	29
365.504	1	29
366.701	1	36
367.897	1	42
369.093	1	49
370.290	1	40
371.486	1	39
372.682	1	31
373.879	1	20
375.075	1	14
376.271	1	15
377.467	1	19
378.663	1	25
379.859	1	18
381.055	1	3
382.251	1	6
383.447	1	14
384.643	1	11
385.839	1	13
387.035	1	9
388.230	1	8
389.426	1	10
390.622	1	6
391.817	1	3
393.013	1	9
394.208	1	2
395.404	1	10
396.599	1	6
397.795	1	-2
398.990	1	11
400.186	1	11
401.381	1	14
402.576	1	12
403.771	1	0
404.967	1	4
406.162	1	0
407.357	1	16
408.552	1	4
409.747	1	7
410.942	1	17
412.137	1	3
413.332	1	16
414.526	1	6
415.721	1	10
416.916	1	10
418.111	1	12
419.305	1	13
420.500	1	13
421.695	1	16
422.889	1	13
424.084	1	13
425.278	1	12
426.472	1	13
427.667	1	6
428.861	1	18
430.055	1	13
431.250	1	10
432.444	1	12
433.638	1	19
434.832	1	10
436.026	1	2
437.220	1	9
438.414	1	8
439.608	1	0
440.802	1	15
441.996	1	-5
443.190	1	9
444.384	1	14
445.578	1	-2
446.771	1	20
447.965	1	9
449.159	1	7
450.352	1	7
451.546	1	1
452.739	1	4
453.933	1	0
455.126	1	15
456.320	1	11
457.513	1	5
458.706	1	5
459.899	1	-3
461.093	1	6
462.286	1	5
463.479	1	0
464.672	1	15
465.865	1	3
467.058	1	3
468.251	1	1
469.444	1	7
470.637	1	7
471.830	1	2
473.023	1	6
474.215	1	5
475.408	1	12
476.601	1	1
477.793	1	-1
478.986	1	7
480.179	1	7
481.371	1	-8
482.564	1	10
483.756	1	11
484.948	1	10
486.141	1	9
487.333	1	-7
488.525	1	6
489.718	1	-8
490.910	1	9
492.102	1	12
493.294	1	-2
494.486	1	4
495.678	1	12
496.870	1	6
498.062	1	-9
499.254	1	-2
500.446	1	4
501.638	1	7
502.829	1	8
504.021	1	5
505.213	1	8
506.404	1	18
507.596	1	14
508.788	1	14
509.979	1	5
511.171	1	7
512.362	1	20
513.553	1	7
514.745	1	12
515.936	1	5
517.127	1	11
518.319	1	13
519.510	1	1
520.701	1	22
521.892	1	10
523.083	1	8
524.274	1	13
525.465	1	23
526.656	1	19
527.847	1	-1
529.038	1	15
530.229	1	16
531.419	1	15
532.610	1	16
533.801	1	8
534.991	1	8
536.182	1	12
537.373	1	11
538.563	1	6
539.754	1	16
540.944	1	11
542.134	1	16
543.325	1	22
544.515	1	15
545.705	1	8
546.896	1	7
548.086	1	11
549.276	1	10
550.466	1	13
551.656	1	8
552.846	1	10
554.036	1	15
555.226	1	21
556.416	1	16
557.606	1	-2
558.796	1	10
559.986	1	16
561.175	1	2
562.365	1	2
563.555	1	13
564.744	1	6
565.934	1	14
567.123	1	12
568.313	1	6
569.502	1	8
570.692	1	6
571.881	1	6
573.070	1	7
574.260	1	8
575.449	1	4
576.638	1	12
577.827	1	2
579.016	1	5
580.205	1	1
581.394	1	2
582.583	1	12
583.772	1	14
584.961	1	2
586.150	1	6
587.339	1	7
588.528	1	-1
589.717	1	4
590.905	1	5
592.094	1	9
593.283	1	12
594.471	1	0
595.660	1	6
596.848	1	5
598.037	1	13
599.225	1	5
600.413	1	13
601.602	1	13
602.790	1	6
603.978	1	-1
605.166	1	2
606.355	1	-6
607.543	1	13
608.731	1	-5
609.919	1	-4
611.107	1	14
612.295	1	9
613.483	1	3
614.671	1	9
615.858	1	-5
617.046	1	2
618.234	1	-8
619.422	1	17
620.609	1	0
621.797	1	8
622.985	1	0
624.172	1	0
625.360	1	9
626.547	1	3
627.735	1	5
628.922	1	10
630.109	1	-2
631.297	1	3
632.484	1	19
633.671	1	12
634.858	1	5
636.045	1	0
637.232	1	7
638.419	1	9
639.606	1	12
640.793	1	8
641.980	1	5
643.167	1	3
644.354	1	4
645.541	1	0
646.728	1	8
647.914	1	2
649.101	1	-6
650.288	1	15
651.474	1	2
652.661	1	2
653.847	1	19
655.034	1	2
656.220	1	4
657.406	1	6
658.593	1	9
659.779	1	12
660.965	1	0
662.152	1	4
663.338	1	-7
664.524	1	11
665.710	1	4
666.896	1	11
668.082	1	2
669.268	1	-1
670.454	1	1
671.640	1	17
672.826	1	7
674.011	1	4
675.197	1	13
676.383	1	0
677.569	1	17
678.754	1	7
679.940	1	2
681.125	1	2
682.311	1	10
683.496	1	-1
684.682	1	13
685.867	1	4
687.053	1	7
688.238	1	16
688.746	1	0