File: Data/GaN_150K_450ms/GaN_sample D_spot15_UVVIS_150 K_200um_450 ms 2x2mm1_130.txt
340.368	1	10
341.565	1	4
342.763	1	7
343.960	1	13
345.157	1	12
346.354	1	6
347.552	1	17
348.749	1	8
349.946	1	2
351.143	1	6
352.340	1	10
353.537	1	3
354.734	1	8
355.931	1	13
357.127	1	15
358.324	1	10
359.521	1	21
360.718	1	13
361.914	1	23
363.111	1	17
364.308	1	41
365.504	1	35
366.701	1	53
367.897	1	53
369.093	1	57
370.290	1	44
371.486	1	45
372.682	1	44
373.879	1	31
375.075	1	23
376.271	1	29
377.467	1	31
378.663	1	21
379.859	1	15
381.055	1	19
382.251	1	3
383.447	1	16
384.643	1	15
385.839	1	16
387.035	1	12
388.230	1	7
389.426	1	-3
390.622	1	6
391.817	1	-5
393.013	1	18
394.208	1	7
395.404	1	7
396.599	1	7
397.795	1	14
398.990	1	23
400.186	1	13
401.381	1	7
402.576	1	19
403.771	1	1
404.967	1	14
406.162	1	-3
407.357	1	15
408.552	1	11
409.747	1	7
410.942	1	18
412.137	1	2
413.332	1	12
414.526	1	-2
415.721	1	12
416.916	1	0
418.111	1	15
419.305	1	9
420.500	1	17
421.695	1	12
422.889	1	24
424.084	1	12
425.278	1	14
426.472	1	22
427.667	1	2
428.861	1	14
430.055	1	16
431.250	1	6
432.444	1	12
433.638	1	11
434.832	1	7
436.026	1	4
437.220	1	16
438.414	1	15
439.608	1	1
440.802	1	9
441.996	1	6
443.190	1	8
444.384	1	17
445.578	1	5
446.771	1	10
447.965	1	13
449.159	1	11
450.352	1	7
451.546	1	7
452.739	1	3
453.933	1	3
455.126	1	5
456.320	1	13
457.513	1	-1
458.706	1	15
459.899	1	3
461.093	1	16
462.286	1	0
463.479	1	3
464.672	1	5
465.865	1	7
467.058	1	6
468.251	1	5
469.444	1	17
470.637	1	6
471.830	1	5
473.023	1	6
474.215	1	3
475.408	1	6
476.601	1	8
477.793	1	10
478.986	1	6
480.179	1	4
481.371	1	-3
482.564	1	4
483.756	1	15
484.948	1	8
486.141	1	2
487.333	1	11
488.525	1	0
489.718	1	-2
490.910	1	14
492.102	1	2
493.294	1	-10
494.486	1	11
495.678	1	10
496.870	1	9
498.062	1	10
499.254	1	8
500.446	1	1
501.638	1	15
502.829	1	1
504.021	1	12
505.213	1	18
506.404	1	5
507.596	1	17
508.788	1	13
509.979	1	8
511.171	1	3
512.362	1	19
513.553	1	12
514.745	1	11
515.936	1	13
517.127	1	13
518.319	1	9
519.510	1	4
520.701	1	18
521.892	1	22
523.083	1	7
524.274	1	21
525.465	1	24
526.656	1	15
527.847	1	3
529.038	1	18
530.229	1	26
531.419	1	13
532.610	1	25
533.801	1	20
534.991	1	11
536.182	1	4
537.373	1	13
538.563	1	3
539.754	1	14
540.944	1	19
542.134	1	18
543.325	1	14
544.515	1	8
545.705	1	10
546.896	1	14
548.086	1	15
549.276	1	19
550.466	1	5
551.656	1	11
552.846	1	18
554.036	1	18
555.226	1	11
556.416	1	17
557.606	1	-1
558.796	1	14
559.986	1	9
561.175	1	1
562.365	1	9
563.555	1	10
564.744	1	12
565.934	1	22
567.123	1	10
568.313	1	22
569.502	1	14
570.692	1	16
571.881	1	6
573.070	1	8
574.260	1	10
575.449	1	-1
576.638	1	9
577.827	1	1
579.016	1	12
580.205	1	0
581.394	1	6
582.583	1	9
583.772	1	5
584.961	1	3
586.150	1	7
587.339	1	2
588.528	1	4
589.717	1	13
590.905	1	4
592.094	1	1
593.283	1	14
594.471	1	4
595.660	1	1
596.848	1	11
598.037	1	3
599.225	1	5
600.413	1	8
601.602	1	17
602.790	1	9
603.978	1	12
605.166	1	3
606.355	1	-5
607.543	1	2
608.731	1	-7
609.919	1	-2
611.107	1	8
612.295	1	8
613.483	1	1
614.671	1	-2
615.858	1	-3
617.046	1	11
618.234	1	6
619.422	1	20
620.609	1	-5
621.797	1	2
622.985	1	5
624.172	1	6
625.360	1	5
626.547	1	-1
627.735	1	10
628.922	1	14
630.109	1	3
631.297	1	8
632.484	1	14
633.671	1	12
634.858	1	6
636.045	1	-6
637.232	1	15
638.419	1	1
639.606	1	13
640.793	1	13
641.980	1	14
643.167	1	10
644.354	1	13
645.541	1	7
646.728	1	13
647.914	1	-1
649.101	1	0
650.288	1	6
651.474	1	9
652.661	1	9
653.847	1	14
655.034	1	4
656.220	1	13
657.406	1	-3
658.593	1	14
659.779	1	6
660.965	1	-10
662.152	1	1
663.338	1	3
664.524	1	17
665.710	1	11
666.896	1	3
668.082	1	6
669.268	1	-3
670.454	1	5
671.640	1	7
672.826	1	2
674.011	1	3
675.197	1	2
676.383	1	7
677.569	1	15
678.754	1	4
679.940	1	-4
681.125	1	-1
682.311	1	10
683.496	1	2
684.682	1	1
685.867	1	1
687.053	1	15
688.238	1	12
688.746	1	-3