File: Data/GaN_150K_450ms/GaN_sample D_spot15_UVVIS_150 K_200um_450 ms 2x2mm1_93.txt
340.368	1	2
341.565	1	12
342.763	1	0
343.960	1	0
345.157	1	6
346.354	1	6
347.552	1	20
348.749	1	17
349.946	1	1
351.143	1	14
352.340	1	7
353.537	1	0
354.734	1	11
355.931	1	10
357.127	1	16
358.324	1	22
359.521	1	24
360.718	1	25
361.914	1	40
363.111	1	45
364.308	1	60
365.504	1	77
366.701	1	97
367.897	1	104
369.093	1	109
370.290	1	92
371.486	1	85
372.682	1	69
373.879	1	53
375.075	1	37
376.271	1	47
377.467	1	36
378.663	1	35
379.859	1	27
381.055	1	22
382.251	1	10
383.447	1	12
384.643	1	21
385.839	1	13
387.035	1	27
388.230	1	21
389.426	1	4
390.622	1	5
391.817	1	10
393.013	1	24
394.208	1	12
395.404	1	16
396.599	1	9
397.795	1	7
398.990	1	20
400.186	1	19
401.381	1	10
402.576	1	12
403.771	1	-3
404.967	1	9
406.162	1	5
407.357	1	19
408.552	1	12
409.747	1	19
410.942	1	20
412.137	1	8
413.332	1	12
414.526	1	4
415.721	1	17
416.916	1	16
418.111	1	21
419.305	1	17
420.500	1	14
421.695	1	18
422.889	1	17
424.084	1	14
425.278	1	16
426.472	1	18
427.667	1	20
428.861	1	10
430.055	1	18
431.250	1	25
432.444	1	14
433.638	1	24
434.832	1	7
436.026	1	8
437.220	1	19
438.414	1	15
439.608	1	10
440.802	1	9
441.996	1	10
443.190	1	13
444.384	1	25
445.578	1	9
446.771	1	17
447.965	1	6
449.159	1	-3
450.352	1	16
451.546	1	11
452.739	1	15
453.933	1	14
455.126	1	12
456.320	1	13
457.513	1	15
458.706	1	19
459.899	1	7
461.093	1	17
462.286	1	12
463.479	1	11
464.672	1	9
465.865	1	8
467.058	1	13
468.251	1	5
469.444	1	5
470.637	1	8
471.830	1	7
473.023	1	8
474.215	1	14
475.408	1	7
476.601	1	4
477.793	1	3
478.986	1	19
480.179	1	12
481.371	1	-2
482.564	1	15
483.756	1	12
484.948	1	2
486.141	1	16
487.333	1	6
488.525	1	12
489.718	1	4
490.910	1	4
492.102	1	16
493.294	1	4
494.486	1	9
495.678	1	8
496.870	1	16
498.062	1	15
499.254	1	11
500.446	1	13
501.638	1	15
502.829	1	16
504.021	1	15
505.213	1	13
506.404	1	29
507.596	1	22
508.788	1	27
509.979	1	18
511.171	1	35
512.362	1	20
513.553	1	27
514.745	1	11
515.936	1	27
517.127	1	27
518.319	1	27
519.510	1	24
520.701	1	27
521.892	1	20
523.083	1	23
524.274	1	23
525.465	1	38
526.656	1	42
527.847	1	14
529.038	1	29
530.229	1	32
531.419	1	37
532.610	1	40
533.801	1	41
534.991	1	31
536.182	1	20
537.373	1	32
538.563	1	26
539.754	1	28
540.944	1	30
542.134	1	19
543.325	1	31
544.515	1	25
545.705	1	11
546.896	1	29
548.086	1	20
549.276	1	25
550.466	1	32
551.656	1	19
552.846	1	22
554.036	1	29
555.226	1	22
556.416	1	22
557.606	1	19
558.796	1	24
559.986	1	17
561.175	1	19
562.365	1	14
563.555	1	15
564.744	1	23
565.934	1	21
567.123	1	7
568.313	1	9
569.502	1	14
570.692	1	17
571.881	1	15
573.070	1	20
574.260	1	11
575.449	1	2
576.638	1	19
577.827	1	12
579.016	1	12
580.205	1	13
581.394	1	11
582.583	1	15
583.772	1	15
584.961	1	5
586.150	1	11
587.339	1	18
588.528	1	3
589.717	1	10
590.905	1	6
592.094	1	13
593.283	1	11
594.471	1	-3
595.660	1	8
596.848	1	10
598.037	1	5
599.225	1	6
600.413	1	6
601.602	1	8
602.790	1	6
603.978	1	8
605.166	1	13
606.355	1	-3
607.543	1	12
608.731	1	5
609.919	1	5
611.107	1	14
612.295	1	10
613.483	1	13
614.671	1	6
615.858	1	4
617.046	1	5
618.234	1	4
619.422	1	19
620.609	1	-6
621.797	1	7
622.985	1	2
624.172	1	12
625.360	1	8
626.547	1	4
627.735	1	9
628.922	1	9
630.109	1	-2
631.297	1	15
632.484	1	7
633.671	1	9
634.858	1	17
636.045	1	-4
637.232	1	8
638.419	1	-1
639.606	1	13
640.793	1	-5
641.980	1	14
643.167	1	10
644.354	1	9
645.541	1	-1
646.728	1	13
647.914	1	5
649.101	1	-4
650.288	1	3
651.474	1	8
652.661	1	10
653.847	1	9
655.034	1	8
656.220	1	4
657.406	1	-4
658.593	1	10
659.779	1	8
660.965	1	4
662.152	1	-4
663.338	1	-3
664.524	1	12
665.710	1	16
666.896	1	2
668.082	1	6
669.268	1	-1
670.454	1	2
671.640	1	3
672.826	1	3
674.011	1	11
675.197	1	10
676.383	1	9
677.569	1	13
678.754	1	7
679.940	1	-5
681.125	1	1
682.311	1	12
683.496	1	2
684.682	1	13
685.867	1	8
687.053	1	24
688.238	1	20
688.746	1	5