File: Data/GaN_150K_450ms/GaN_sample D_spot15_UVVIS_150 K_200um_450 ms 2x2mm1_106.txt
340.368	1	-7
341.565	1	16
342.763	1	13
343.960	1	9
345.157	1	12
346.354	1	-1
347.552	1	19
348.749	1	9
349.946	1	7
351.143	1	5
352.340	1	-1
353.537	1	-1
354.734	1	5
355.931	1	14
357.127	1	22
358.324	1	10
359.521	1	22
360.718	1	24
361.914	1	27
363.111	1	43
364.308	1	55
365.504	1	61
366.701	1	62
367.897	1	71
369.093	1	84
370.290	1	74
371.486	1	69
372.682	1	59
373.879	1	45
375.075	1	40
376.271	1	40
377.467	1	32
378.663	1	32
379.859	1	24
381.055	1	17
382.251	1	19
383.447	1	21
384.643	1	16
385.839	1	15
387.035	1	10
388.230	1	8
389.426	1	6
390.622	1	4
391.817	1	6
393.013	1	12
394.208	1	11
395.404	1	8
396.599	1	16
397.795	1	8
398.990	1	20
400.186	1	15
401.381	1	4
402.576	1	11
403.771	1	9
404.967	1	12
406.162	1	12
407.357	1	18
408.552	1	14
409.747	1	15
410.942	1	21
412.137	1	4
413.332	1	12
414.526	1	7
415.721	1	10
416.916	1	15
418.111	1	24
419.305	1	14
420.500	1	7
421.695	1	10
422.889	1	12
424.084	1	10
425.278	1	13
426.472	1	14
427.667	1	11
428.861	1	12
430.055	1	14
431.250	1	19
432.444	1	19
433.638	1	10
434.832	1	18
436.026	1	15
437.220	1	16
438.414	1	17
439.608	1	3
440.802	1	8
441.996	1	14
443.190	1	14
444.384	1	12
445.578	1	11
446.771	1	14
447.965	1	11
449.159	1	3
450.352	1	6
451.546	1	6
452.739	1	6
453.933	1	12
455.126	1	9
456.320	1	16
457.513	1	6
458.706	1	18
459.899	1	8
461.093	1	12
462.286	1	8
463.479	1	4
464.672	1	8
465.865	1	6
467.058	1	8
468.251	1	0
469.444	1	14
470.637	1	7
471.830	1	13
473.023	1	15
474.215	1	12
475.408	1	3
476.601	1	0
477.793	1	9
478.986	1	15
480.179	1	18
481.371	1	-2
482.564	1	10
483.756	1	13
484.948	1	15
486.141	1	5
487.333	1	0
488.525	1	5
489.718	1	2
490.910	1	22
492.102	1	12
493.294	1	6
494.486	1	11
495.678	1	9
496.870	1	8
498.062	1	14
499.254	1	11
500.446	1	3
501.638	1	18
502.829	1	5
504.021	1	18
505.213	1	13
506.404	1	16
507.596	1	19
508.788	1	11
509.979	1	22
511.171	1	11
512.362	1	22
513.553	1	28
514.745	1	21
515.936	1	13
517.127	1	32
518.319	1	14
519.510	1	11
520.701	1	18
521.892	1	16
523.083	1	28
524.274	1	14
525.465	1	34
526.656	1	20
527.847	1	22
529.038	1	19
530.229	1	23
531.419	1	19
532.610	1	27
533.801	1	27
534.991	1	22
536.182	1	13
537.373	1	14
538.563	1	22
539.754	1	19
540.944	1	21
542.134	1	22
543.325	1	24
544.515	1	19
545.705	1	24
546.896	1	19
548.086	1	26
549.276	1	28
550.466	1	9
551.656	1	18
552.846	1	25
554.036	1	29
555.226	1	18
556.416	1	26
557.606	1	2
558.796	1	12
559.986	1	18
561.175	1	13
562.365	1	14
563.555	1	17
564.744	1	14
565.934	1	20
567.123	1	17
568.313	1	8
569.502	1	10
570.692	1	12
571.881	1	6
573.070	1	13
574.260	1	11
575.449	1	12
576.638	1	16
577.827	1	1
579.016	1	7
580.205	1	6
581.394	1	4
582.583	1	14
583.772	1	13
584.961	1	4
586.150	1	16
587.339	1	7
588.528	1	5
589.717	1	10
590.905	1	0
592.094	1	17
593.283	1	10
594.471	1	2
595.660	1	7
596.848	1	11
598.037	1	7
599.225	1	10
600.413	1	7
601.602	1	11
602.790	1	12
603.978	1	6
605.166	1	11
606.355	1	-13
607.543	1	3
608.731	1	-4
609.919	1	1
611.107	1	16
612.295	1	2
613.483	1	7
614.671	1	10
615.858	1	-6
617.046	1	5
618.234	1	5
619.422	1	10
620.609	1	-2
621.797	1	10
622.985	1	6
624.172	1	8
625.360	1	11
626.547	1	12
627.735	1	4
628.922	1	13
630.109	1	-13
631.297	1	1
632.484	1	16
633.671	1	10
634.858	1	8
636.045	1	3
637.232	1	11
638.419	1	-5
639.606	1	6
640.793	1	1
641.980	1	12
643.167	1	9
644.354	1	13
645.541	1	5
646.728	1	16
647.914	1	5
649.101	1	2
650.288	1	14
651.474	1	10
652.661	1	6
653.847	1	10
655.034	1	3
656.220	1	7
657.406	1	-2
658.593	1	10
659.779	1	10
660.965	1	9
662.152	1	3
663.338	1	7
664.524	1	14
665.710	1	3
666.896	1	9
668.082	1	5
669.268	1	3
670.454	1	9
671.640	1	4
672.826	1	6
674.011	1	10
675.197	1	6
676.383	1	9
677.569	1	20
678.754	1	5
679.940	1	5
681.125	1	-7
682.311	1	13
683.496	1	5
684.682	1	15
685.867	1	7
687.053	1	15
688.238	1	13
688.746	1	4