File: Data/GaN_150K_450ms/GaN_sample D_spot15_UVVIS_150 K_200um_450 ms 2x2mm1_294.txt
340.368	1	-1
341.565	1	5
342.763	1	-2
343.960	1	10
345.157	1	13
346.354	1	7
347.552	1	9
348.749	1	8
349.946	1	-4
351.143	1	4
352.340	1	1
353.537	1	0
354.734	1	8
355.931	1	6
357.127	1	11
358.324	1	6
359.521	1	7
360.718	1	3
361.914	1	-1
363.111	1	11
364.308	1	5
365.504	1	-6
366.701	1	14
367.897	1	15
369.093	1	14
370.290	1	15
371.486	1	15
372.682	1	8
373.879	1	-3
375.075	1	2
376.271	1	-1
377.467	1	15
378.663	1	9
379.859	1	-1
381.055	1	-2
382.251	1	-3
383.447	1	-6
384.643	1	2
385.839	1	2
387.035	1	8
388.230	1	4
389.426	1	-3
390.622	1	2
391.817	1	-9
393.013	1	2
394.208	1	4
395.404	1	7
396.599	1	-3
397.795	1	6
398.990	1	5
400.186	1	6
401.381	1	2
402.576	1	2
403.771	1	-3
404.967	1	3
406.162	1	-7
407.357	1	5
408.552	1	-8
409.747	1	-2
410.942	1	11
412.137	1	-9
413.332	1	9
414.526	1	1
415.721	1	7
416.916	1	-3
418.111	1	7
419.305	1	7
420.500	1	4
421.695	1	5
422.889	1	12
424.084	1	10
425.278	1	7
426.472	1	12
427.667	1	-4
428.861	1	13
430.055	1	6
431.250	1	2
432.444	1	-1
433.638	1	5
434.832	1	11
436.026	1	-3
437.220	1	13
438.414	1	11
439.608	1	-3
440.802	1	1
441.996	1	-1
443.190	1	9
444.384	1	9
445.578	1	-3
446.771	1	3
447.965	1	4
449.159	1	2
450.352	1	-2
451.546	1	6
452.739	1	-2
453.933	1	4
455.126	1	-5
456.320	1	10
457.513	1	-5
458.706	1	2
459.899	1	5
461.093	1	15
462.286	1	-5
463.479	1	-6
464.672	1	7
465.865	1	-2
467.058	1	2
468.251	1	-5
469.444	1	7
470.637	1	-2
471.830	1	-3
473.023	1	7
474.215	1	4
475.408	1	-1
476.601	1	4
477.793	1	-1
478.986	1	9
480.179	1	9
481.371	1	-11
482.564	1	6
483.756	1	-1
484.948	1	13
486.141	1	5
487.333	1	-2
488.525	1	-3
489.718	1	-14
490.910	1	8
492.102	1	-4
493.294	1	-9
494.486	1	-7
495.678	1	0
496.870	1	3
498.062	1	-4
499.254	1	-8
500.446	1	-9
501.638	1	-7
502.829	1	2
504.021	1	3
505.213	1	-1
506.404	1	-1
507.596	1	7
508.788	1	5
509.979	1	1
511.171	1	3
512.362	1	6
513.553	1	8
514.745	1	5
515.936	1	-9
517.127	1	3
518.319	1	-6
519.510	1	-5
520.701	1	2
521.892	1	1
523.083	1	-4
524.274	1	-2
525.465	1	4
526.656	1	1
527.847	1	-5
529.038	1	4
530.229	1	10
531.419	1	5
532.610	1	2
533.801	1	3
534.991	1	-1
536.182	1	1
537.373	1	2
538.563	1	7
539.754	1	1
540.944	1	5
542.134	1	0
543.325	1	14
544.515	1	3
545.705	1	8
546.896	1	4
548.086	1	4
549.276	1	-3
550.466	1	4
551.656	1	-1
552.846	1	5
554.036	1	7
555.226	1	0
556.416	1	8
557.606	1	-1
558.796	1	12
559.986	1	13
561.175	1	-3
562.365	1	2
563.555	1	3
564.744	1	13
565.934	1	5
567.123	1	11
568.313	1	0
569.502	1	5
570.692	1	0
571.881	1	-3
573.070	1	-2
574.260	1	-4
575.449	1	0
576.638	1	3
577.827	1	-4
579.016	1	3
580.205	1	3
581.394	1	-1
582.583	1	3
583.772	1	10
584.961	1	-2
586.150	1	6
587.339	1	-1
588.528	1	1
589.717	1	2
590.905	1	2
592.094	1	6
593.283	1	0
594.471	1	-8
595.660	1	7
596.848	1	5
598.037	1	4
599.225	1	-2
600.413	1	4
601.602	1	5
602.790	1	-4
603.978	1	0
605.166	1	7
606.355	1	-10
607.543	1	3
608.731	1	-6
609.919	1	1
611.107	1	6
612.295	1	6
613.483	1	-3
614.671	1	6
615.858	1	-6
617.046	1	9
618.234	1	6
619.422	1	9
620.609	1	-6
621.797	1	5
622.985	1	-8
624.172	1	-1
625.360	1	7
626.547	1	3
627.735	1	1
628.922	1	13
630.109	1	-6
631.297	1	5
632.484	1	14
633.671	1	6
634.858	1	-1
636.045	1	-1
637.232	1	1
638.419	1	-7
639.606	1	6
640.793	1	-3
641.980	1	17
643.167	1	1
644.354	1	2
645.541	1	7
646.728	1	5
647.914	1	9
649.101	1	-4
650.288	1	4
651.474	1	11
652.661	1	5
653.847	1	4
655.034	1	5
656.220	1	2
657.406	1	-1
658.593	1	0
659.779	1	7
660.965	1	3
662.152	1	-2
663.338	1	-8
664.524	1	9
665.710	1	4
666.896	1	7
668.082	1	-2
669.268	1	-7
670.454	1	8
671.640	1	6
672.826	1	-4
674.011	1	9
675.197	1	3
676.383	1	3
677.569	1	25
678.754	1	-2
679.940	1	0
681.125	1	0
682.311	1	7
683.496	1	-8
684.682	1	5
685.867	1	-3
687.053	1	19
688.238	1	-1
688.746	1	-4