File: Data/GaN_150K_450ms/GaN_sample D_spot15_UVVIS_150 K_200um_450 ms 2x2mm1_131.txt
340.368	1	2
341.565	1	12
342.763	1	8
343.960	1	9
345.157	1	13
346.354	1	6
347.552	1	17
348.749	1	5
349.946	1	0
351.143	1	10
352.340	1	7
353.537	1	-2
354.734	1	7
355.931	1	16
357.127	1	16
358.324	1	5
359.521	1	17
360.718	1	13
361.914	1	16
363.111	1	18
364.308	1	28
365.504	1	42
366.701	1	43
367.897	1	39
369.093	1	50
370.290	1	48
371.486	1	49
372.682	1	28
373.879	1	33
375.075	1	17
376.271	1	22
377.467	1	35
378.663	1	18
379.859	1	10
381.055	1	8
382.251	1	7
383.447	1	10
384.643	1	1
385.839	1	16
387.035	1	19
388.230	1	9
389.426	1	3
390.622	1	11
391.817	1	1
393.013	1	19
394.208	1	5
395.404	1	15
396.599	1	12
397.795	1	6
398.990	1	15
400.186	1	3
401.381	1	8
402.576	1	16
403.771	1	1
404.967	1	4
406.162	1	4
407.357	1	6
408.552	1	4
409.747	1	8
410.942	1	16
412.137	1	12
413.332	1	11
414.526	1	6
415.721	1	12
416.916	1	5
418.111	1	22
419.305	1	19
420.500	1	14
421.695	1	15
422.889	1	11
424.084	1	10
425.278	1	11
426.472	1	10
427.667	1	14
428.861	1	25
430.055	1	23
431.250	1	16
432.444	1	14
433.638	1	14
434.832	1	7
436.026	1	1
437.220	1	22
438.414	1	15
439.608	1	2
440.802	1	15
441.996	1	5
443.190	1	22
444.384	1	18
445.578	1	-8
446.771	1	18
447.965	1	7
449.159	1	-2
450.352	1	2
451.546	1	14
452.739	1	6
453.933	1	-2
455.126	1	10
456.320	1	13
457.513	1	13
458.706	1	7
459.899	1	1
461.093	1	9
462.286	1	2
463.479	1	-6
464.672	1	8
465.865	1	5
467.058	1	4
468.251	1	4
469.444	1	14
470.637	1	10
471.830	1	9
473.023	1	9
474.215	1	7
475.408	1	7
476.601	1	11
477.793	1	11
478.986	1	16
480.179	1	2
481.371	1	-2
482.564	1	2
483.756	1	6
484.948	1	6
486.141	1	4
487.333	1	-1
488.525	1	-1
489.718	1	3
490.910	1	6
492.102	1	6
493.294	1	-9
494.486	1	5
495.678	1	7
496.870	1	-1
498.062	1	7
499.254	1	5
500.446	1	2
501.638	1	6
502.829	1	5
504.021	1	11
505.213	1	-1
506.404	1	15
507.596	1	24
508.788	1	13
509.979	1	11
511.171	1	20
512.362	1	14
513.553	1	10
514.745	1	16
515.936	1	9
517.127	1	24
518.319	1	7
519.510	1	12
520.701	1	19
521.892	1	11
523.083	1	6
524.274	1	12
525.465	1	13
526.656	1	11
527.847	1	11
529.038	1	18
530.229	1	16
531.419	1	20
532.610	1	9
533.801	1	17
534.991	1	13
536.182	1	14
537.373	1	15
538.563	1	9
539.754	1	9
540.944	1	15
542.134	1	16
543.325	1	15
544.515	1	16
545.705	1	14
546.896	1	15
548.086	1	23
549.276	1	11
550.466	1	5
551.656	1	18
552.846	1	9
554.036	1	17
555.226	1	12
556.416	1	15
557.606	1	-3
558.796	1	8
559.986	1	14
561.175	1	5
562.365	1	5
563.555	1	13
564.744	1	9
565.934	1	15
567.123	1	13
568.313	1	12
569.502	1	12
570.692	1	9
571.881	1	3
573.070	1	13
574.260	1	10
575.449	1	8
576.638	1	14
577.827	1	4
579.016	1	10
580.205	1	6
581.394	1	5
582.583	1	10
583.772	1	5
584.961	1	-5
586.150	1	4
587.339	1	9
588.528	1	-2
589.717	1	5
590.905	1	4
592.094	1	13
593.283	1	4
594.471	1	-13
595.660	1	21
596.848	1	3
598.037	1	8
599.225	1	5
600.413	1	3
601.602	1	2
602.790	1	9
603.978	1	3
605.166	1	9
606.355	1	2
607.543	1	4
608.731	1	-1
609.919	1	-3
611.107	1	14
612.295	1	3
613.483	1	-3
614.671	1	7
615.858	1	-5
617.046	1	12
618.234	1	2
619.422	1	13
620.609	1	3
621.797	1	7
622.985	1	-1
624.172	1	-2
625.360	1	6
626.547	1	4
627.735	1	7
628.922	1	7
630.109	1	7
631.297	1	1
632.484	1	17
633.671	1	16
634.858	1	1
636.045	1	0
637.232	1	2
638.419	1	-2
639.606	1	11
640.793	1	4
641.980	1	11
643.167	1	5
644.354	1	9
645.541	1	9
646.728	1	4
647.914	1	13
649.101	1	2
650.288	1	12
651.474	1	-2
652.661	1	3
653.847	1	0
655.034	1	2
656.220	1	-1
657.406	1	9
658.593	1	8
659.779	1	11
660.965	1	0
662.152	1	1
663.338	1	-7
664.524	1	9
665.710	1	2
666.896	1	7
668.082	1	7
669.268	1	8
670.454	1	9
671.640	1	0
672.826	1	-3
674.011	1	9
675.197	1	8
676.383	1	9
677.569	1	7
678.754	1	5
679.940	1	3
681.125	1	5
682.311	1	10
683.496	1	-1
684.682	1	5
685.867	1	5
687.053	1	18
688.238	1	20
688.746	1	5