File: Data/GaN_150K_450ms/GaN_sample D_spot15_UVVIS_150 K_200um_450 ms 2x2mm1_83.txt
340.368	1	6
341.565	1	10
342.763	1	12
343.960	1	15
345.157	1	14
346.354	1	3
347.552	1	16
348.749	1	16
349.946	1	7
351.143	1	16
352.340	1	7
353.537	1	6
354.734	1	13
355.931	1	19
357.127	1	17
358.324	1	21
359.521	1	30
360.718	1	32
361.914	1	47
363.111	1	55
364.308	1	87
365.504	1	99
366.701	1	123
367.897	1	143
369.093	1	147
370.290	1	126
371.486	1	123
372.682	1	83
373.879	1	83
375.075	1	43
376.271	1	61
377.467	1	54
378.663	1	44
379.859	1	42
381.055	1	19
382.251	1	23
383.447	1	30
384.643	1	30
385.839	1	24
387.035	1	17
388.230	1	21
389.426	1	5
390.622	1	8
391.817	1	8
393.013	1	11
394.208	1	8
395.404	1	21
396.599	1	12
397.795	1	19
398.990	1	22
400.186	1	17
401.381	1	14
402.576	1	15
403.771	1	5
404.967	1	22
406.162	1	11
407.357	1	17
408.552	1	17
409.747	1	10
410.942	1	24
412.137	1	19
413.332	1	11
414.526	1	7
415.721	1	18
416.916	1	17
418.111	1	13
419.305	1	9
420.500	1	16
421.695	1	20
422.889	1	16
424.084	1	20
425.278	1	21
426.472	1	21
427.667	1	14
428.861	1	18
430.055	1	20
431.250	1	20
432.444	1	18
433.638	1	18
434.832	1	13
436.026	1	15
437.220	1	8
438.414	1	6
439.608	1	1
440.802	1	14
441.996	1	4
443.190	1	7
444.384	1	20
445.578	1	7
446.771	1	8
447.965	1	8
449.159	1	4
450.352	1	0
451.546	1	15
452.739	1	13
453.933	1	11
455.126	1	11
456.320	1	24
457.513	1	10
458.706	1	16
459.899	1	5
461.093	1	4
462.286	1	3
463.479	1	15
464.672	1	12
465.865	1	-1
467.058	1	6
468.251	1	4
469.444	1	5
470.637	1	6
471.830	1	8
473.023	1	10
474.215	1	14
475.408	1	19
476.601	1	21
477.793	1	8
478.986	1	19
480.179	1	10
481.371	1	-9
482.564	1	16
483.756	1	9
484.948	1	11
486.141	1	18
487.333	1	6
488.525	1	4
489.718	1	6
490.910	1	28
492.102	1	15
493.294	1	9
494.486	1	11
495.678	1	14
496.870	1	18
498.062	1	14
499.254	1	11
500.446	1	17
501.638	1	21
502.829	1	21
504.021	1	19
505.213	1	30
506.404	1	31
507.596	1	30
508.788	1	35
509.979	1	28
511.171	1	26
512.362	1	32
513.553	1	33
514.745	1	31
515.936	1	30
517.127	1	48
518.319	1	35
519.510	1	34
520.701	1	42
521.892	1	37
523.083	1	38
524.274	1	47
525.465	1	55
526.656	1	44
527.847	1	33
529.038	1	45
530.229	1	45
531.419	1	36
532.610	1	45
533.801	1	44
534.991	1	32
536.182	1	39
537.373	1	36
538.563	1	32
539.754	1	37
540.944	1	44
542.134	1	24
543.325	1	46
544.515	1	37
545.705	1	32
546.896	1	44
548.086	1	37
549.276	1	38
550.466	1	36
551.656	1	46
552.846	1	38
554.036	1	26
555.226	1	34
556.416	1	29
557.606	1	26
558.796	1	28
559.986	1	33
561.175	1	24
562.365	1	22
563.555	1	33
564.744	1	33
565.934	1	39
567.123	1	16
568.313	1	22
569.502	1	22
570.692	1	19
571.881	1	19
573.070	1	16
574.260	1	16
575.449	1	17
576.638	1	21
577.827	1	1
579.016	1	25
580.205	1	15
581.394	1	16
582.583	1	16
583.772	1	27
584.961	1	8
586.150	1	21
587.339	1	5
588.528	1	13
589.717	1	18
590.905	1	7
592.094	1	9
593.283	1	12
594.471	1	5
595.660	1	12
596.848	1	15
598.037	1	8
599.225	1	11
600.413	1	10
601.602	1	16
602.790	1	15
603.978	1	8
605.166	1	8
606.355	1	-4
607.543	1	15
608.731	1	3
609.919	1	-1
611.107	1	7
612.295	1	14
613.483	1	6
614.671	1	8
615.858	1	-3
617.046	1	8
618.234	1	8
619.422	1	13
620.609	1	5
621.797	1	7
622.985	1	7
624.172	1	5
625.360	1	5
626.547	1	9
627.735	1	5
628.922	1	5
630.109	1	4
631.297	1	8
632.484	1	16
633.671	1	11
634.858	1	14
636.045	1	11
637.232	1	5
638.419	1	-5
639.606	1	10
640.793	1	9
641.980	1	20
643.167	1	5
644.354	1	3
645.541	1	6
646.728	1	16
647.914	1	13
649.101	1	5
650.288	1	5
651.474	1	20
652.661	1	12
653.847	1	5
655.034	1	0
656.220	1	5
657.406	1	2
658.593	1	4
659.779	1	8
660.965	1	9
662.152	1	6
663.338	1	6
664.524	1	20
665.710	1	4
666.896	1	2
668.082	1	9
669.268	1	0
670.454	1	7
671.640	1	17
672.826	1	0
674.011	1	5
675.197	1	9
676.383	1	9
677.569	1	21
678.754	1	6
679.940	1	4
681.125	1	3
682.311	1	8
683.496	1	7
684.682	1	4
685.867	1	11
687.053	1	19
688.238	1	21
688.746	1	1