File: Data/GaN_150K_450ms/GaN_sample D_spot15_UVVIS_150 K_200um_450 ms 2x2mm1_241.txt
340.368	1	-3
341.565	1	3
342.763	1	5
343.960	1	2
345.157	1	16
346.354	1	8
347.552	1	13
348.749	1	2
349.946	1	0
351.143	1	2
352.340	1	6
353.537	1	-5
354.734	1	-5
355.931	1	10
357.127	1	8
358.324	1	4
359.521	1	13
360.718	1	1
361.914	1	10
363.111	1	16
364.308	1	14
365.504	1	12
366.701	1	9
367.897	1	16
369.093	1	16
370.290	1	21
371.486	1	20
372.682	1	12
373.879	1	5
375.075	1	2
376.271	1	-2
377.467	1	15
378.663	1	18
379.859	1	8
381.055	1	9
382.251	1	-7
383.447	1	0
384.643	1	7
385.839	1	-2
387.035	1	10
388.230	1	9
389.426	1	1
390.622	1	-2
391.817	1	-15
393.013	1	11
394.208	1	1
395.404	1	7
396.599	1	5
397.795	1	2
398.990	1	16
400.186	1	9
401.381	1	6
402.576	1	8
403.771	1	1
404.967	1	3
406.162	1	-5
407.357	1	4
408.552	1	-5
409.747	1	6
410.942	1	6
412.137	1	3
413.332	1	0
414.526	1	2
415.721	1	3
416.916	1	-9
418.111	1	1
419.305	1	1
420.500	1	9
421.695	1	10
422.889	1	-1
424.084	1	9
425.278	1	2
426.472	1	3
427.667	1	-4
428.861	1	5
430.055	1	18
431.250	1	6
432.444	1	1
433.638	1	3
434.832	1	-8
436.026	1	0
437.220	1	8
438.414	1	10
439.608	1	-6
440.802	1	-3
441.996	1	2
443.190	1	4
444.384	1	11
445.578	1	-4
446.771	1	10
447.965	1	4
449.159	1	5
450.352	1	0
451.546	1	2
452.739	1	9
453.933	1	0
455.126	1	9
456.320	1	7
457.513	1	-5
458.706	1	0
459.899	1	-3
461.093	1	5
462.286	1	1
463.479	1	-3
464.672	1	2
465.865	1	1
467.058	1	0
468.251	1	-9
469.444	1	9
470.637	1	11
471.830	1	6
473.023	1	5
474.215	1	-7
475.408	1	-2
476.601	1	-5
477.793	1	-4
478.986	1	7
480.179	1	3
481.371	1	-4
482.564	1	8
483.756	1	-2
484.948	1	0
486.141	1	9
487.333	1	-6
488.525	1	-9
489.718	1	-3
490.910	1	7
492.102	1	3
493.294	1	-18
494.486	1	1
495.678	1	2
496.870	1	5
498.062	1	-8
499.254	1	-4
500.446	1	3
501.638	1	2
502.829	1	-2
504.021	1	5
505.213	1	-1
506.404	1	-2
507.596	1	13
508.788	1	1
509.979	1	3
511.171	1	10
512.362	1	8
513.553	1	3
514.745	1	8
515.936	1	0
517.127	1	9
518.319	1	1
519.510	1	4
520.701	1	12
521.892	1	6
523.083	1	3
524.274	1	5
525.465	1	16
526.656	1	5
527.847	1	-4
529.038	1	3
530.229	1	7
531.419	1	3
532.610	1	10
533.801	1	2
534.991	1	3
536.182	1	-5
537.373	1	-1
538.563	1	7
539.754	1	3
540.944	1	6
542.134	1	2
543.325	1	11
544.515	1	3
545.705	1	0
546.896	1	7
548.086	1	13
549.276	1	10
550.466	1	4
551.656	1	0
552.846	1	9
554.036	1	10
555.226	1	4
556.416	1	13
557.606	1	-4
558.796	1	15
559.986	1	12
561.175	1	3
562.365	1	8
563.555	1	1
564.744	1	12
565.934	1	10
567.123	1	-1
568.313	1	2
569.502	1	6
570.692	1	15
571.881	1	-4
573.070	1	11
574.260	1	13
575.449	1	6
576.638	1	6
577.827	1	4
579.016	1	1
580.205	1	4
581.394	1	0
582.583	1	14
583.772	1	9
584.961	1	-9
586.150	1	2
587.339	1	1
588.528	1	-5
589.717	1	-3
590.905	1	0
592.094	1	1
593.283	1	-2
594.471	1	-2
595.660	1	7
596.848	1	0
598.037	1	-4
599.225	1	3
600.413	1	4
601.602	1	8
602.790	1	13
603.978	1	6
605.166	1	4
606.355	1	-15
607.543	1	7
608.731	1	-8
609.919	1	-3
611.107	1	12
612.295	1	4
613.483	1	-1
614.671	1	5
615.858	1	-5
617.046	1	2
618.234	1	-7
619.422	1	14
620.609	1	-4
621.797	1	4
622.985	1	0
624.172	1	-4
625.360	1	-2
626.547	1	-12
627.735	1	3
628.922	1	12
630.109	1	-6
631.297	1	5
632.484	1	6
633.671	1	4
634.858	1	11
636.045	1	0
637.232	1	2
638.419	1	-4
639.606	1	15
640.793	1	-1
641.980	1	9
643.167	1	5
644.354	1	14
645.541	1	-2
646.728	1	0
647.914	1	5
649.101	1	2
650.288	1	5
651.474	1	4
652.661	1	0
653.847	1	7
655.034	1	-5
656.220	1	-1
657.406	1	-12
658.593	1	4
659.779	1	16
660.965	1	-1
662.152	1	0
663.338	1	-11
664.524	1	14
665.710	1	2
666.896	1	11
668.082	1	6
669.268	1	-2
670.454	1	6
671.640	1	7
672.826	1	-2
674.011	1	9
675.197	1	11
676.383	1	-1
677.569	1	13
678.754	1	0
679.940	1	-2
681.125	1	1
682.311	1	2
683.496	1	-2
684.682	1	2
685.867	1	-7
687.053	1	16
688.238	1	2
688.746	1	-3