File: Data/GaN_150K_450ms/GaN_sample D_spot15_UVVIS_150 K_200um_450 ms 2x2mm1_103.txt
340.368	1	5
341.565	1	6
342.763	1	6
343.960	1	10
345.157	1	12
346.354	1	12
347.552	1	16
348.749	1	15
349.946	1	6
351.143	1	14
352.340	1	6
353.537	1	4
354.734	1	14
355.931	1	23
357.127	1	11
358.324	1	15
359.521	1	22
360.718	1	16
361.914	1	40
363.111	1	42
364.308	1	55
365.504	1	54
366.701	1	70
367.897	1	86
369.093	1	83
370.290	1	76
371.486	1	61
372.682	1	69
373.879	1	39
375.075	1	35
376.271	1	29
377.467	1	37
378.663	1	30
379.859	1	23
381.055	1	10
382.251	1	-1
383.447	1	8
384.643	1	22
385.839	1	12
387.035	1	13
388.230	1	14
389.426	1	3
390.622	1	5
391.817	1	3
393.013	1	11
394.208	1	11
395.404	1	17
396.599	1	6
397.795	1	11
398.990	1	15
400.186	1	14
401.381	1	16
402.576	1	12
403.771	1	5
404.967	1	14
406.162	1	6
407.357	1	18
408.552	1	-1
409.747	1	16
410.942	1	17
412.137	1	17
413.332	1	15
414.526	1	10
415.721	1	21
416.916	1	11
418.111	1	13
419.305	1	19
420.500	1	20
421.695	1	28
422.889	1	19
424.084	1	13
425.278	1	15
426.472	1	21
427.667	1	10
428.861	1	17
430.055	1	17
431.250	1	22
432.444	1	12
433.638	1	20
434.832	1	8
436.026	1	15
437.220	1	24
438.414	1	8
439.608	1	5
440.802	1	15
441.996	1	10
443.190	1	8
444.384	1	21
445.578	1	11
446.771	1	5
447.965	1	11
449.159	1	5
450.352	1	0
451.546	1	1
452.739	1	7
453.933	1	17
455.126	1	13
456.320	1	21
457.513	1	1
458.706	1	14
459.899	1	8
461.093	1	1
462.286	1	7
463.479	1	4
464.672	1	5
465.865	1	-1
467.058	1	8
468.251	1	5
469.444	1	-4
470.637	1	7
471.830	1	6
473.023	1	9
474.215	1	6
475.408	1	16
476.601	1	13
477.793	1	-1
478.986	1	16
480.179	1	10
481.371	1	0
482.564	1	14
483.756	1	8
484.948	1	9
486.141	1	15
487.333	1	-1
488.525	1	10
489.718	1	1
490.910	1	9
492.102	1	5
493.294	1	1
494.486	1	2
495.678	1	8
496.870	1	16
498.062	1	3
499.254	1	9
500.446	1	6
501.638	1	18
502.829	1	19
504.021	1	21
505.213	1	16
506.404	1	9
507.596	1	31
508.788	1	18
509.979	1	22
511.171	1	17
512.362	1	26
513.553	1	26
514.745	1	18
515.936	1	23
517.127	1	26
518.319	1	22
519.510	1	18
520.701	1	21
521.892	1	21
523.083	1	16
524.274	1	18
525.465	1	23
526.656	1	42
527.847	1	11
529.038	1	26
530.229	1	24
531.419	1	31
532.610	1	28
533.801	1	18
534.991	1	16
536.182	1	15
537.373	1	27
538.563	1	18
539.754	1	26
540.944	1	24
542.134	1	22
543.325	1	31
544.515	1	21
545.705	1	31
546.896	1	15
548.086	1	19
549.276	1	20
550.466	1	14
551.656	1	19
552.846	1	23
554.036	1	26
555.226	1	26
556.416	1	22
557.606	1	6
558.796	1	12
559.986	1	19
561.175	1	17
562.365	1	22
563.555	1	17
564.744	1	21
565.934	1	23
567.123	1	10
568.313	1	19
569.502	1	11
570.692	1	15
571.881	1	13
573.070	1	18
574.260	1	9
575.449	1	12
576.638	1	23
577.827	1	3
579.016	1	11
580.205	1	12
581.394	1	7
582.583	1	15
583.772	1	6
584.961	1	1
586.150	1	19
587.339	1	15
588.528	1	2
589.717	1	3
590.905	1	10
592.094	1	12
593.283	1	5
594.471	1	-1
595.660	1	11
596.848	1	7
598.037	1	3
599.225	1	5
600.413	1	14
601.602	1	10
602.790	1	20
603.978	1	9
605.166	1	5
606.355	1	-8
607.543	1	-5
608.731	1	3
609.919	1	1
611.107	1	19
612.295	1	5
613.483	1	10
614.671	1	-1
615.858	1	3
617.046	1	2
618.234	1	1
619.422	1	13
620.609	1	3
621.797	1	10
622.985	1	5
624.172	1	9
625.360	1	3
626.547	1	0
627.735	1	9
628.922	1	14
630.109	1	0
631.297	1	9
632.484	1	9
633.671	1	15
634.858	1	14
636.045	1	1
637.232	1	0
638.419	1	-4
639.606	1	13
640.793	1	5
641.980	1	15
643.167	1	12
644.354	1	11
645.541	1	6
646.728	1	6
647.914	1	3
649.101	1	-3
650.288	1	1
651.474	1	14
652.661	1	15
653.847	1	6
655.034	1	5
656.220	1	10
657.406	1	2
658.593	1	12
659.779	1	4
660.965	1	12
662.152	1	3
663.338	1	-3
664.524	1	15
665.710	1	10
666.896	1	-5
668.082	1	4
669.268	1	4
670.454	1	11
671.640	1	12
672.826	1	-1
674.011	1	12
675.197	1	10
676.383	1	12
677.569	1	15
678.754	1	1
679.940	1	-3
681.125	1	2
682.311	1	14
683.496	1	7
684.682	1	10
685.867	1	14
687.053	1	27
688.238	1	28
688.746	1	0