File: Data/GaN_150K_450ms/GaN_sample D_spot15_UVVIS_150 K_200um_450 ms 2x2mm1_89.txt
340.368	1	6
341.565	1	6
342.763	1	6
343.960	1	3
345.157	1	15
346.354	1	6
347.552	1	15
348.749	1	7
349.946	1	-1
351.143	1	11
352.340	1	6
353.537	1	5
354.734	1	7
355.931	1	12
357.127	1	15
358.324	1	19
359.521	1	24
360.718	1	28
361.914	1	41
363.111	1	39
364.308	1	63
365.504	1	86
366.701	1	108
367.897	1	113
369.093	1	132
370.290	1	108
371.486	1	90
372.682	1	58
373.879	1	59
375.075	1	45
376.271	1	45
377.467	1	59
378.663	1	36
379.859	1	24
381.055	1	28
382.251	1	12
383.447	1	20
384.643	1	18
385.839	1	20
387.035	1	19
388.230	1	9
389.426	1	8
390.622	1	20
391.817	1	9
393.013	1	20
394.208	1	15
395.404	1	15
396.599	1	15
397.795	1	19
398.990	1	14
400.186	1	17
401.381	1	6
402.576	1	19
403.771	1	1
404.967	1	11
406.162	1	10
407.357	1	16
408.552	1	5
409.747	1	11
410.942	1	33
412.137	1	12
413.332	1	19
414.526	1	6
415.721	1	15
416.916	1	8
418.111	1	23
419.305	1	19
420.500	1	13
421.695	1	20
422.889	1	16
424.084	1	25
425.278	1	15
426.472	1	14
427.667	1	12
428.861	1	16
430.055	1	28
431.250	1	21
432.444	1	19
433.638	1	19
434.832	1	10
436.026	1	5
437.220	1	17
438.414	1	10
439.608	1	12
440.802	1	15
441.996	1	9
443.190	1	20
444.384	1	7
445.578	1	8
446.771	1	16
447.965	1	15
449.159	1	9
450.352	1	9
451.546	1	15
452.739	1	10
453.933	1	6
455.126	1	7
456.320	1	21
457.513	1	15
458.706	1	16
459.899	1	7
461.093	1	10
462.286	1	-2
463.479	1	2
464.672	1	19
465.865	1	2
467.058	1	6
468.251	1	0
469.444	1	13
470.637	1	9
471.830	1	10
473.023	1	10
474.215	1	11
475.408	1	5
476.601	1	7
477.793	1	11
478.986	1	15
480.179	1	3
481.371	1	-2
482.564	1	5
483.756	1	6
484.948	1	13
486.141	1	7
487.333	1	8
488.525	1	8
489.718	1	11
490.910	1	18
492.102	1	11
493.294	1	-1
494.486	1	9
495.678	1	11
496.870	1	25
498.062	1	18
499.254	1	18
500.446	1	15
501.638	1	12
502.829	1	16
504.021	1	21
505.213	1	7
506.404	1	19
507.596	1	26
508.788	1	32
509.979	1	17
511.171	1	21
512.362	1	27
513.553	1	39
514.745	1	29
515.936	1	22
517.127	1	43
518.319	1	36
519.510	1	28
520.701	1	40
521.892	1	24
523.083	1	36
524.274	1	33
525.465	1	38
526.656	1	40
527.847	1	24
529.038	1	31
530.229	1	48
531.419	1	39
532.610	1	40
533.801	1	30
534.991	1	29
536.182	1	27
537.373	1	34
538.563	1	34
539.754	1	18
540.944	1	29
542.134	1	25
543.325	1	36
544.515	1	30
545.705	1	33
546.896	1	22
548.086	1	30
549.276	1	28
550.466	1	24
551.656	1	33
552.846	1	33
554.036	1	24
555.226	1	26
556.416	1	34
557.606	1	20
558.796	1	34
559.986	1	27
561.175	1	21
562.365	1	15
563.555	1	29
564.744	1	22
565.934	1	22
567.123	1	16
568.313	1	18
569.502	1	25
570.692	1	21
571.881	1	16
573.070	1	19
574.260	1	23
575.449	1	7
576.638	1	18
577.827	1	8
579.016	1	22
580.205	1	15
581.394	1	14
582.583	1	25
583.772	1	14
584.961	1	12
586.150	1	18
587.339	1	7
588.528	1	5
589.717	1	13
590.905	1	19
592.094	1	15
593.283	1	13
594.471	1	-4
595.660	1	14
596.848	1	13
598.037	1	10
599.225	1	9
600.413	1	9
601.602	1	9
602.790	1	5
603.978	1	12
605.166	1	7
606.355	1	2
607.543	1	7
608.731	1	-1
609.919	1	8
611.107	1	12
612.295	1	13
613.483	1	3
614.671	1	10
615.858	1	6
617.046	1	-1
618.234	1	-1
619.422	1	23
620.609	1	4
621.797	1	7
622.985	1	0
624.172	1	5
625.360	1	6
626.547	1	8
627.735	1	10
628.922	1	7
630.109	1	1
631.297	1	4
632.484	1	13
633.671	1	12
634.858	1	9
636.045	1	8
637.232	1	7
638.419	1	-2
639.606	1	20
640.793	1	3
641.980	1	10
643.167	1	6
644.354	1	20
645.541	1	15
646.728	1	12
647.914	1	16
649.101	1	-1
650.288	1	6
651.474	1	16
652.661	1	18
653.847	1	4
655.034	1	-3
656.220	1	8
657.406	1	4
658.593	1	10
659.779	1	13
660.965	1	2
662.152	1	6
663.338	1	1
664.524	1	11
665.710	1	10
666.896	1	9
668.082	1	9
669.268	1	-4
670.454	1	8
671.640	1	11
672.826	1	1
674.011	1	9
675.197	1	17
676.383	1	-5
677.569	1	5
678.754	1	10
679.940	1	-4
681.125	1	5
682.311	1	18
683.496	1	11
684.682	1	14
685.867	1	7
687.053	1	19
688.238	1	13
688.746	1	-1