File: Data/GaN_150K_450ms/GaN_sample D_spot15_UVVIS_150 K_200um_450 ms 2x2mm1_212.txt
340.368	1	7
341.565	1	14
342.763	1	-2
343.960	1	6
345.157	1	10
346.354	1	-1
347.552	1	5
348.749	1	14
349.946	1	9
351.143	1	5
352.340	1	9
353.537	1	-6
354.734	1	4
355.931	1	7
357.127	1	12
358.324	1	10
359.521	1	11
360.718	1	5
361.914	1	12
363.111	1	8
364.308	1	8
365.504	1	5
366.701	1	12
367.897	1	17
369.093	1	25
370.290	1	26
371.486	1	25
372.682	1	8
373.879	1	15
375.075	1	3
376.271	1	14
377.467	1	17
378.663	1	5
379.859	1	-4
381.055	1	3
382.251	1	-5
383.447	1	-1
384.643	1	-3
385.839	1	0
387.035	1	3
388.230	1	8
389.426	1	-2
390.622	1	-4
391.817	1	-1
393.013	1	8
394.208	1	0
395.404	1	13
396.599	1	8
397.795	1	1
398.990	1	20
400.186	1	2
401.381	1	0
402.576	1	0
403.771	1	-12
404.967	1	-2
406.162	1	-6
407.357	1	12
408.552	1	3
409.747	1	3
410.942	1	12
412.137	1	2
413.332	1	13
414.526	1	1
415.721	1	2
416.916	1	0
418.111	1	9
419.305	1	7
420.500	1	5
421.695	1	9
422.889	1	11
424.084	1	12
425.278	1	10
426.472	1	9
427.667	1	14
428.861	1	4
430.055	1	11
431.250	1	4
432.444	1	2
433.638	1	12
434.832	1	-6
436.026	1	0
437.220	1	4
438.414	1	4
439.608	1	1
440.802	1	-5
441.996	1	1
443.190	1	5
444.384	1	3
445.578	1	-2
446.771	1	6
447.965	1	7
449.159	1	4
450.352	1	-2
451.546	1	0
452.739	1	9
453.933	1	4
455.126	1	6
456.320	1	1
457.513	1	1
458.706	1	10
459.899	1	-4
461.093	1	15
462.286	1	-2
463.479	1	-8
464.672	1	4
465.865	1	7
467.058	1	14
468.251	1	6
469.444	1	11
470.637	1	2
471.830	1	4
473.023	1	-5
474.215	1	-2
475.408	1	1
476.601	1	1
477.793	1	10
478.986	1	10
480.179	1	-2
481.371	1	-3
482.564	1	16
483.756	1	6
484.948	1	-2
486.141	1	3
487.333	1	-2
488.525	1	-4
489.718	1	-9
490.910	1	11
492.102	1	5
493.294	1	-2
494.486	1	-3
495.678	1	2
496.870	1	7
498.062	1	2
499.254	1	-2
500.446	1	-1
501.638	1	1
502.829	1	-3
504.021	1	-2
505.213	1	-1
506.404	1	4
507.596	1	8
508.788	1	3
509.979	1	-3
511.171	1	8
512.362	1	16
513.553	1	2
514.745	1	-1
515.936	1	1
517.127	1	11
518.319	1	7
519.510	1	4
520.701	1	9
521.892	1	4
523.083	1	4
524.274	1	1
525.465	1	16
526.656	1	13
527.847	1	-4
529.038	1	5
530.229	1	9
531.419	1	7
532.610	1	17
533.801	1	9
534.991	1	-1
536.182	1	-1
537.373	1	11
538.563	1	4
539.754	1	0
540.944	1	7
542.134	1	9
543.325	1	3
544.515	1	1
545.705	1	6
546.896	1	2
548.086	1	6
549.276	1	9
550.466	1	3
551.656	1	3
552.846	1	11
554.036	1	6
555.226	1	5
556.416	1	10
557.606	1	-10
558.796	1	9
559.986	1	12
561.175	1	-3
562.365	1	0
563.555	1	6
564.744	1	10
565.934	1	13
567.123	1	0
568.313	1	6
569.502	1	12
570.692	1	5
571.881	1	-1
573.070	1	8
574.260	1	9
575.449	1	3
576.638	1	6
577.827	1	5
579.016	1	2
580.205	1	4
581.394	1	-1
582.583	1	5
583.772	1	10
584.961	1	-5
586.150	1	9
587.339	1	2
588.528	1	-1
589.717	1	0
590.905	1	0
592.094	1	-3
593.283	1	8
594.471	1	-6
595.660	1	6
596.848	1	7
598.037	1	2
599.225	1	5
600.413	1	3
601.602	1	0
602.790	1	-4
603.978	1	-2
605.166	1	-3
606.355	1	-12
607.543	1	5
608.731	1	-2
609.919	1	0
611.107	1	18
612.295	1	3
613.483	1	2
614.671	1	3
615.858	1	-7
617.046	1	5
618.234	1	2
619.422	1	16
620.609	1	-4
621.797	1	5
622.985	1	-1
624.172	1	4
625.360	1	-3
626.547	1	-8
627.735	1	1
628.922	1	9
630.109	1	-1
631.297	1	4
632.484	1	1
633.671	1	9
634.858	1	9
636.045	1	-3
637.232	1	6
638.419	1	-3
639.606	1	4
640.793	1	-4
641.980	1	12
643.167	1	2
644.354	1	12
645.541	1	3
646.728	1	4
647.914	1	4
649.101	1	3
650.288	1	1
651.474	1	10
652.661	1	0
653.847	1	18
655.034	1	2
656.220	1	3
657.406	1	2
658.593	1	6
659.779	1	12
660.965	1	4
662.152	1	-6
663.338	1	-6
664.524	1	5
665.710	1	2
666.896	1	6
668.082	1	5
669.268	1	4
670.454	1	4
671.640	1	9
672.826	1	6
674.011	1	4
675.197	1	3
676.383	1	-3
677.569	1	10
678.754	1	5
679.940	1	-3
681.125	1	-1
682.311	1	10
683.496	1	3
684.682	1	4
685.867	1	8
687.053	1	13
688.238	1	12
688.746	1	9