File: Data/GaN_150K_450ms/GaN_sample D_spot15_UVVIS_150 K_200um_450 ms 2x2mm1_258.txt
340.368	1	3
341.565	1	2
342.763	1	-2
343.960	1	5
345.157	1	11
346.354	1	2
347.552	1	9
348.749	1	17
349.946	1	4
351.143	1	-3
352.340	1	3
353.537	1	-3
354.734	1	2
355.931	1	10
357.127	1	5
358.324	1	8
359.521	1	16
360.718	1	6
361.914	1	5
363.111	1	2
364.308	1	7
365.504	1	8
366.701	1	8
367.897	1	11
369.093	1	15
370.290	1	12
371.486	1	18
372.682	1	13
373.879	1	12
375.075	1	-2
376.271	1	6
377.467	1	8
378.663	1	4
379.859	1	8
381.055	1	-1
382.251	1	-11
383.447	1	6
384.643	1	1
385.839	1	0
387.035	1	5
388.230	1	4
389.426	1	-2
390.622	1	-4
391.817	1	-5
393.013	1	7
394.208	1	0
395.404	1	1
396.599	1	8
397.795	1	-3
398.990	1	9
400.186	1	7
401.381	1	5
402.576	1	9
403.771	1	-5
404.967	1	1
406.162	1	5
407.357	1	8
408.552	1	-6
409.747	1	8
410.942	1	13
412.137	1	-1
413.332	1	0
414.526	1	-13
415.721	1	9
416.916	1	0
418.111	1	2
419.305	1	1
420.500	1	1
421.695	1	10
422.889	1	2
424.084	1	3
425.278	1	8
426.472	1	11
427.667	1	5
428.861	1	1
430.055	1	11
431.250	1	-2
432.444	1	7
433.638	1	9
434.832	1	2
436.026	1	-1
437.220	1	12
438.414	1	13
439.608	1	7
440.802	1	-7
441.996	1	4
443.190	1	-1
444.384	1	5
445.578	1	-15
446.771	1	2
447.965	1	5
449.159	1	-5
450.352	1	-3
451.546	1	0
452.739	1	7
453.933	1	-2
455.126	1	2
456.320	1	5
457.513	1	3
458.706	1	8
459.899	1	-1
461.093	1	-5
462.286	1	-3
463.479	1	0
464.672	1	7
465.865	1	7
467.058	1	5
468.251	1	0
469.444	1	11
470.637	1	7
471.830	1	14
473.023	1	1
474.215	1	0
475.408	1	1
476.601	1	3
477.793	1	10
478.986	1	7
480.179	1	-1
481.371	1	-13
482.564	1	1
483.756	1	3
484.948	1	-2
486.141	1	10
487.333	1	-6
488.525	1	0
489.718	1	-2
490.910	1	5
492.102	1	6
493.294	1	-5
494.486	1	-2
495.678	1	-4
496.870	1	6
498.062	1	3
499.254	1	7
500.446	1	-5
501.638	1	1
502.829	1	-7
504.021	1	1
505.213	1	3
506.404	1	4
507.596	1	8
508.788	1	4
509.979	1	2
511.171	1	8
512.362	1	7
513.553	1	-4
514.745	1	-3
515.936	1	0
517.127	1	17
518.319	1	-5
519.510	1	-4
520.701	1	8
521.892	1	0
523.083	1	-1
524.274	1	7
525.465	1	17
526.656	1	6
527.847	1	-14
529.038	1	4
530.229	1	11
531.419	1	1
532.610	1	6
533.801	1	9
534.991	1	2
536.182	1	-5
537.373	1	7
538.563	1	-4
539.754	1	-3
540.944	1	7
542.134	1	4
543.325	1	5
544.515	1	0
545.705	1	6
546.896	1	6
548.086	1	4
549.276	1	6
550.466	1	5
551.656	1	-4
552.846	1	7
554.036	1	6
555.226	1	4
556.416	1	11
557.606	1	-9
558.796	1	9
559.986	1	9
561.175	1	0
562.365	1	-2
563.555	1	13
564.744	1	9
565.934	1	22
567.123	1	-4
568.313	1	1
569.502	1	7
570.692	1	6
571.881	1	0
573.070	1	5
574.260	1	6
575.449	1	2
576.638	1	8
577.827	1	0
579.016	1	2
580.205	1	4
581.394	1	5
582.583	1	6
583.772	1	10
584.961	1	-9
586.150	1	4
587.339	1	1
588.528	1	2
589.717	1	-1
590.905	1	0
592.094	1	19
593.283	1	12
594.471	1	-9
595.660	1	5
596.848	1	2
598.037	1	-2
599.225	1	-2
600.413	1	10
601.602	1	4
602.790	1	2
603.978	1	2
605.166	1	7
606.355	1	-14
607.543	1	4
608.731	1	-15
609.919	1	-3
611.107	1	4
612.295	1	6
613.483	1	-2
614.671	1	-1
615.858	1	-7
617.046	1	-4
618.234	1	-4
619.422	1	15
620.609	1	-2
621.797	1	2
622.985	1	2
624.172	1	7
625.360	1	-1
626.547	1	-9
627.735	1	6
628.922	1	-7
630.109	1	0
631.297	1	8
632.484	1	7
633.671	1	9
634.858	1	3
636.045	1	-2
637.232	1	1
638.419	1	0
639.606	1	7
640.793	1	2
641.980	1	6
643.167	1	5
644.354	1	-1
645.541	1	-7
646.728	1	4
647.914	1	-4
649.101	1	1
650.288	1	6
651.474	1	8
652.661	1	5
653.847	1	-1
655.034	1	-4
656.220	1	9
657.406	1	3
658.593	1	13
659.779	1	-1
660.965	1	9
662.152	1	5
663.338	1	-3
664.524	1	10
665.710	1	5
666.896	1	7
668.082	1	3
669.268	1	1
670.454	1	9
671.640	1	5
672.826	1	5
674.011	1	4
675.197	1	11
676.383	1	10
677.569	1	8
678.754	1	1
679.940	1	-5
681.125	1	-3
682.311	1	7
683.496	1	0
684.682	1	12
685.867	1	-4
687.053	1	21
688.238	1	1
688.746	1	10