File: Data/GaN_150K_450ms/GaN_sample D_spot15_UVVIS_150 K_200um_450 ms 2x2mm1_64.txt
340.368	1	-1
341.565	1	4
342.763	1	9
343.960	1	12
345.157	1	7
346.354	1	10
347.552	1	12
348.749	1	13
349.946	1	2
351.143	1	10
352.340	1	12
353.537	1	3
354.734	1	15
355.931	1	27
357.127	1	25
358.324	1	34
359.521	1	42
360.718	1	61
361.914	1	83
363.111	1	99
364.308	1	165
365.504	1	222
366.701	1	291
367.897	1	353
369.093	1	346
370.290	1	304
371.486	1	233
372.682	1	180
373.879	1	149
375.075	1	119
376.271	1	104
377.467	1	98
378.663	1	77
379.859	1	66
381.055	1	60
382.251	1	54
383.447	1	54
384.643	1	49
385.839	1	42
387.035	1	44
388.230	1	32
389.426	1	30
390.622	1	28
391.817	1	19
393.013	1	26
394.208	1	32
395.404	1	34
396.599	1	21
397.795	1	19
398.990	1	39
400.186	1	21
401.381	1	17
402.576	1	22
403.771	1	7
404.967	1	25
406.162	1	26
407.357	1	19
408.552	1	16
409.747	1	15
410.942	1	40
412.137	1	17
413.332	1	24
414.526	1	15
415.721	1	22
416.916	1	13
418.111	1	13
419.305	1	24
420.500	1	30
421.695	1	27
422.889	1	15
424.084	1	15
425.278	1	31
426.472	1	26
427.667	1	14
428.861	1	37
430.055	1	27
431.250	1	14
432.444	1	21
433.638	1	22
434.832	1	17
436.026	1	6
437.220	1	21
438.414	1	21
439.608	1	9
440.802	1	16
441.996	1	13
443.190	1	23
444.384	1	18
445.578	1	11
446.771	1	6
447.965	1	16
449.159	1	1
450.352	1	14
451.546	1	19
452.739	1	11
453.933	1	0
455.126	1	8
456.320	1	13
457.513	1	10
458.706	1	21
459.899	1	7
461.093	1	18
462.286	1	11
463.479	1	12
464.672	1	12
465.865	1	9
467.058	1	9
468.251	1	5
469.444	1	14
470.637	1	21
471.830	1	9
473.023	1	13
474.215	1	12
475.408	1	7
476.601	1	12
477.793	1	6
478.986	1	15
480.179	1	19
481.371	1	4
482.564	1	14
483.756	1	21
484.948	1	26
486.141	1	25
487.333	1	12
488.525	1	19
489.718	1	18
490.910	1	41
492.102	1	31
493.294	1	31
494.486	1	43
495.678	1	31
496.870	1	31
498.062	1	39
499.254	1	29
500.446	1	43
501.638	1	58
502.829	1	45
504.021	1	52
505.213	1	53
506.404	1	55
507.596	1	61
508.788	1	64
509.979	1	64
511.171	1	59
512.362	1	70
513.553	1	75
514.745	1	59
515.936	1	65
517.127	1	74
518.319	1	66
519.510	1	67
520.701	1	75
521.892	1	71
523.083	1	77
524.274	1	85
525.465	1	87
526.656	1	87
527.847	1	79
529.038	1	82
530.229	1	87
531.419	1	86
532.610	1	91
533.801	1	79
534.991	1	77
536.182	1	76
537.373	1	71
538.563	1	75
539.754	1	61
540.944	1	74
542.134	1	66
543.325	1	76
544.515	1	71
545.705	1	72
546.896	1	65
548.086	1	73
549.276	1	72
550.466	1	66
551.656	1	63
552.846	1	63
554.036	1	79
555.226	1	62
556.416	1	73
557.606	1	54
558.796	1	64
559.986	1	55
561.175	1	39
562.365	1	46
563.555	1	57
564.744	1	57
565.934	1	48
567.123	1	40
568.313	1	54
569.502	1	44
570.692	1	48
571.881	1	40
573.070	1	31
574.260	1	36
575.449	1	31
576.638	1	44
577.827	1	41
579.016	1	34
580.205	1	40
581.394	1	40
582.583	1	29
583.772	1	43
584.961	1	24
586.150	1	29
587.339	1	38
588.528	1	25
589.717	1	30
590.905	1	34
592.094	1	21
593.283	1	26
594.471	1	20
595.660	1	17
596.848	1	14
598.037	1	23
599.225	1	24
600.413	1	21
601.602	1	31
602.790	1	18
603.978	1	27
605.166	1	18
606.355	1	4
607.543	1	25
608.731	1	13
609.919	1	10
611.107	1	23
612.295	1	18
613.483	1	15
614.671	1	26
615.858	1	11
617.046	1	8
618.234	1	10
619.422	1	26
620.609	1	6
621.797	1	10
622.985	1	13
624.172	1	16
625.360	1	8
626.547	1	4
627.735	1	19
628.922	1	19
630.109	1	-1
631.297	1	18
632.484	1	28
633.671	1	19
634.858	1	13
636.045	1	6
637.232	1	16
638.419	1	16
639.606	1	18
640.793	1	22
641.980	1	14
643.167	1	19
644.354	1	17
645.541	1	15
646.728	1	22
647.914	1	9
649.101	1	13
650.288	1	25
651.474	1	16
652.661	1	18
653.847	1	13
655.034	1	13
656.220	1	9
657.406	1	1
658.593	1	16
659.779	1	16
660.965	1	8
662.152	1	14
663.338	1	8
664.524	1	18
665.710	1	13
666.896	1	13
668.082	1	3
669.268	1	1
670.454	1	20
671.640	1	6
672.826	1	12
674.011	1	15
675.197	1	15
676.383	1	7
677.569	1	22
678.754	1	6
679.940	1	5
681.125	1	12
682.311	1	14
683.496	1	9
684.682	1	22
685.867	1	16
687.053	1	32
688.238	1	17
688.746	1	19