File: Data/GaN_150K_450ms/GaN_sample D_spot15_UVVIS_150 K_200um_450 ms 2x2mm1_5.txt
340.368	1	-2
341.565	1	5
342.763	1	2
343.960	1	6
345.157	1	4
346.354	1	-2
347.552	1	7
348.749	1	9
349.946	1	1
351.143	1	2
352.340	1	7
353.537	1	-9
354.734	1	0
355.931	1	3
357.127	1	10
358.324	1	4
359.521	1	7
360.718	1	1
361.914	1	-1
363.111	1	0
364.308	1	0
365.504	1	-7
366.701	1	1
367.897	1	-1
369.093	1	0
370.290	1	5
371.486	1	10
372.682	1	5
373.879	1	1
375.075	1	-6
376.271	1	-4
377.467	1	-1
378.663	1	2
379.859	1	1
381.055	1	5
382.251	1	-10
383.447	1	3
384.643	1	-6
385.839	1	8
387.035	1	0
388.230	1	4
389.426	1	-6
390.622	1	-10
391.817	1	-11
393.013	1	5
394.208	1	6
395.404	1	-10
396.599	1	1
397.795	1	-3
398.990	1	-1
400.186	1	0
401.381	1	2
402.576	1	9
403.771	1	-8
404.967	1	-3
406.162	1	-7
407.357	1	1
408.552	1	-4
409.747	1	0
410.942	1	-2
412.137	1	-2
413.332	1	-6
414.526	1	1
415.721	1	0
416.916	1	-3
418.111	1	-3
419.305	1	0
420.500	1	-1
421.695	1	3
422.889	1	2
424.084	1	1
425.278	1	-2
426.472	1	4
427.667	1	-5
428.861	1	0
430.055	1	8
431.250	1	8
432.444	1	6
433.638	1	1
434.832	1	-3
436.026	1	-4
437.220	1	2
438.414	1	9
439.608	1	-9
440.802	1	-8
441.996	1	-12
443.190	1	-1
444.384	1	8
445.578	1	-3
446.771	1	-1
447.965	1	-3
449.159	1	-8
450.352	1	-1
451.546	1	-4
452.739	1	4
453.933	1	-3
455.126	1	0
456.320	1	12
457.513	1	3
458.706	1	7
459.899	1	-1
461.093	1	9
462.286	1	-2
463.479	1	-8
464.672	1	6
465.865	1	3
467.058	1	3
468.251	1	-8
469.444	1	-3
470.637	1	-1
471.830	1	5
473.023	1	10
474.215	1	-5
475.408	1	6
476.601	1	4
477.793	1	-3
478.986	1	7
480.179	1	8
481.371	1	-8
482.564	1	9
483.756	1	9
484.948	1	4
486.141	1	7
487.333	1	-6
488.525	1	-1
489.718	1	-8
490.910	1	6
492.102	1	4
493.294	1	-13
494.486	1	-4
495.678	1	-4
496.870	1	3
498.062	1	-1
499.254	1	-2
500.446	1	-5
501.638	1	9
502.829	1	-9
504.021	1	-1
505.213	1	-11
506.404	1	2
507.596	1	6
508.788	1	3
509.979	1	-14
511.171	1	2
512.362	1	15
513.553	1	1
514.745	1	1
515.936	1	-1
517.127	1	7
518.319	1	0
519.510	1	-9
520.701	1	1
521.892	1	-8
523.083	1	-6
524.274	1	2
525.465	1	5
526.656	1	-9
527.847	1	-15
529.038	1	-2
530.229	1	6
531.419	1	-5
532.610	1	2
533.801	1	-2
534.991	1	6
536.182	1	-5
537.373	1	-8
538.563	1	4
539.754	1	2
540.944	1	3
542.134	1	5
543.325	1	3
544.515	1	13
545.705	1	1
546.896	1	5
548.086	1	10
549.276	1	5
550.466	1	-6
551.656	1	5
552.846	1	2
554.036	1	3
555.226	1	4
556.416	1	5
557.606	1	-14
558.796	1	4
559.986	1	-5
561.175	1	1
562.365	1	2
563.555	1	12
564.744	1	7
565.934	1	4
567.123	1	-4
568.313	1	-5
569.502	1	0
570.692	1	4
571.881	1	3
573.070	1	3
574.260	1	8
575.449	1	-6
576.638	1	8
577.827	1	1
579.016	1	-6
580.205	1	4
581.394	1	1
582.583	1	5
583.772	1	1
584.961	1	-3
586.150	1	6
587.339	1	-3
588.528	1	-5
589.717	1	3
590.905	1	-10
592.094	1	10
593.283	1	0
594.471	1	-8
595.660	1	10
596.848	1	2
598.037	1	-5
599.225	1	2
600.413	1	4
601.602	1	13
602.790	1	5
603.978	1	0
605.166	1	4
606.355	1	-18
607.543	1	5
608.731	1	-14
609.919	1	-3
611.107	1	12
612.295	1	7
613.483	1	-2
614.671	1	3
615.858	1	0
617.046	1	-13
618.234	1	-8
619.422	1	17
620.609	1	3
621.797	1	-6
622.985	1	-2
624.172	1	1
625.360	1	-1
626.547	1	-4
627.735	1	1
628.922	1	0
630.109	1	-6
631.297	1	-10
632.484	1	9
633.671	1	5
634.858	1	-4
636.045	1	-2
637.232	1	-1
638.419	1	-1
639.606	1	10
640.793	1	-4
641.980	1	4
643.167	1	2
644.354	1	3
645.541	1	9
646.728	1	11
647.914	1	-5
649.101	1	-2
650.288	1	-10
651.474	1	-1
652.661	1	11
653.847	1	-2
655.034	1	-3
656.220	1	-2
657.406	1	-3
658.593	1	7
659.779	1	-6
660.965	1	0
662.152	1	-4
663.338	1	-1
664.524	1	9
665.710	1	1
666.896	1	7
668.082	1	-6
669.268	1	-5
670.454	1	0
671.640	1	1
672.826	1	-3
674.011	1	0
675.197	1	4
676.383	1	-6
677.569	1	11
678.754	1	-2
679.940	1	-9
681.125	1	-4
682.311	1	6
683.496	1	-7
684.682	1	7
685.867	1	1
687.053	1	14
688.238	1	5
688.746	1	-4