File: Data/GaN_150K_450ms/GaN_sample D_spot15_UVVIS_150 K_200um_450 ms 2x2mm1_167.txt
340.368	1	3
341.565	1	7
342.763	1	15
343.960	1	3
345.157	1	8
346.354	1	6
347.552	1	10
348.749	1	3
349.946	1	-1
351.143	1	3
352.340	1	9
353.537	1	-5
354.734	1	7
355.931	1	18
357.127	1	11
358.324	1	6
359.521	1	16
360.718	1	8
361.914	1	5
363.111	1	4
364.308	1	19
365.504	1	13
366.701	1	32
367.897	1	20
369.093	1	35
370.290	1	28
371.486	1	29
372.682	1	25
373.879	1	13
375.075	1	7
376.271	1	14
377.467	1	16
378.663	1	15
379.859	1	3
381.055	1	6
382.251	1	-7
383.447	1	6
384.643	1	5
385.839	1	14
387.035	1	4
388.230	1	5
389.426	1	6
390.622	1	-2
391.817	1	-7
393.013	1	6
394.208	1	1
395.404	1	2
396.599	1	6
397.795	1	11
398.990	1	15
400.186	1	11
401.381	1	6
402.576	1	13
403.771	1	0
404.967	1	8
406.162	1	-2
407.357	1	14
408.552	1	0
409.747	1	7
410.942	1	20
412.137	1	8
413.332	1	10
414.526	1	0
415.721	1	9
416.916	1	7
418.111	1	11
419.305	1	14
420.500	1	10
421.695	1	7
422.889	1	14
424.084	1	7
425.278	1	16
426.472	1	14
427.667	1	9
428.861	1	20
430.055	1	19
431.250	1	20
432.444	1	11
433.638	1	13
434.832	1	0
436.026	1	2
437.220	1	15
438.414	1	8
439.608	1	-9
440.802	1	3
441.996	1	5
443.190	1	-2
444.384	1	6
445.578	1	-5
446.771	1	10
447.965	1	-7
449.159	1	-9
450.352	1	9
451.546	1	7
452.739	1	2
453.933	1	3
455.126	1	1
456.320	1	7
457.513	1	-1
458.706	1	4
459.899	1	14
461.093	1	3
462.286	1	4
463.479	1	-3
464.672	1	0
465.865	1	8
467.058	1	6
468.251	1	-3
469.444	1	6
470.637	1	4
471.830	1	2
473.023	1	12
474.215	1	8
475.408	1	9
476.601	1	4
477.793	1	4
478.986	1	9
480.179	1	11
481.371	1	-1
482.564	1	9
483.756	1	3
484.948	1	8
486.141	1	12
487.333	1	-1
488.525	1	-5
489.718	1	-5
490.910	1	17
492.102	1	7
493.294	1	-8
494.486	1	3
495.678	1	-8
496.870	1	7
498.062	1	5
499.254	1	-1
500.446	1	2
501.638	1	10
502.829	1	5
504.021	1	3
505.213	1	-1
506.404	1	4
507.596	1	7
508.788	1	-9
509.979	1	2
511.171	1	6
512.362	1	13
513.553	1	10
514.745	1	2
515.936	1	13
517.127	1	20
518.319	1	-3
519.510	1	4
520.701	1	15
521.892	1	14
523.083	1	4
524.274	1	5
525.465	1	8
526.656	1	10
527.847	1	2
529.038	1	13
530.229	1	20
531.419	1	8
532.610	1	9
533.801	1	13
534.991	1	3
536.182	1	11
537.373	1	11
538.563	1	1
539.754	1	13
540.944	1	9
542.134	1	2
543.325	1	13
544.515	1	12
545.705	1	1
546.896	1	12
548.086	1	7
549.276	1	7
550.466	1	8
551.656	1	11
552.846	1	10
554.036	1	18
555.226	1	5
556.416	1	9
557.606	1	-6
558.796	1	12
559.986	1	11
561.175	1	-1
562.365	1	2
563.555	1	9
564.744	1	17
565.934	1	9
567.123	1	2
568.313	1	9
569.502	1	5
570.692	1	6
571.881	1	-7
573.070	1	-1
574.260	1	10
575.449	1	-5
576.638	1	11
577.827	1	0
579.016	1	5
580.205	1	5
581.394	1	5
582.583	1	-4
583.772	1	11
584.961	1	3
586.150	1	4
587.339	1	-3
588.528	1	4
589.717	1	13
590.905	1	-1
592.094	1	-1
593.283	1	8
594.471	1	-3
595.660	1	16
596.848	1	15
598.037	1	8
599.225	1	5
600.413	1	8
601.602	1	13
602.790	1	-4
603.978	1	-3
605.166	1	10
606.355	1	-10
607.543	1	4
608.731	1	-7
609.919	1	-6
611.107	1	8
612.295	1	8
613.483	1	6
614.671	1	7
615.858	1	0
617.046	1	-2
618.234	1	-4
619.422	1	8
620.609	1	6
621.797	1	7
622.985	1	2
624.172	1	-1
625.360	1	0
626.547	1	-2
627.735	1	9
628.922	1	5
630.109	1	4
631.297	1	0
632.484	1	10
633.671	1	13
634.858	1	6
636.045	1	1
637.232	1	12
638.419	1	2
639.606	1	2
640.793	1	11
641.980	1	18
643.167	1	0
644.354	1	6
645.541	1	-2
646.728	1	4
647.914	1	1
649.101	1	-1
650.288	1	7
651.474	1	2
652.661	1	9
653.847	1	4
655.034	1	2
656.220	1	-2
657.406	1	-2
658.593	1	5
659.779	1	-2
660.965	1	1
662.152	1	2
663.338	1	2
664.524	1	19
665.710	1	6
666.896	1	10
668.082	1	4
669.268	1	-1
670.454	1	14
671.640	1	-2
672.826	1	2
674.011	1	6
675.197	1	10
676.383	1	2
677.569	1	15
678.754	1	5
679.940	1	5
681.125	1	9
682.311	1	10
683.496	1	4
684.682	1	-3
685.867	1	8
687.053	1	18
688.238	1	10
688.746	1	-2