File: Data/GaN_150K_450ms/GaN_sample D_spot15_UVVIS_150 K_200um_450 ms 2x2mm1_248.txt
340.368	1	-14
341.565	1	5
342.763	1	5
343.960	1	6
345.157	1	11
346.354	1	11
347.552	1	5
348.749	1	17
349.946	1	-2
351.143	1	-2
352.340	1	6
353.537	1	-7
354.734	1	5
355.931	1	12
357.127	1	12
358.324	1	6
359.521	1	10
360.718	1	5
361.914	1	10
363.111	1	5
364.308	1	11
365.504	1	5
366.701	1	9
367.897	1	28
369.093	1	21
370.290	1	15
371.486	1	26
372.682	1	4
373.879	1	-1
375.075	1	6
376.271	1	-1
377.467	1	14
378.663	1	9
379.859	1	0
381.055	1	-4
382.251	1	5
383.447	1	-4
384.643	1	1
385.839	1	2
387.035	1	8
388.230	1	-1
389.426	1	-7
390.622	1	-3
391.817	1	-3
393.013	1	7
394.208	1	3
395.404	1	8
396.599	1	7
397.795	1	6
398.990	1	15
400.186	1	2
401.381	1	-7
402.576	1	6
403.771	1	-5
404.967	1	9
406.162	1	3
407.357	1	-1
408.552	1	1
409.747	1	-8
410.942	1	9
412.137	1	-3
413.332	1	0
414.526	1	-6
415.721	1	7
416.916	1	3
418.111	1	12
419.305	1	4
420.500	1	4
421.695	1	1
422.889	1	-3
424.084	1	6
425.278	1	7
426.472	1	11
427.667	1	-5
428.861	1	4
430.055	1	11
431.250	1	8
432.444	1	9
433.638	1	4
434.832	1	-1
436.026	1	1
437.220	1	12
438.414	1	11
439.608	1	2
440.802	1	0
441.996	1	6
443.190	1	13
444.384	1	7
445.578	1	-10
446.771	1	2
447.965	1	12
449.159	1	-2
450.352	1	-1
451.546	1	-6
452.739	1	6
453.933	1	-10
455.126	1	5
456.320	1	7
457.513	1	-4
458.706	1	4
459.899	1	2
461.093	1	3
462.286	1	1
463.479	1	0
464.672	1	0
465.865	1	6
467.058	1	4
468.251	1	-7
469.444	1	4
470.637	1	-2
471.830	1	3
473.023	1	1
474.215	1	3
475.408	1	2
476.601	1	-3
477.793	1	0
478.986	1	6
480.179	1	5
481.371	1	-5
482.564	1	0
483.756	1	-2
484.948	1	5
486.141	1	6
487.333	1	-6
488.525	1	-1
489.718	1	-12
490.910	1	12
492.102	1	2
493.294	1	-6
494.486	1	6
495.678	1	-12
496.870	1	-6
498.062	1	3
499.254	1	-12
500.446	1	4
501.638	1	-2
502.829	1	-6
504.021	1	4
505.213	1	-2
506.404	1	0
507.596	1	11
508.788	1	2
509.979	1	5
511.171	1	10
512.362	1	3
513.553	1	6
514.745	1	0
515.936	1	4
517.127	1	13
518.319	1	5
519.510	1	-8
520.701	1	-1
521.892	1	3
523.083	1	1
524.274	1	10
525.465	1	13
526.656	1	2
527.847	1	-8
529.038	1	1
530.229	1	11
531.419	1	5
532.610	1	4
533.801	1	1
534.991	1	4
536.182	1	0
537.373	1	-7
538.563	1	7
539.754	1	-2
540.944	1	6
542.134	1	6
543.325	1	12
544.515	1	8
545.705	1	0
546.896	1	0
548.086	1	1
549.276	1	6
550.466	1	3
551.656	1	6
552.846	1	13
554.036	1	9
555.226	1	6
556.416	1	12
557.606	1	-4
558.796	1	4
559.986	1	2
561.175	1	-2
562.365	1	8
563.555	1	3
564.744	1	15
565.934	1	11
567.123	1	1
568.313	1	4
569.502	1	13
570.692	1	3
571.881	1	-3
573.070	1	2
574.260	1	6
575.449	1	-2
576.638	1	12
577.827	1	-6
579.016	1	5
580.205	1	0
581.394	1	3
582.583	1	12
583.772	1	10
584.961	1	-6
586.150	1	-2
587.339	1	-1
588.528	1	-3
589.717	1	4
590.905	1	-1
592.094	1	7
593.283	1	3
594.471	1	-10
595.660	1	9
596.848	1	1
598.037	1	7
599.225	1	1
600.413	1	0
601.602	1	9
602.790	1	12
603.978	1	7
605.166	1	-6
606.355	1	-15
607.543	1	-2
608.731	1	-11
609.919	1	-3
611.107	1	11
612.295	1	11
613.483	1	0
614.671	1	2
615.858	1	-13
617.046	1	0
618.234	1	-10
619.422	1	13
620.609	1	4
621.797	1	5
622.985	1	-2
624.172	1	7
625.360	1	4
626.547	1	-1
627.735	1	3
628.922	1	9
630.109	1	8
631.297	1	-2
632.484	1	10
633.671	1	-4
634.858	1	-3
636.045	1	-7
637.232	1	4
638.419	1	0
639.606	1	15
640.793	1	-2
641.980	1	8
643.167	1	0
644.354	1	6
645.541	1	2
646.728	1	3
647.914	1	9
649.101	1	-3
650.288	1	0
651.474	1	9
652.661	1	8
653.847	1	6
655.034	1	2
656.220	1	4
657.406	1	-1
658.593	1	7
659.779	1	-6
660.965	1	2
662.152	1	-4
663.338	1	-1
664.524	1	1
665.710	1	2
666.896	1	6
668.082	1	4
669.268	1	-3
670.454	1	4
671.640	1	13
672.826	1	2
674.011	1	13
675.197	1	3
676.383	1	-1
677.569	1	12
678.754	1	-6
679.940	1	-9
681.125	1	0
682.311	1	6
683.496	1	3
684.682	1	-1
685.867	1	-2
687.053	1	15
688.238	1	5
688.746	1	-9