File: Data/GaN_150K_450ms/GaN_sample D_spot15_UVVIS_150 K_200um_450 ms 2x2mm1_57.txt
340.368	1	3
341.565	1	8
342.763	1	-4
343.960	1	7
345.157	1	15
346.354	1	1
347.552	1	30
348.749	1	9
349.946	1	11
351.143	1	17
352.340	1	26
353.537	1	13
354.734	1	23
355.931	1	30
357.127	1	30
358.324	1	40
359.521	1	56
360.718	1	69
361.914	1	101
363.111	1	144
364.308	1	243
365.504	1	389
366.701	1	536
367.897	1	613
369.093	1	576
370.290	1	477
371.486	1	361
372.682	1	296
373.879	1	262
375.075	1	200
376.271	1	176
377.467	1	153
378.663	1	119
379.859	1	90
381.055	1	87
382.251	1	72
383.447	1	84
384.643	1	85
385.839	1	80
387.035	1	67
388.230	1	51
389.426	1	46
390.622	1	50
391.817	1	43
393.013	1	59
394.208	1	41
395.404	1	45
396.599	1	40
397.795	1	32
398.990	1	49
400.186	1	46
401.381	1	26
402.576	1	24
403.771	1	21
404.967	1	35
406.162	1	19
407.357	1	30
408.552	1	33
409.747	1	27
410.942	1	33
412.137	1	21
413.332	1	29
414.526	1	6
415.721	1	23
416.916	1	10
418.111	1	22
419.305	1	33
420.500	1	30
421.695	1	18
422.889	1	18
424.084	1	20
425.278	1	20
426.472	1	32
427.667	1	28
428.861	1	27
430.055	1	20
431.250	1	39
432.444	1	17
433.638	1	24
434.832	1	18
436.026	1	12
437.220	1	22
438.414	1	24
439.608	1	7
440.802	1	17
441.996	1	10
443.190	1	32
444.384	1	14
445.578	1	11
446.771	1	18
447.965	1	11
449.159	1	5
450.352	1	7
451.546	1	15
452.739	1	19
453.933	1	6
455.126	1	22
456.320	1	18
457.513	1	10
458.706	1	19
459.899	1	19
461.093	1	12
462.286	1	10
463.479	1	13
464.672	1	20
465.865	1	10
467.058	1	20
468.251	1	15
469.444	1	14
470.637	1	8
471.830	1	17
473.023	1	9
474.215	1	25
475.408	1	17
476.601	1	18
477.793	1	18
478.986	1	31
480.179	1	18
481.371	1	15
482.564	1	25
483.756	1	36
484.948	1	38
486.141	1	38
487.333	1	35
488.525	1	29
489.718	1	38
490.910	1	46
492.102	1	47
493.294	1	39
494.486	1	43
495.678	1	48
496.870	1	49
498.062	1	58
499.254	1	64
500.446	1	66
501.638	1	67
502.829	1	74
504.021	1	76
505.213	1	69
506.404	1	79
507.596	1	94
508.788	1	95
509.979	1	101
511.171	1	100
512.362	1	100
513.553	1	106
514.745	1	93
515.936	1	98
517.127	1	114
518.319	1	108
519.510	1	110
520.701	1	124
521.892	1	117
523.083	1	123
524.274	1	122
525.465	1	125
526.656	1	126
527.847	1	119
529.038	1	126
530.229	1	133
531.419	1	141
532.610	1	142
533.801	1	130
534.991	1	110
536.182	1	121
537.373	1	107
538.563	1	105
539.754	1	114
540.944	1	109
542.134	1	122
543.325	1	109
544.515	1	112
545.705	1	104
546.896	1	115
548.086	1	115
549.276	1	115
550.466	1	109
551.656	1	106
552.846	1	101
554.036	1	106
555.226	1	102
556.416	1	96
557.606	1	87
558.796	1	92
559.986	1	84
561.175	1	66
562.365	1	76
563.555	1	88
564.744	1	83
565.934	1	81
567.123	1	73
568.313	1	76
569.502	1	66
570.692	1	72
571.881	1	70
573.070	1	72
574.260	1	76
575.449	1	53
576.638	1	65
577.827	1	66
579.016	1	64
580.205	1	51
581.394	1	57
582.583	1	56
583.772	1	55
584.961	1	44
586.150	1	57
587.339	1	50
588.528	1	54
589.717	1	43
590.905	1	42
592.094	1	45
593.283	1	48
594.471	1	32
595.660	1	40
596.848	1	42
598.037	1	53
599.225	1	48
600.413	1	35
601.602	1	40
602.790	1	44
603.978	1	35
605.166	1	32
606.355	1	24
607.543	1	41
608.731	1	30
609.919	1	22
611.107	1	48
612.295	1	39
613.483	1	37
614.671	1	35
615.858	1	28
617.046	1	15
618.234	1	16
619.422	1	43
620.609	1	25
621.797	1	40
622.985	1	25
624.172	1	38
625.360	1	22
626.547	1	26
627.735	1	21
628.922	1	27
630.109	1	26
631.297	1	20
632.484	1	36
633.671	1	27
634.858	1	19
636.045	1	11
637.232	1	24
638.419	1	7
639.606	1	24
640.793	1	20
641.980	1	29
643.167	1	19
644.354	1	24
645.541	1	23
646.728	1	19
647.914	1	21
649.101	1	8
650.288	1	17
651.474	1	27
652.661	1	21
653.847	1	19
655.034	1	20
656.220	1	20
657.406	1	6
658.593	1	29
659.779	1	19
660.965	1	24
662.152	1	20
663.338	1	11
664.524	1	22
665.710	1	17
666.896	1	17
668.082	1	16
669.268	1	15
670.454	1	15
671.640	1	24
672.826	1	9
674.011	1	21
675.197	1	17
676.383	1	22
677.569	1	32
678.754	1	11
679.940	1	15
681.125	1	15
682.311	1	20
683.496	1	12
684.682	1	18
685.867	1	16
687.053	1	28
688.238	1	26
688.746	1	20