File: Data/GaN_150K_450ms/GaN_sample D_spot15_UVVIS_150 K_200um_450 ms 2x2mm1_69.txt
340.368	1	-1
341.565	1	7
342.763	1	4
343.960	1	11
345.157	1	10
346.354	1	12
347.552	1	21
348.749	1	18
349.946	1	9
351.143	1	9
352.340	1	16
353.537	1	8
354.734	1	2
355.931	1	14
357.127	1	29
358.324	1	26
359.521	1	41
360.718	1	53
361.914	1	65
363.111	1	85
364.308	1	128
365.504	1	171
366.701	1	247
367.897	1	278
369.093	1	264
370.290	1	239
371.486	1	181
372.682	1	144
373.879	1	117
375.075	1	105
376.271	1	83
377.467	1	70
378.663	1	68
379.859	1	55
381.055	1	44
382.251	1	48
383.447	1	36
384.643	1	32
385.839	1	44
387.035	1	33
388.230	1	35
389.426	1	26
390.622	1	17
391.817	1	21
393.013	1	27
394.208	1	9
395.404	1	22
396.599	1	23
397.795	1	15
398.990	1	38
400.186	1	19
401.381	1	18
402.576	1	13
403.771	1	11
404.967	1	21
406.162	1	6
407.357	1	19
408.552	1	10
409.747	1	2
410.942	1	25
412.137	1	13
413.332	1	25
414.526	1	7
415.721	1	13
416.916	1	14
418.111	1	15
419.305	1	13
420.500	1	23
421.695	1	24
422.889	1	24
424.084	1	18
425.278	1	18
426.472	1	24
427.667	1	12
428.861	1	26
430.055	1	24
431.250	1	15
432.444	1	21
433.638	1	19
434.832	1	14
436.026	1	8
437.220	1	19
438.414	1	15
439.608	1	9
440.802	1	7
441.996	1	10
443.190	1	17
444.384	1	16
445.578	1	15
446.771	1	16
447.965	1	17
449.159	1	3
450.352	1	7
451.546	1	7
452.739	1	16
453.933	1	6
455.126	1	14
456.320	1	20
457.513	1	6
458.706	1	22
459.899	1	5
461.093	1	11
462.286	1	10
463.479	1	7
464.672	1	6
465.865	1	6
467.058	1	10
468.251	1	4
469.444	1	11
470.637	1	16
471.830	1	15
473.023	1	19
474.215	1	6
475.408	1	13
476.601	1	17
477.793	1	4
478.986	1	20
480.179	1	14
481.371	1	1
482.564	1	15
483.756	1	13
484.948	1	16
486.141	1	21
487.333	1	10
488.525	1	14
489.718	1	17
490.910	1	25
492.102	1	20
493.294	1	19
494.486	1	26
495.678	1	25
496.870	1	20
498.062	1	32
499.254	1	39
500.446	1	34
501.638	1	44
502.829	1	37
504.021	1	42
505.213	1	43
506.404	1	43
507.596	1	54
508.788	1	56
509.979	1	44
511.171	1	46
512.362	1	55
513.553	1	57
514.745	1	57
515.936	1	53
517.127	1	61
518.319	1	56
519.510	1	51
520.701	1	66
521.892	1	66
523.083	1	64
524.274	1	66
525.465	1	73
526.656	1	72
527.847	1	59
529.038	1	56
530.229	1	78
531.419	1	65
532.610	1	77
533.801	1	62
534.991	1	63
536.182	1	69
537.373	1	52
538.563	1	50
539.754	1	60
540.944	1	58
542.134	1	56
543.325	1	64
544.515	1	58
545.705	1	54
546.896	1	60
548.086	1	64
549.276	1	60
550.466	1	56
551.656	1	53
552.846	1	55
554.036	1	61
555.226	1	54
556.416	1	43
557.606	1	35
558.796	1	48
559.986	1	45
561.175	1	38
562.365	1	38
563.555	1	48
564.744	1	47
565.934	1	44
567.123	1	30
568.313	1	39
569.502	1	36
570.692	1	28
571.881	1	24
573.070	1	38
574.260	1	36
575.449	1	31
576.638	1	34
577.827	1	36
579.016	1	32
580.205	1	28
581.394	1	28
582.583	1	31
583.772	1	29
584.961	1	16
586.150	1	22
587.339	1	30
588.528	1	15
589.717	1	22
590.905	1	26
592.094	1	20
593.283	1	16
594.471	1	4
595.660	1	15
596.848	1	15
598.037	1	15
599.225	1	19
600.413	1	24
601.602	1	23
602.790	1	13
603.978	1	19
605.166	1	15
606.355	1	7
607.543	1	20
608.731	1	6
609.919	1	6
611.107	1	24
612.295	1	6
613.483	1	10
614.671	1	6
615.858	1	9
617.046	1	13
618.234	1	2
619.422	1	28
620.609	1	5
621.797	1	9
622.985	1	4
624.172	1	16
625.360	1	0
626.547	1	9
627.735	1	7
628.922	1	17
630.109	1	3
631.297	1	14
632.484	1	10
633.671	1	15
634.858	1	15
636.045	1	5
637.232	1	6
638.419	1	12
639.606	1	16
640.793	1	5
641.980	1	23
643.167	1	7
644.354	1	23
645.541	1	13
646.728	1	19
647.914	1	3
649.101	1	14
650.288	1	11
651.474	1	16
652.661	1	7
653.847	1	12
655.034	1	8
656.220	1	10
657.406	1	6
658.593	1	14
659.779	1	18
660.965	1	7
662.152	1	10
663.338	1	7
664.524	1	10
665.710	1	10
666.896	1	6
668.082	1	11
669.268	1	11
670.454	1	10
671.640	1	14
672.826	1	12
674.011	1	4
675.197	1	15
676.383	1	11
677.569	1	22
678.754	1	7
679.940	1	6
681.125	1	13
682.311	1	15
683.496	1	2
684.682	1	15
685.867	1	10
687.053	1	18
688.238	1	22
688.746	1	8