File: Analysis/GaN_68K_200ms/GaN_sample E_spot4_UVVIS_68 K_200um_200 ms 2x2mm1_185.txt
340.368	1	-1
341.565	1	2
342.763	1	1
343.960	1	-2
345.157	1	12
346.354	1	6
347.552	1	5
348.749	1	1
349.946	1	13
351.143	1	3
352.340	1	3
353.537	1	9
354.734	1	7
355.931	1	11
357.127	1	5
358.324	1	-3
359.521	1	13
360.718	1	7
361.914	1	11
363.111	1	29
364.308	1	13
365.504	1	12
366.701	1	12
367.897	1	36
369.093	1	27
370.290	1	15
371.486	1	21
372.682	1	7
373.879	1	18
375.075	1	20
376.271	1	10
377.467	1	6
378.663	1	2
379.859	1	5
381.055	1	18
382.251	1	17
383.447	1	22
384.643	1	22
385.839	1	35
387.035	1	37
388.230	1	24
389.426	1	18
390.622	1	28
391.817	1	25
393.013	1	21
394.208	1	26
395.404	1	27
396.599	1	26
397.795	1	24
398.990	1	34
400.186	1	33
401.381	1	21
402.576	1	32
403.771	1	25
404.967	1	16
406.162	1	21
407.357	1	17
408.552	1	24
409.747	1	17
410.942	1	25
412.137	1	22
413.332	1	16
414.526	1	8
415.721	1	11
416.916	1	10
418.111	1	12
419.305	1	10
420.500	1	23
421.695	1	11
422.889	1	17
424.084	1	16
425.278	1	2
426.472	1	14
427.667	1	21
428.861	1	6
430.055	1	9
431.250	1	0
432.444	1	15
433.638	1	9
434.832	1	4
436.026	1	17
437.220	1	8
438.414	1	15
439.608	1	7
440.802	1	3
441.996	1	6
443.190	1	-1
444.384	1	15
445.578	1	18
446.771	1	5
447.965	1	4
449.159	1	-3
450.352	1	11
451.546	1	0
452.739	1	6
453.933	1	27
455.126	1	1
456.320	1	3
457.513	1	7
458.706	1	12
459.899	1	17
461.093	1	10
462.286	1	12
463.479	1	20
464.672	1	10
465.865	1	5
467.058	1	15
468.251	1	6
469.444	1	-1
470.637	1	25
471.830	1	5
473.023	1	-5
474.215	1	6
475.408	1	7
476.601	1	6
477.793	1	18
478.986	1	2
480.179	1	11
481.371	1	2
482.564	1	4
483.756	1	18
484.948	1	7
486.141	1	-1
487.333	1	11
488.525	1	-2
489.718	1	3
490.910	1	8
492.102	1	2
493.294	1	18
494.486	1	5
495.678	1	25
496.870	1	5
498.062	1	10
499.254	1	8
500.446	1	11
501.638	1	10
502.829	1	9
504.021	1	32
505.213	1	14
506.404	1	4
507.596	1	25
508.788	1	17
509.979	1	7
511.171	1	25
512.362	1	23
513.553	1	9
514.745	1	20
515.936	1	21
517.127	1	15
518.319	1	13
519.510	1	19
520.701	1	21
521.892	1	7
523.083	1	13
524.274	1	13
525.465	1	19
526.656	1	25
527.847	1	17
529.038	1	23
530.229	1	28
531.419	1	30
532.610	1	26
533.801	1	22
534.991	1	29
536.182	1	25
537.373	1	11
538.563	1	22
539.754	1	17
540.944	1	18
542.134	1	24
543.325	1	14
544.515	1	18
545.705	1	20
546.896	1	12
548.086	1	22
549.276	1	26
550.466	1	16
551.656	1	1
552.846	1	16
554.036	1	14
555.226	1	4
556.416	1	19
557.606	1	2
558.796	1	13
559.986	1	2
561.175	1	16
562.365	1	17
563.555	1	16
564.744	1	10
565.934	1	6
567.123	1	23
568.313	1	10
569.502	1	7
570.692	1	14
571.881	1	11
573.070	1	18
574.260	1	6
575.449	1	13
576.638	1	10
577.827	1	17
579.016	1	19
580.205	1	4
581.394	1	0
582.583	1	7
583.772	1	7
584.961	1	15
586.150	1	9
587.339	1	6
588.528	1	5
589.717	1	7
590.905	1	0
592.094	1	4
593.283	1	8
594.471	1	9
595.660	1	-1
596.848	1	7
598.037	1	5
599.225	1	5
600.413	1	3
601.602	1	9
602.790	1	4
603.978	1	4
605.166	1	-7
606.355	1	16
607.543	1	1
608.731	1	-5
609.919	1	2
611.107	1	10
612.295	1	5
613.483	1	14
614.671	1	5
615.858	1	19
617.046	1	7
618.234	1	4
619.422	1	2
620.609	1	14
621.797	1	5
622.985	1	-4
624.172	1	9
625.360	1	-6
626.547	1	12
627.735	1	3
628.922	1	11
630.109	1	3
631.297	1	-9
632.484	1	-2
633.671	1	4
634.858	1	10
636.045	1	3
637.232	1	6
638.419	1	2
639.606	1	16
640.793	1	12
641.980	1	-1
643.167	1	13
644.354	1	5
645.541	1	-5
646.728	1	1
647.914	1	1
649.101	1	3
650.288	1	-3
651.474	1	10
652.661	1	13
653.847	1	3
655.034	1	0
656.220	1	1
657.406	1	10
658.593	1	-9
659.779	1	-1
660.965	1	6
662.152	1	-4
663.338	1	1
664.524	1	-15
665.710	1	2
666.896	1	0
668.082	1	1
669.268	1	6
670.454	1	8
671.640	1	-18
672.826	1	-9
674.011	1	5
675.197	1	-2
676.383	1	2
677.569	1	10
678.754	1	-3
679.940	1	-1
681.125	1	13
682.311	1	7
683.496	1	-3
684.682	1	7
685.867	1	3
687.053	1	14
688.238	1	5
688.746	1	4