File: Analysis/GaN_68K_200ms/GaN_sample E_spot4_UVVIS_68 K_200um_200 ms 2x2mm1_265.txt
340.368	1	9
341.565	1	-8
342.763	1	-1
343.960	1	0
345.157	1	-1
346.354	1	0
347.552	1	5
348.749	1	3
349.946	1	9
351.143	1	-3
352.340	1	1
353.537	1	-5
354.734	1	5
355.931	1	4
357.127	1	14
358.324	1	3
359.521	1	-8
360.718	1	5
361.914	1	10
363.111	1	9
364.308	1	3
365.504	1	4
366.701	1	3
367.897	1	0
369.093	1	8
370.290	1	7
371.486	1	14
372.682	1	10
373.879	1	13
375.075	1	11
376.271	1	2
377.467	1	5
378.663	1	2
379.859	1	1
381.055	1	8
382.251	1	8
383.447	1	19
384.643	1	16
385.839	1	12
387.035	1	8
388.230	1	9
389.426	1	13
390.622	1	10
391.817	1	2
393.013	1	11
394.208	1	15
395.404	1	14
396.599	1	17
397.795	1	8
398.990	1	20
400.186	1	19
401.381	1	5
402.576	1	14
403.771	1	19
404.967	1	7
406.162	1	10
407.357	1	12
408.552	1	9
409.747	1	4
410.942	1	11
412.137	1	6
413.332	1	2
414.526	1	8
415.721	1	12
416.916	1	6
418.111	1	5
419.305	1	2
420.500	1	10
421.695	1	8
422.889	1	12
424.084	1	10
425.278	1	-6
426.472	1	8
427.667	1	14
428.861	1	-2
430.055	1	5
431.250	1	-4
432.444	1	8
433.638	1	9
434.832	1	2
436.026	1	0
437.220	1	6
438.414	1	16
439.608	1	11
440.802	1	7
441.996	1	-1
443.190	1	-5
444.384	1	8
445.578	1	19
446.771	1	5
447.965	1	-4
449.159	1	3
450.352	1	15
451.546	1	7
452.739	1	2
453.933	1	10
455.126	1	-2
456.320	1	6
457.513	1	5
458.706	1	6
459.899	1	7
461.093	1	11
462.286	1	12
463.479	1	8
464.672	1	5
465.865	1	1
467.058	1	15
468.251	1	2
469.444	1	3
470.637	1	13
471.830	1	6
473.023	1	-2
474.215	1	2
475.408	1	5
476.601	1	-1
477.793	1	10
478.986	1	10
480.179	1	2
481.371	1	5
482.564	1	0
483.756	1	13
484.948	1	-8
486.141	1	-5
487.333	1	3
488.525	1	5
489.718	1	-3
490.910	1	-7
492.102	1	7
493.294	1	8
494.486	1	9
495.678	1	17
496.870	1	13
498.062	1	-1
499.254	1	1
500.446	1	13
501.638	1	2
502.829	1	2
504.021	1	21
505.213	1	4
506.404	1	4
507.596	1	12
508.788	1	5
509.979	1	3
511.171	1	9
512.362	1	7
513.553	1	-2
514.745	1	-1
515.936	1	5
517.127	1	10
518.319	1	5
519.510	1	1
520.701	1	11
521.892	1	0
523.083	1	11
524.274	1	-2
525.465	1	11
526.656	1	12
527.847	1	-2
529.038	1	18
530.229	1	16
531.419	1	16
532.610	1	7
533.801	1	3
534.991	1	6
536.182	1	8
537.373	1	3
538.563	1	3
539.754	1	5
540.944	1	3
542.134	1	17
543.325	1	2
544.515	1	9
545.705	1	9
546.896	1	13
548.086	1	7
549.276	1	12
550.466	1	4
551.656	1	9
552.846	1	12
554.036	1	9
555.226	1	5
556.416	1	11
557.606	1	2
558.796	1	2
559.986	1	7
561.175	1	7
562.365	1	8
563.555	1	9
564.744	1	6
565.934	1	7
567.123	1	20
568.313	1	-4
569.502	1	0
570.692	1	5
571.881	1	9
573.070	1	4
574.260	1	8
575.449	1	4
576.638	1	15
577.827	1	16
579.016	1	14
580.205	1	8
581.394	1	0
582.583	1	-2
583.772	1	-1
584.961	1	9
586.150	1	4
587.339	1	5
588.528	1	8
589.717	1	14
590.905	1	9
592.094	1	3
593.283	1	16
594.471	1	2
595.660	1	2
596.848	1	11
598.037	1	2
599.225	1	8
600.413	1	10
601.602	1	10
602.790	1	3
603.978	1	5
605.166	1	0
606.355	1	11
607.543	1	-4
608.731	1	-9
609.919	1	-2
611.107	1	12
612.295	1	3
613.483	1	10
614.671	1	-1
615.858	1	8
617.046	1	7
618.234	1	4
619.422	1	0
620.609	1	1
621.797	1	8
622.985	1	3
624.172	1	16
625.360	1	-1
626.547	1	1
627.735	1	6
628.922	1	-2
630.109	1	12
631.297	1	-1
632.484	1	-6
633.671	1	8
634.858	1	-6
636.045	1	4
637.232	1	3
638.419	1	9
639.606	1	16
640.793	1	9
641.980	1	4
643.167	1	11
644.354	1	-3
645.541	1	-5
646.728	1	15
647.914	1	-3
649.101	1	0
650.288	1	-2
651.474	1	3
652.661	1	9
653.847	1	7
655.034	1	-1
656.220	1	9
657.406	1	9
658.593	1	-8
659.779	1	-3
660.965	1	5
662.152	1	-7
663.338	1	-1
664.524	1	-2
665.710	1	-4
666.896	1	4
668.082	1	5
669.268	1	0
670.454	1	1
671.640	1	-12
672.826	1	-6
674.011	1	11
675.197	1	-1
676.383	1	5
677.569	1	5
678.754	1	2
679.940	1	2
681.125	1	17
682.311	1	-4
683.496	1	-3
684.682	1	10
685.867	1	-1
687.053	1	5
688.238	1	3
688.746	1	4