File: Analysis/GaN_68K_200ms/GaN_sample E_spot4_UVVIS_68 K_200um_200 ms 2x2mm1_226.txt
340.368	1	1
341.565	1	-2
342.763	1	-4
343.960	1	-1
345.157	1	9
346.354	1	3
347.552	1	2
348.749	1	1
349.946	1	12
351.143	1	-5
352.340	1	3
353.537	1	-1
354.734	1	4
355.931	1	7
357.127	1	4
358.324	1	4
359.521	1	9
360.718	1	5
361.914	1	-1
363.111	1	16
364.308	1	16
365.504	1	20
366.701	1	6
367.897	1	17
369.093	1	20
370.290	1	14
371.486	1	20
372.682	1	11
373.879	1	15
375.075	1	13
376.271	1	7
377.467	1	4
378.663	1	3
379.859	1	2
381.055	1	4
382.251	1	12
383.447	1	18
384.643	1	16
385.839	1	21
387.035	1	23
388.230	1	24
389.426	1	22
390.622	1	12
391.817	1	11
393.013	1	25
394.208	1	20
395.404	1	23
396.599	1	22
397.795	1	17
398.990	1	26
400.186	1	27
401.381	1	30
402.576	1	21
403.771	1	11
404.967	1	12
406.162	1	9
407.357	1	20
408.552	1	20
409.747	1	10
410.942	1	9
412.137	1	14
413.332	1	11
414.526	1	12
415.721	1	20
416.916	1	13
418.111	1	8
419.305	1	14
420.500	1	18
421.695	1	6
422.889	1	9
424.084	1	7
425.278	1	-6
426.472	1	5
427.667	1	11
428.861	1	8
430.055	1	-3
431.250	1	-3
432.444	1	4
433.638	1	2
434.832	1	0
436.026	1	2
437.220	1	11
438.414	1	8
439.608	1	10
440.802	1	3
441.996	1	5
443.190	1	-1
444.384	1	9
445.578	1	19
446.771	1	0
447.965	1	-1
449.159	1	9
450.352	1	15
451.546	1	6
452.739	1	10
453.933	1	13
455.126	1	0
456.320	1	16
457.513	1	4
458.706	1	11
459.899	1	12
461.093	1	14
462.286	1	13
463.479	1	18
464.672	1	3
465.865	1	-1
467.058	1	9
468.251	1	3
469.444	1	0
470.637	1	21
471.830	1	17
473.023	1	3
474.215	1	7
475.408	1	5
476.601	1	6
477.793	1	15
478.986	1	5
480.179	1	1
481.371	1	5
482.564	1	-9
483.756	1	11
484.948	1	-1
486.141	1	-3
487.333	1	9
488.525	1	-4
489.718	1	3
490.910	1	4
492.102	1	-3
493.294	1	6
494.486	1	19
495.678	1	11
496.870	1	-1
498.062	1	10
499.254	1	11
500.446	1	18
501.638	1	4
502.829	1	2
504.021	1	19
505.213	1	11
506.404	1	5
507.596	1	9
508.788	1	15
509.979	1	5
511.171	1	19
512.362	1	4
513.553	1	7
514.745	1	12
515.936	1	11
517.127	1	23
518.319	1	9
519.510	1	10
520.701	1	18
521.892	1	5
523.083	1	12
524.274	1	10
525.465	1	12
526.656	1	23
527.847	1	13
529.038	1	21
530.229	1	16
531.419	1	24
532.610	1	16
533.801	1	16
534.991	1	14
536.182	1	14
537.373	1	7
538.563	1	15
539.754	1	4
540.944	1	13
542.134	1	22
543.325	1	7
544.515	1	13
545.705	1	19
546.896	1	13
548.086	1	17
549.276	1	13
550.466	1	4
551.656	1	12
552.846	1	7
554.036	1	15
555.226	1	10
556.416	1	13
557.606	1	-2
558.796	1	10
559.986	1	9
561.175	1	8
562.365	1	8
563.555	1	17
564.744	1	2
565.934	1	11
567.123	1	22
568.313	1	0
569.502	1	6
570.692	1	13
571.881	1	12
573.070	1	12
574.260	1	7
575.449	1	8
576.638	1	6
577.827	1	13
579.016	1	24
580.205	1	6
581.394	1	-7
582.583	1	3
583.772	1	10
584.961	1	10
586.150	1	8
587.339	1	10
588.528	1	10
589.717	1	11
590.905	1	9
592.094	1	2
593.283	1	10
594.471	1	9
595.660	1	0
596.848	1	14
598.037	1	6
599.225	1	10
600.413	1	-6
601.602	1	9
602.790	1	6
603.978	1	2
605.166	1	-4
606.355	1	13
607.543	1	-6
608.731	1	-1
609.919	1	6
611.107	1	12
612.295	1	2
613.483	1	12
614.671	1	15
615.858	1	2
617.046	1	9
618.234	1	0
619.422	1	-1
620.609	1	5
621.797	1	1
622.985	1	2
624.172	1	18
625.360	1	-7
626.547	1	3
627.735	1	4
628.922	1	-1
630.109	1	6
631.297	1	7
632.484	1	3
633.671	1	4
634.858	1	11
636.045	1	6
637.232	1	7
638.419	1	11
639.606	1	5
640.793	1	4
641.980	1	-3
643.167	1	14
644.354	1	0
645.541	1	-7
646.728	1	8
647.914	1	7
649.101	1	5
650.288	1	-6
651.474	1	10
652.661	1	13
653.847	1	4
655.034	1	9
656.220	1	11
657.406	1	4
658.593	1	1
659.779	1	0
660.965	1	-4
662.152	1	10
663.338	1	4
664.524	1	-2
665.710	1	-1
666.896	1	1
668.082	1	5
669.268	1	9
670.454	1	12
671.640	1	-16
672.826	1	-15
674.011	1	8
675.197	1	-3
676.383	1	3
677.569	1	-5
678.754	1	-3
679.940	1	3
681.125	1	6
682.311	1	6
683.496	1	-6
684.682	1	9
685.867	1	7
687.053	1	8
688.238	1	4
688.746	1	10