File: Analysis/GaN_68K_200ms/GaN_sample E_spot4_UVVIS_68 K_200um_200 ms 2x2mm1_354.txt
340.368	1	12
341.565	1	-11
342.763	1	1
343.960	1	-2
345.157	1	4
346.354	1	-7
347.552	1	-1
348.749	1	3
349.946	1	7
351.143	1	1
352.340	1	7
353.537	1	1
354.734	1	-3
355.931	1	5
357.127	1	-4
358.324	1	5
359.521	1	2
360.718	1	9
361.914	1	-3
363.111	1	14
364.308	1	-2
365.504	1	3
366.701	1	-2
367.897	1	9
369.093	1	2
370.290	1	-2
371.486	1	8
372.682	1	7
373.879	1	9
375.075	1	8
376.271	1	-7
377.467	1	-5
378.663	1	-4
379.859	1	1
381.055	1	7
382.251	1	-1
383.447	1	15
384.643	1	0
385.839	1	8
387.035	1	0
388.230	1	1
389.426	1	13
390.622	1	-5
391.817	1	5
393.013	1	5
394.208	1	2
395.404	1	11
396.599	1	5
397.795	1	4
398.990	1	15
400.186	1	16
401.381	1	2
402.576	1	16
403.771	1	17
404.967	1	4
406.162	1	2
407.357	1	12
408.552	1	21
409.747	1	0
410.942	1	6
412.137	1	16
413.332	1	4
414.526	1	6
415.721	1	3
416.916	1	0
418.111	1	-2
419.305	1	3
420.500	1	5
421.695	1	-4
422.889	1	17
424.084	1	13
425.278	1	-13
426.472	1	5
427.667	1	8
428.861	1	8
430.055	1	-1
431.250	1	-15
432.444	1	2
433.638	1	6
434.832	1	1
436.026	1	2
437.220	1	0
438.414	1	11
439.608	1	8
440.802	1	16
441.996	1	1
443.190	1	-7
444.384	1	7
445.578	1	13
446.771	1	-9
447.965	1	1
449.159	1	-1
450.352	1	4
451.546	1	4
452.739	1	7
453.933	1	6
455.126	1	1
456.320	1	-8
457.513	1	12
458.706	1	10
459.899	1	14
461.093	1	2
462.286	1	8
463.479	1	12
464.672	1	-2
465.865	1	-3
467.058	1	7
468.251	1	-6
469.444	1	0
470.637	1	14
471.830	1	11
473.023	1	-1
474.215	1	3
475.408	1	-1
476.601	1	1
477.793	1	4
478.986	1	-5
480.179	1	0
481.371	1	-3
482.564	1	-7
483.756	1	5
484.948	1	-2
486.141	1	-11
487.333	1	-4
488.525	1	0
489.718	1	-4
490.910	1	0
492.102	1	-3
493.294	1	6
494.486	1	-1
495.678	1	18
496.870	1	1
498.062	1	0
499.254	1	5
500.446	1	5
501.638	1	7
502.829	1	4
504.021	1	20
505.213	1	8
506.404	1	4
507.596	1	10
508.788	1	9
509.979	1	0
511.171	1	14
512.362	1	1
513.553	1	-12
514.745	1	-3
515.936	1	1
517.127	1	4
518.319	1	5
519.510	1	-3
520.701	1	13
521.892	1	-9
523.083	1	0
524.274	1	2
525.465	1	7
526.656	1	19
527.847	1	1
529.038	1	7
530.229	1	7
531.419	1	8
532.610	1	4
533.801	1	11
534.991	1	4
536.182	1	5
537.373	1	-7
538.563	1	6
539.754	1	1
540.944	1	4
542.134	1	18
543.325	1	3
544.515	1	9
545.705	1	0
546.896	1	1
548.086	1	10
549.276	1	12
550.466	1	-11
551.656	1	-11
552.846	1	-1
554.036	1	9
555.226	1	3
556.416	1	-2
557.606	1	-4
558.796	1	-2
559.986	1	2
561.175	1	0
562.365	1	22
563.555	1	12
564.744	1	3
565.934	1	7
567.123	1	11
568.313	1	-3
569.502	1	5
570.692	1	12
571.881	1	11
573.070	1	10
574.260	1	4
575.449	1	-2
576.638	1	-1
577.827	1	2
579.016	1	16
580.205	1	13
581.394	1	-8
582.583	1	-2
583.772	1	5
584.961	1	11
586.150	1	5
587.339	1	-2
588.528	1	6
589.717	1	2
590.905	1	2
592.094	1	2
593.283	1	5
594.471	1	3
595.660	1	-10
596.848	1	2
598.037	1	-3
599.225	1	3
600.413	1	-4
601.602	1	6
602.790	1	-5
603.978	1	1
605.166	1	-2
606.355	1	5
607.543	1	-8
608.731	1	-6
609.919	1	-6
611.107	1	8
612.295	1	-3
613.483	1	6
614.671	1	2
615.858	1	6
617.046	1	4
618.234	1	10
619.422	1	8
620.609	1	-1
621.797	1	10
622.985	1	-5
624.172	1	18
625.360	1	-6
626.547	1	-1
627.735	1	1
628.922	1	-7
630.109	1	-2
631.297	1	0
632.484	1	-1
633.671	1	2
634.858	1	11
636.045	1	5
637.232	1	10
638.419	1	10
639.606	1	12
640.793	1	4
641.980	1	4
643.167	1	3
644.354	1	-2
645.541	1	-3
646.728	1	9
647.914	1	2
649.101	1	-1
650.288	1	-1
651.474	1	8
652.661	1	0
653.847	1	5
655.034	1	5
656.220	1	0
657.406	1	12
658.593	1	-4
659.779	1	-3
660.965	1	2
662.152	1	-1
663.338	1	0
664.524	1	-13
665.710	1	1
666.896	1	-3
668.082	1	9
669.268	1	-4
670.454	1	-4
671.640	1	-10
672.826	1	-14
674.011	1	11
675.197	1	-1
676.383	1	-1
677.569	1	-9
678.754	1	5
679.940	1	2
681.125	1	6
682.311	1	5
683.496	1	-6
684.682	1	3
685.867	1	-4
687.053	1	-2
688.238	1	-1
688.746	1	5