File: Analysis/GaN_68K_200ms/GaN_sample E_spot4_UVVIS_68 K_200um_200 ms 2x2mm1_530.txt
340.368	1	8
341.565	1	-7
342.763	1	3
343.960	1	-2
345.157	1	10
346.354	1	-2
347.552	1	1
348.749	1	5
349.946	1	10
351.143	1	-4
352.340	1	-7
353.537	1	-2
354.734	1	-12
355.931	1	5
357.127	1	-2
358.324	1	-5
359.521	1	-1
360.718	1	0
361.914	1	2
363.111	1	19
364.308	1	0
365.504	1	-3
366.701	1	-8
367.897	1	3
369.093	1	0
370.290	1	-9
371.486	1	8
372.682	1	-2
373.879	1	13
375.075	1	2
376.271	1	-5
377.467	1	-1
378.663	1	-3
379.859	1	1
381.055	1	3
382.251	1	-5
383.447	1	11
384.643	1	10
385.839	1	2
387.035	1	3
388.230	1	-5
389.426	1	10
390.622	1	-4
391.817	1	-3
393.013	1	8
394.208	1	10
395.404	1	4
396.599	1	2
397.795	1	0
398.990	1	-2
400.186	1	9
401.381	1	5
402.576	1	6
403.771	1	1
404.967	1	5
406.162	1	11
407.357	1	5
408.552	1	-2
409.747	1	-7
410.942	1	7
412.137	1	18
413.332	1	2
414.526	1	-4
415.721	1	1
416.916	1	-2
418.111	1	-3
419.305	1	-3
420.500	1	-2
421.695	1	0
422.889	1	8
424.084	1	9
425.278	1	-1
426.472	1	-5
427.667	1	8
428.861	1	-8
430.055	1	3
431.250	1	-4
432.444	1	7
433.638	1	-1
434.832	1	2
436.026	1	1
437.220	1	5
438.414	1	-5
439.608	1	-2
440.802	1	13
441.996	1	-9
443.190	1	-8
444.384	1	5
445.578	1	6
446.771	1	-6
447.965	1	-3
449.159	1	5
450.352	1	5
451.546	1	1
452.739	1	-2
453.933	1	-2
455.126	1	6
456.320	1	1
457.513	1	3
458.706	1	5
459.899	1	13
461.093	1	-1
462.286	1	7
463.479	1	9
464.672	1	1
465.865	1	-3
467.058	1	5
468.251	1	1
469.444	1	-4
470.637	1	18
471.830	1	6
473.023	1	-6
474.215	1	1
475.408	1	11
476.601	1	-6
477.793	1	8
478.986	1	-5
480.179	1	-1
481.371	1	-1
482.564	1	-6
483.756	1	-2
484.948	1	0
486.141	1	-1
487.333	1	2
488.525	1	2
489.718	1	1
490.910	1	-4
492.102	1	9
493.294	1	6
494.486	1	3
495.678	1	6
496.870	1	8
498.062	1	-10
499.254	1	-2
500.446	1	9
501.638	1	2
502.829	1	4
504.021	1	14
505.213	1	1
506.404	1	-2
507.596	1	2
508.788	1	-4
509.979	1	1
511.171	1	13
512.362	1	2
513.553	1	-4
514.745	1	7
515.936	1	6
517.127	1	1
518.319	1	-1
519.510	1	-2
520.701	1	-8
521.892	1	-8
523.083	1	-2
524.274	1	-5
525.465	1	2
526.656	1	17
527.847	1	-5
529.038	1	3
530.229	1	9
531.419	1	10
532.610	1	0
533.801	1	2
534.991	1	-3
536.182	1	-6
537.373	1	-1
538.563	1	6
539.754	1	-2
540.944	1	-5
542.134	1	11
543.325	1	4
544.515	1	-4
545.705	1	10
546.896	1	-3
548.086	1	-3
549.276	1	11
550.466	1	-2
551.656	1	-12
552.846	1	2
554.036	1	15
555.226	1	-9
556.416	1	4
557.606	1	-3
558.796	1	-8
559.986	1	-1
561.175	1	-1
562.365	1	0
563.555	1	2
564.744	1	-2
565.934	1	13
567.123	1	17
568.313	1	0
569.502	1	6
570.692	1	10
571.881	1	3
573.070	1	3
574.260	1	2
575.449	1	6
576.638	1	-4
577.827	1	1
579.016	1	14
580.205	1	-1
581.394	1	1
582.583	1	-5
583.772	1	-7
584.961	1	9
586.150	1	1
587.339	1	-2
588.528	1	3
589.717	1	4
590.905	1	1
592.094	1	3
593.283	1	2
594.471	1	4
595.660	1	-1
596.848	1	9
598.037	1	-3
599.225	1	-2
600.413	1	2
601.602	1	4
602.790	1	2
603.978	1	3
605.166	1	-6
606.355	1	18
607.543	1	-5
608.731	1	-15
609.919	1	-5
611.107	1	12
612.295	1	4
613.483	1	8
614.671	1	6
615.858	1	1
617.046	1	4
618.234	1	-2
619.422	1	-6
620.609	1	-7
621.797	1	-1
622.985	1	8
624.172	1	10
625.360	1	-4
626.547	1	3
627.735	1	7
628.922	1	-3
630.109	1	1
631.297	1	-5
632.484	1	1
633.671	1	-5
634.858	1	12
636.045	1	7
637.232	1	-4
638.419	1	-1
639.606	1	9
640.793	1	1
641.980	1	-1
643.167	1	7
644.354	1	-11
645.541	1	-8
646.728	1	0
647.914	1	1
649.101	1	-1
650.288	1	3
651.474	1	1
652.661	1	-3
653.847	1	7
655.034	1	7
656.220	1	0
657.406	1	0
658.593	1	-5
659.779	1	-6
660.965	1	-2
662.152	1	5
663.338	1	3
664.524	1	-5
665.710	1	1
666.896	1	2
668.082	1	-3
669.268	1	4
670.454	1	0
671.640	1	-22
672.826	1	-14
674.011	1	12
675.197	1	-5
676.383	1	-6
677.569	1	-8
678.754	1	7
679.940	1	-9
681.125	1	4
682.311	1	13
683.496	1	-6
684.682	1	5
685.867	1	-4
687.053	1	5
688.238	1	6
688.746	1	7