File: Analysis/GaN_68K_200ms/GaN_sample E_spot4_UVVIS_68 K_200um_200 ms 2x2mm1_755.txt
340.368	1	4
341.565	1	-4
342.763	1	-6
343.960	1	-5
345.157	1	8
346.354	1	2
347.552	1	1
348.749	1	-3
349.946	1	11
351.143	1	-4
352.340	1	-1
353.537	1	1
354.734	1	-6
355.931	1	4
357.127	1	1
358.324	1	3
359.521	1	-7
360.718	1	-3
361.914	1	-9
363.111	1	3
364.308	1	-1
365.504	1	-4
366.701	1	-3
367.897	1	1
369.093	1	4
370.290	1	-1
371.486	1	9
372.682	1	-11
373.879	1	7
375.075	1	4
376.271	1	-5
377.467	1	-16
378.663	1	-5
379.859	1	-9
381.055	1	1
382.251	1	-1
383.447	1	6
384.643	1	12
385.839	1	2
387.035	1	-4
388.230	1	6
389.426	1	6
390.622	1	-5
391.817	1	2
393.013	1	16
394.208	1	0
395.404	1	9
396.599	1	6
397.795	1	3
398.990	1	11
400.186	1	10
401.381	1	-4
402.576	1	1
403.771	1	-1
404.967	1	-2
406.162	1	-4
407.357	1	-1
408.552	1	0
409.747	1	-10
410.942	1	-7
412.137	1	8
413.332	1	5
414.526	1	3
415.721	1	7
416.916	1	-8
418.111	1	-5
419.305	1	-2
420.500	1	-1
421.695	1	6
422.889	1	4
424.084	1	-2
425.278	1	-8
426.472	1	-5
427.667	1	2
428.861	1	1
430.055	1	-7
431.250	1	-3
432.444	1	7
433.638	1	7
434.832	1	5
436.026	1	3
437.220	1	9
438.414	1	11
439.608	1	-3
440.802	1	11
441.996	1	2
443.190	1	-7
444.384	1	0
445.578	1	3
446.771	1	5
447.965	1	-12
449.159	1	-8
450.352	1	4
451.546	1	0
452.739	1	-1
453.933	1	4
455.126	1	1
456.320	1	-5
457.513	1	7
458.706	1	-1
459.899	1	2
461.093	1	7
462.286	1	2
463.479	1	6
464.672	1	4
465.865	1	-2
467.058	1	6
468.251	1	3
469.444	1	-2
470.637	1	9
471.830	1	21
473.023	1	-6
474.215	1	0
475.408	1	-1
476.601	1	-8
477.793	1	14
478.986	1	-1
480.179	1	9
481.371	1	9
482.564	1	-12
483.756	1	0
484.948	1	-10
486.141	1	-9
487.333	1	2
488.525	1	0
489.718	1	-6
490.910	1	0
492.102	1	-5
493.294	1	9
494.486	1	4
495.678	1	3
496.870	1	1
498.062	1	-5
499.254	1	0
500.446	1	11
501.638	1	7
502.829	1	4
504.021	1	14
505.213	1	5
506.404	1	0
507.596	1	5
508.788	1	-4
509.979	1	0
511.171	1	13
512.362	1	-2
513.553	1	-9
514.745	1	0
515.936	1	5
517.127	1	-5
518.319	1	-1
519.510	1	-9
520.701	1	-3
521.892	1	-9
523.083	1	-9
524.274	1	-6
525.465	1	-8
526.656	1	27
527.847	1	-11
529.038	1	-4
530.229	1	-3
531.419	1	9
532.610	1	-5
533.801	1	0
534.991	1	1
536.182	1	-5
537.373	1	-1
538.563	1	2
539.754	1	-6
540.944	1	-9
542.134	1	7
543.325	1	3
544.515	1	-1
545.705	1	6
546.896	1	3
548.086	1	6
549.276	1	3
550.466	1	-9
551.656	1	-11
552.846	1	5
554.036	1	3
555.226	1	-11
556.416	1	3
557.606	1	-11
558.796	1	-8
559.986	1	-5
561.175	1	1
562.365	1	5
563.555	1	3
564.744	1	7
565.934	1	5
567.123	1	19
568.313	1	6
569.502	1	-3
570.692	1	-2
571.881	1	0
573.070	1	14
574.260	1	-5
575.449	1	0
576.638	1	-8
577.827	1	1
579.016	1	10
580.205	1	-2
581.394	1	-2
582.583	1	-12
583.772	1	0
584.961	1	6
586.150	1	-5
587.339	1	2
588.528	1	-4
589.717	1	-1
590.905	1	8
592.094	1	3
593.283	1	0
594.471	1	-4
595.660	1	0
596.848	1	-3
598.037	1	-4
599.225	1	-7
600.413	1	-5
601.602	1	8
602.790	1	4
603.978	1	7
605.166	1	1
606.355	1	7
607.543	1	-10
608.731	1	-7
609.919	1	-9
611.107	1	9
612.295	1	-1
613.483	1	7
614.671	1	8
615.858	1	-3
617.046	1	1
618.234	1	3
619.422	1	-2
620.609	1	-3
621.797	1	-1
622.985	1	-2
624.172	1	17
625.360	1	-10
626.547	1	1
627.735	1	-6
628.922	1	1
630.109	1	-8
631.297	1	-1
632.484	1	-4
633.671	1	0
634.858	1	-2
636.045	1	7
637.232	1	-6
638.419	1	6
639.606	1	12
640.793	1	4
641.980	1	-1
643.167	1	13
644.354	1	0
645.541	1	-7
646.728	1	-5
647.914	1	-4
649.101	1	0
650.288	1	-2
651.474	1	4
652.661	1	3
653.847	1	1
655.034	1	-1
656.220	1	6
657.406	1	4
658.593	1	-7
659.779	1	-1
660.965	1	-12
662.152	1	-3
663.338	1	-7
664.524	1	-9
665.710	1	3
666.896	1	3
668.082	1	-8
669.268	1	2
670.454	1	-1
671.640	1	-10
672.826	1	-12
674.011	1	6
675.197	1	-4
676.383	1	1
677.569	1	-14
678.754	1	-2
679.940	1	2
681.125	1	7
682.311	1	2
683.496	1	-11
684.682	1	6
685.867	1	5
687.053	1	4
688.238	1	0
688.746	1	2