File: Analysis/GaN_68K_200ms/GaN_sample E_spot4_UVVIS_68 K_200um_200 ms 2x2mm1_173.txt
340.368	1	3
341.565	1	-1
342.763	1	-1
343.960	1	1
345.157	1	14
346.354	1	-2
347.552	1	1
348.749	1	7
349.946	1	10
351.143	1	-12
352.340	1	0
353.537	1	13
354.734	1	3
355.931	1	15
357.127	1	8
358.324	1	7
359.521	1	9
360.718	1	8
361.914	1	9
363.111	1	33
364.308	1	20
365.504	1	26
366.701	1	11
367.897	1	36
369.093	1	37
370.290	1	16
371.486	1	23
372.682	1	13
373.879	1	24
375.075	1	25
376.271	1	13
377.467	1	9
378.663	1	11
379.859	1	8
381.055	1	15
382.251	1	10
383.447	1	28
384.643	1	38
385.839	1	30
387.035	1	30
388.230	1	37
389.426	1	42
390.622	1	28
391.817	1	24
393.013	1	40
394.208	1	36
395.404	1	38
396.599	1	30
397.795	1	36
398.990	1	35
400.186	1	38
401.381	1	34
402.576	1	24
403.771	1	27
404.967	1	24
406.162	1	20
407.357	1	18
408.552	1	33
409.747	1	30
410.942	1	23
412.137	1	30
413.332	1	19
414.526	1	10
415.721	1	27
416.916	1	18
418.111	1	13
419.305	1	11
420.500	1	19
421.695	1	11
422.889	1	19
424.084	1	20
425.278	1	7
426.472	1	15
427.667	1	29
428.861	1	10
430.055	1	7
431.250	1	4
432.444	1	18
433.638	1	18
434.832	1	8
436.026	1	6
437.220	1	13
438.414	1	8
439.608	1	11
440.802	1	11
441.996	1	14
443.190	1	-6
444.384	1	14
445.578	1	13
446.771	1	13
447.965	1	3
449.159	1	4
450.352	1	17
451.546	1	7
452.739	1	7
453.933	1	13
455.126	1	3
456.320	1	7
457.513	1	22
458.706	1	8
459.899	1	12
461.093	1	16
462.286	1	12
463.479	1	16
464.672	1	6
465.865	1	7
467.058	1	23
468.251	1	-2
469.444	1	5
470.637	1	22
471.830	1	14
473.023	1	11
474.215	1	3
475.408	1	10
476.601	1	12
477.793	1	4
478.986	1	-3
480.179	1	1
481.371	1	9
482.564	1	-4
483.756	1	7
484.948	1	2
486.141	1	3
487.333	1	6
488.525	1	2
489.718	1	6
490.910	1	9
492.102	1	6
493.294	1	9
494.486	1	11
495.678	1	19
496.870	1	5
498.062	1	13
499.254	1	13
500.446	1	17
501.638	1	12
502.829	1	14
504.021	1	21
505.213	1	18
506.404	1	4
507.596	1	19
508.788	1	15
509.979	1	7
511.171	1	15
512.362	1	24
513.553	1	13
514.745	1	15
515.936	1	17
517.127	1	22
518.319	1	18
519.510	1	12
520.701	1	26
521.892	1	11
523.083	1	23
524.274	1	13
525.465	1	30
526.656	1	29
527.847	1	31
529.038	1	28
530.229	1	26
531.419	1	33
532.610	1	35
533.801	1	31
534.991	1	22
536.182	1	24
537.373	1	23
538.563	1	18
539.754	1	15
540.944	1	25
542.134	1	27
543.325	1	19
544.515	1	15
545.705	1	30
546.896	1	25
548.086	1	26
549.276	1	31
550.466	1	18
551.656	1	18
552.846	1	17
554.036	1	28
555.226	1	5
556.416	1	24
557.606	1	15
558.796	1	13
559.986	1	14
561.175	1	10
562.365	1	19
563.555	1	21
564.744	1	18
565.934	1	20
567.123	1	28
568.313	1	5
569.502	1	16
570.692	1	14
571.881	1	16
573.070	1	6
574.260	1	9
575.449	1	14
576.638	1	8
577.827	1	18
579.016	1	23
580.205	1	8
581.394	1	12
582.583	1	10
583.772	1	10
584.961	1	10
586.150	1	6
587.339	1	19
588.528	1	10
589.717	1	4
590.905	1	10
592.094	1	8
593.283	1	17
594.471	1	2
595.660	1	1
596.848	1	13
598.037	1	6
599.225	1	1
600.413	1	10
601.602	1	8
602.790	1	9
603.978	1	7
605.166	1	0
606.355	1	11
607.543	1	-6
608.731	1	0
609.919	1	0
611.107	1	19
612.295	1	5
613.483	1	15
614.671	1	12
615.858	1	4
617.046	1	5
618.234	1	9
619.422	1	18
620.609	1	11
621.797	1	0
622.985	1	4
624.172	1	22
625.360	1	4
626.547	1	8
627.735	1	5
628.922	1	2
630.109	1	3
631.297	1	5
632.484	1	4
633.671	1	5
634.858	1	17
636.045	1	2
637.232	1	9
638.419	1	10
639.606	1	17
640.793	1	5
641.980	1	-5
643.167	1	20
644.354	1	15
645.541	1	2
646.728	1	1
647.914	1	0
649.101	1	3
650.288	1	-3
651.474	1	13
652.661	1	10
653.847	1	11
655.034	1	16
656.220	1	10
657.406	1	13
658.593	1	1
659.779	1	4
660.965	1	6
662.152	1	5
663.338	1	2
664.524	1	0
665.710	1	5
666.896	1	-3
668.082	1	2
669.268	1	2
670.454	1	2
671.640	1	0
672.826	1	-5
674.011	1	2
675.197	1	2
676.383	1	12
677.569	1	3
678.754	1	1
679.940	1	-1
681.125	1	8
682.311	1	1
683.496	1	2
684.682	1	8
685.867	1	4
687.053	1	5
688.238	1	6
688.746	1	4