File: Analysis/GaN_68K_200ms/GaN_sample E_spot4_UVVIS_68 K_200um_200 ms 2x2mm1_190.txt
340.368	1	-6
341.565	1	0
342.763	1	1
343.960	1	3
345.157	1	-1
346.354	1	-7
347.552	1	1
348.749	1	1
349.946	1	1
351.143	1	-8
352.340	1	9
353.537	1	-4
354.734	1	-1
355.931	1	2
357.127	1	13
358.324	1	3
359.521	1	16
360.718	1	7
361.914	1	8
363.111	1	24
364.308	1	17
365.504	1	11
366.701	1	19
367.897	1	21
369.093	1	23
370.290	1	18
371.486	1	27
372.682	1	13
373.879	1	23
375.075	1	15
376.271	1	13
377.467	1	6
378.663	1	1
379.859	1	7
381.055	1	7
382.251	1	13
383.447	1	24
384.643	1	28
385.839	1	27
387.035	1	36
388.230	1	31
389.426	1	31
390.622	1	19
391.817	1	26
393.013	1	36
394.208	1	27
395.404	1	22
396.599	1	34
397.795	1	24
398.990	1	28
400.186	1	32
401.381	1	18
402.576	1	28
403.771	1	23
404.967	1	21
406.162	1	16
407.357	1	8
408.552	1	23
409.747	1	15
410.942	1	14
412.137	1	29
413.332	1	15
414.526	1	21
415.721	1	14
416.916	1	3
418.111	1	20
419.305	1	15
420.500	1	7
421.695	1	24
422.889	1	19
424.084	1	9
425.278	1	5
426.472	1	4
427.667	1	17
428.861	1	4
430.055	1	8
431.250	1	5
432.444	1	16
433.638	1	20
434.832	1	3
436.026	1	15
437.220	1	16
438.414	1	16
439.608	1	8
440.802	1	16
441.996	1	10
443.190	1	-2
444.384	1	6
445.578	1	19
446.771	1	13
447.965	1	4
449.159	1	-3
450.352	1	8
451.546	1	-3
452.739	1	6
453.933	1	15
455.126	1	4
456.320	1	4
457.513	1	19
458.706	1	12
459.899	1	19
461.093	1	8
462.286	1	16
463.479	1	8
464.672	1	4
465.865	1	-4
467.058	1	12
468.251	1	4
469.444	1	4
470.637	1	22
471.830	1	30
473.023	1	-9
474.215	1	-3
475.408	1	9
476.601	1	10
477.793	1	13
478.986	1	-2
480.179	1	4
481.371	1	-3
482.564	1	0
483.756	1	16
484.948	1	1
486.141	1	-10
487.333	1	13
488.525	1	9
489.718	1	10
490.910	1	-2
492.102	1	3
493.294	1	13
494.486	1	12
495.678	1	14
496.870	1	7
498.062	1	3
499.254	1	7
500.446	1	26
501.638	1	12
502.829	1	12
504.021	1	26
505.213	1	6
506.404	1	8
507.596	1	15
508.788	1	6
509.979	1	10
511.171	1	22
512.362	1	18
513.553	1	9
514.745	1	13
515.936	1	11
517.127	1	17
518.319	1	12
519.510	1	16
520.701	1	24
521.892	1	13
523.083	1	14
524.274	1	9
525.465	1	16
526.656	1	31
527.847	1	19
529.038	1	32
530.229	1	28
531.419	1	29
532.610	1	20
533.801	1	22
534.991	1	22
536.182	1	19
537.373	1	10
538.563	1	19
539.754	1	13
540.944	1	13
542.134	1	16
543.325	1	13
544.515	1	8
545.705	1	20
546.896	1	16
548.086	1	25
549.276	1	18
550.466	1	15
551.656	1	9
552.846	1	21
554.036	1	19
555.226	1	7
556.416	1	18
557.606	1	7
558.796	1	10
559.986	1	11
561.175	1	8
562.365	1	9
563.555	1	14
564.744	1	15
565.934	1	14
567.123	1	29
568.313	1	14
569.502	1	7
570.692	1	12
571.881	1	11
573.070	1	28
574.260	1	9
575.449	1	9
576.638	1	11
577.827	1	22
579.016	1	21
580.205	1	11
581.394	1	8
582.583	1	9
583.772	1	16
584.961	1	18
586.150	1	4
587.339	1	8
588.528	1	7
589.717	1	14
590.905	1	11
592.094	1	18
593.283	1	11
594.471	1	9
595.660	1	-1
596.848	1	16
598.037	1	6
599.225	1	7
600.413	1	7
601.602	1	16
602.790	1	10
603.978	1	4
605.166	1	2
606.355	1	13
607.543	1	-6
608.731	1	-5
609.919	1	-5
611.107	1	16
612.295	1	15
613.483	1	4
614.671	1	7
615.858	1	12
617.046	1	6
618.234	1	4
619.422	1	11
620.609	1	4
621.797	1	4
622.985	1	7
624.172	1	15
625.360	1	3
626.547	1	5
627.735	1	9
628.922	1	0
630.109	1	2
631.297	1	0
632.484	1	-3
633.671	1	8
634.858	1	12
636.045	1	4
637.232	1	-2
638.419	1	10
639.606	1	21
640.793	1	6
641.980	1	6
643.167	1	15
644.354	1	6
645.541	1	-7
646.728	1	6
647.914	1	3
649.101	1	9
650.288	1	2
651.474	1	9
652.661	1	11
653.847	1	3
655.034	1	5
656.220	1	11
657.406	1	13
658.593	1	5
659.779	1	2
660.965	1	-3
662.152	1	8
663.338	1	-1
664.524	1	3
665.710	1	0
666.896	1	-3
668.082	1	-2
669.268	1	5
670.454	1	6
671.640	1	-8
672.826	1	-8
674.011	1	6
675.197	1	-3
676.383	1	0
677.569	1	-5
678.754	1	-8
679.940	1	5
681.125	1	10
682.311	1	2
683.496	1	-6
684.682	1	9
685.867	1	-1
687.053	1	5
688.238	1	1
688.746	1	8