File: Analysis/GaN_68K_200ms/GaN_sample E_spot4_UVVIS_68 K_200um_200 ms 2x2mm1_735.txt
340.368	1	7
341.565	1	-9
342.763	1	-12
343.960	1	-6
345.157	1	9
346.354	1	-7
347.552	1	-1
348.749	1	4
349.946	1	-3
351.143	1	-4
352.340	1	-6
353.537	1	-2
354.734	1	1
355.931	1	9
357.127	1	-4
358.324	1	2
359.521	1	0
360.718	1	-9
361.914	1	5
363.111	1	3
364.308	1	-6
365.504	1	-7
366.701	1	-9
367.897	1	-2
369.093	1	1
370.290	1	5
371.486	1	9
372.682	1	-2
373.879	1	4
375.075	1	1
376.271	1	-2
377.467	1	2
378.663	1	-2
379.859	1	-7
381.055	1	-1
382.251	1	4
383.447	1	3
384.643	1	7
385.839	1	-3
387.035	1	-8
388.230	1	-7
389.426	1	6
390.622	1	-2
391.817	1	-2
393.013	1	15
394.208	1	6
395.404	1	6
396.599	1	6
397.795	1	6
398.990	1	11
400.186	1	10
401.381	1	4
402.576	1	13
403.771	1	5
404.967	1	-3
406.162	1	-3
407.357	1	4
408.552	1	1
409.747	1	-1
410.942	1	6
412.137	1	5
413.332	1	0
414.526	1	2
415.721	1	-2
416.916	1	-7
418.111	1	4
419.305	1	0
420.500	1	-1
421.695	1	1
422.889	1	3
424.084	1	-1
425.278	1	-8
426.472	1	-2
427.667	1	9
428.861	1	-4
430.055	1	6
431.250	1	-4
432.444	1	9
433.638	1	-8
434.832	1	-5
436.026	1	6
437.220	1	11
438.414	1	-6
439.608	1	-4
440.802	1	6
441.996	1	0
443.190	1	-11
444.384	1	2
445.578	1	6
446.771	1	-1
447.965	1	-4
449.159	1	-7
450.352	1	1
451.546	1	-5
452.739	1	-4
453.933	1	11
455.126	1	0
456.320	1	0
457.513	1	8
458.706	1	-3
459.899	1	18
461.093	1	5
462.286	1	6
463.479	1	8
464.672	1	-1
465.865	1	-10
467.058	1	10
468.251	1	-4
469.444	1	0
470.637	1	5
471.830	1	7
473.023	1	-13
474.215	1	3
475.408	1	0
476.601	1	1
477.793	1	2
478.986	1	-6
480.179	1	-2
481.371	1	4
482.564	1	-8
483.756	1	14
484.948	1	-10
486.141	1	-8
487.333	1	-2
488.525	1	0
489.718	1	0
490.910	1	-11
492.102	1	-2
493.294	1	11
494.486	1	3
495.678	1	10
496.870	1	-6
498.062	1	-10
499.254	1	-5
500.446	1	-2
501.638	1	3
502.829	1	7
504.021	1	23
505.213	1	-1
506.404	1	-4
507.596	1	-5
508.788	1	1
509.979	1	-6
511.171	1	10
512.362	1	1
513.553	1	-5
514.745	1	-9
515.936	1	0
517.127	1	3
518.319	1	3
519.510	1	4
520.701	1	-1
521.892	1	-9
523.083	1	0
524.274	1	-7
525.465	1	-2
526.656	1	10
527.847	1	-3
529.038	1	2
530.229	1	2
531.419	1	11
532.610	1	-4
533.801	1	-4
534.991	1	-8
536.182	1	-4
537.373	1	-7
538.563	1	-2
539.754	1	-4
540.944	1	-6
542.134	1	2
543.325	1	-7
544.515	1	-3
545.705	1	6
546.896	1	-2
548.086	1	0
549.276	1	8
550.466	1	-9
551.656	1	3
552.846	1	2
554.036	1	9
555.226	1	-7
556.416	1	6
557.606	1	-10
558.796	1	1
559.986	1	-8
561.175	1	-2
562.365	1	-4
563.555	1	5
564.744	1	-1
565.934	1	-5
567.123	1	16
568.313	1	-1
569.502	1	2
570.692	1	4
571.881	1	1
573.070	1	4
574.260	1	6
575.449	1	6
576.638	1	2
577.827	1	3
579.016	1	15
580.205	1	8
581.394	1	-11
582.583	1	-4
583.772	1	1
584.961	1	2
586.150	1	3
587.339	1	4
588.528	1	3
589.717	1	0
590.905	1	10
592.094	1	4
593.283	1	4
594.471	1	0
595.660	1	-2
596.848	1	4
598.037	1	4
599.225	1	7
600.413	1	-6
601.602	1	-7
602.790	1	1
603.978	1	-2
605.166	1	-3
606.355	1	5
607.543	1	0
608.731	1	-2
609.919	1	-1
611.107	1	7
612.295	1	1
613.483	1	0
614.671	1	5
615.858	1	1
617.046	1	2
618.234	1	-2
619.422	1	-1
620.609	1	5
621.797	1	-2
622.985	1	5
624.172	1	5
625.360	1	-6
626.547	1	8
627.735	1	-1
628.922	1	-1
630.109	1	-1
631.297	1	-7
632.484	1	-5
633.671	1	-5
634.858	1	10
636.045	1	-1
637.232	1	-1
638.419	1	6
639.606	1	12
640.793	1	6
641.980	1	0
643.167	1	11
644.354	1	-6
645.541	1	-7
646.728	1	2
647.914	1	-4
649.101	1	-6
650.288	1	-4
651.474	1	6
652.661	1	-3
653.847	1	11
655.034	1	11
656.220	1	8
657.406	1	-3
658.593	1	-3
659.779	1	-1
660.965	1	-8
662.152	1	-1
663.338	1	-9
664.524	1	-16
665.710	1	-5
666.896	1	-4
668.082	1	2
669.268	1	-4
670.454	1	6
671.640	1	-20
672.826	1	-13
674.011	1	11
675.197	1	1
676.383	1	-10
677.569	1	1
678.754	1	3
679.940	1	-10
681.125	1	11
682.311	1	6
683.496	1	-8
684.682	1	13
685.867	1	1
687.053	1	1
688.238	1	5
688.746	1	3