File: Analysis/GaN_68K_200ms/GaN_sample E_spot4_UVVIS_68 K_200um_200 ms 2x2mm1_744.txt
340.368	1	1
341.565	1	-10
342.763	1	-5
343.960	1	-4
345.157	1	2
346.354	1	-1
347.552	1	-13
348.749	1	-1
349.946	1	9
351.143	1	-12
352.340	1	-7
353.537	1	-1
354.734	1	-2
355.931	1	4
357.127	1	1
358.324	1	5
359.521	1	-3
360.718	1	-4
361.914	1	-1
363.111	1	12
364.308	1	-4
365.504	1	-3
366.701	1	-14
367.897	1	-12
369.093	1	4
370.290	1	-7
371.486	1	5
372.682	1	4
373.879	1	5
375.075	1	0
376.271	1	-2
377.467	1	4
378.663	1	-11
379.859	1	1
381.055	1	-2
382.251	1	12
383.447	1	12
384.643	1	0
385.839	1	7
387.035	1	-2
388.230	1	0
389.426	1	9
390.622	1	-8
391.817	1	5
393.013	1	7
394.208	1	7
395.404	1	7
396.599	1	3
397.795	1	-1
398.990	1	0
400.186	1	11
401.381	1	4
402.576	1	20
403.771	1	-4
404.967	1	1
406.162	1	-9
407.357	1	-5
408.552	1	3
409.747	1	3
410.942	1	1
412.137	1	6
413.332	1	-1
414.526	1	-2
415.721	1	4
416.916	1	0
418.111	1	8
419.305	1	6
420.500	1	1
421.695	1	-2
422.889	1	2
424.084	1	3
425.278	1	-8
426.472	1	-10
427.667	1	7
428.861	1	6
430.055	1	0
431.250	1	-9
432.444	1	3
433.638	1	-7
434.832	1	-7
436.026	1	-4
437.220	1	1
438.414	1	-6
439.608	1	0
440.802	1	4
441.996	1	-6
443.190	1	-1
444.384	1	5
445.578	1	5
446.771	1	-3
447.965	1	-10
449.159	1	-12
450.352	1	7
451.546	1	-1
452.739	1	0
453.933	1	8
455.126	1	-4
456.320	1	0
457.513	1	-3
458.706	1	-5
459.899	1	-2
461.093	1	0
462.286	1	-3
463.479	1	7
464.672	1	1
465.865	1	1
467.058	1	7
468.251	1	6
469.444	1	-6
470.637	1	15
471.830	1	10
473.023	1	-2
474.215	1	-2
475.408	1	-6
476.601	1	4
477.793	1	6
478.986	1	-4
480.179	1	4
481.371	1	8
482.564	1	-8
483.756	1	-5
484.948	1	-3
486.141	1	-12
487.333	1	0
488.525	1	3
489.718	1	-9
490.910	1	-4
492.102	1	-2
493.294	1	5
494.486	1	-3
495.678	1	8
496.870	1	-7
498.062	1	2
499.254	1	5
500.446	1	6
501.638	1	1
502.829	1	3
504.021	1	17
505.213	1	-1
506.404	1	-13
507.596	1	5
508.788	1	-4
509.979	1	1
511.171	1	11
512.362	1	4
513.553	1	-3
514.745	1	-2
515.936	1	2
517.127	1	0
518.319	1	3
519.510	1	-5
520.701	1	1
521.892	1	-5
523.083	1	1
524.274	1	-8
525.465	1	-5
526.656	1	15
527.847	1	-3
529.038	1	5
530.229	1	-4
531.419	1	-1
532.610	1	9
533.801	1	-3
534.991	1	7
536.182	1	-5
537.373	1	4
538.563	1	9
539.754	1	0
540.944	1	-8
542.134	1	5
543.325	1	-4
544.515	1	-5
545.705	1	5
546.896	1	-4
548.086	1	-2
549.276	1	3
550.466	1	-6
551.656	1	-7
552.846	1	2
554.036	1	-3
555.226	1	-7
556.416	1	-6
557.606	1	-2
558.796	1	-1
559.986	1	-5
561.175	1	4
562.365	1	-4
563.555	1	1
564.744	1	3
565.934	1	8
567.123	1	13
568.313	1	2
569.502	1	3
570.692	1	3
571.881	1	6
573.070	1	-4
574.260	1	-4
575.449	1	6
576.638	1	2
577.827	1	10
579.016	1	18
580.205	1	-7
581.394	1	8
582.583	1	-5
583.772	1	7
584.961	1	5
586.150	1	2
587.339	1	-2
588.528	1	-2
589.717	1	6
590.905	1	4
592.094	1	-1
593.283	1	9
594.471	1	-4
595.660	1	-2
596.848	1	9
598.037	1	-1
599.225	1	3
600.413	1	1
601.602	1	-2
602.790	1	4
603.978	1	0
605.166	1	-6
606.355	1	9
607.543	1	-4
608.731	1	-11
609.919	1	-16
611.107	1	7
612.295	1	5
613.483	1	1
614.671	1	4
615.858	1	6
617.046	1	-1
618.234	1	-2
619.422	1	4
620.609	1	-1
621.797	1	5
622.985	1	1
624.172	1	11
625.360	1	-9
626.547	1	0
627.735	1	-10
628.922	1	0
630.109	1	1
631.297	1	-7
632.484	1	-4
633.671	1	-2
634.858	1	10
636.045	1	-6
637.232	1	3
638.419	1	3
639.606	1	12
640.793	1	-1
641.980	1	0
643.167	1	9
644.354	1	-6
645.541	1	-5
646.728	1	-6
647.914	1	-5
649.101	1	2
650.288	1	-2
651.474	1	8
652.661	1	5
653.847	1	0
655.034	1	-2
656.220	1	1
657.406	1	1
658.593	1	-4
659.779	1	0
660.965	1	-4
662.152	1	-2
663.338	1	-2
664.524	1	-10
665.710	1	6
666.896	1	4
668.082	1	-7
669.268	1	-3
670.454	1	1
671.640	1	-12
672.826	1	-8
674.011	1	-1
675.197	1	-8
676.383	1	-10
677.569	1	-11
678.754	1	-4
679.940	1	-2
681.125	1	3
682.311	1	-2
683.496	1	4
684.682	1	4
685.867	1	10
687.053	1	7
688.238	1	-1
688.746	1	6