File: Analysis/GaN_68K_200ms/GaN_sample E_spot4_UVVIS_68 K_200um_200 ms 2x2mm1_184.txt
340.368	1	6
341.565	1	-3
342.763	1	-3
343.960	1	5
345.157	1	12
346.354	1	-4
347.552	1	8
348.749	1	6
349.946	1	8
351.143	1	-1
352.340	1	3
353.537	1	6
354.734	1	9
355.931	1	3
357.127	1	5
358.324	1	6
359.521	1	6
360.718	1	1
361.914	1	6
363.111	1	26
364.308	1	15
365.504	1	30
366.701	1	17
367.897	1	13
369.093	1	28
370.290	1	19
371.486	1	25
372.682	1	4
373.879	1	22
375.075	1	18
376.271	1	13
377.467	1	12
378.663	1	9
379.859	1	3
381.055	1	9
382.251	1	19
383.447	1	29
384.643	1	32
385.839	1	39
387.035	1	25
388.230	1	37
389.426	1	41
390.622	1	20
391.817	1	26
393.013	1	35
394.208	1	33
395.404	1	31
396.599	1	28
397.795	1	25
398.990	1	34
400.186	1	27
401.381	1	29
402.576	1	24
403.771	1	18
404.967	1	26
406.162	1	22
407.357	1	22
408.552	1	25
409.747	1	10
410.942	1	26
412.137	1	26
413.332	1	19
414.526	1	16
415.721	1	22
416.916	1	15
418.111	1	11
419.305	1	12
420.500	1	19
421.695	1	10
422.889	1	9
424.084	1	25
425.278	1	-1
426.472	1	9
427.667	1	21
428.861	1	5
430.055	1	15
431.250	1	0
432.444	1	14
433.638	1	4
434.832	1	6
436.026	1	2
437.220	1	7
438.414	1	17
439.608	1	12
440.802	1	12
441.996	1	11
443.190	1	-3
444.384	1	11
445.578	1	8
446.771	1	15
447.965	1	13
449.159	1	4
450.352	1	11
451.546	1	2
452.739	1	3
453.933	1	9
455.126	1	12
456.320	1	10
457.513	1	10
458.706	1	10
459.899	1	17
461.093	1	16
462.286	1	2
463.479	1	12
464.672	1	10
465.865	1	5
467.058	1	11
468.251	1	1
469.444	1	5
470.637	1	18
471.830	1	18
473.023	1	-2
474.215	1	9
475.408	1	7
476.601	1	2
477.793	1	6
478.986	1	7
480.179	1	6
481.371	1	6
482.564	1	-1
483.756	1	17
484.948	1	4
486.141	1	1
487.333	1	9
488.525	1	-1
489.718	1	2
490.910	1	6
492.102	1	7
493.294	1	25
494.486	1	15
495.678	1	11
496.870	1	16
498.062	1	6
499.254	1	12
500.446	1	23
501.638	1	10
502.829	1	11
504.021	1	32
505.213	1	12
506.404	1	2
507.596	1	24
508.788	1	12
509.979	1	14
511.171	1	22
512.362	1	11
513.553	1	8
514.745	1	18
515.936	1	15
517.127	1	24
518.319	1	17
519.510	1	25
520.701	1	22
521.892	1	14
523.083	1	14
524.274	1	14
525.465	1	24
526.656	1	42
527.847	1	7
529.038	1	23
530.229	1	14
531.419	1	23
532.610	1	22
533.801	1	25
534.991	1	20
536.182	1	30
537.373	1	19
538.563	1	20
539.754	1	25
540.944	1	18
542.134	1	25
543.325	1	12
544.515	1	27
545.705	1	18
546.896	1	21
548.086	1	24
549.276	1	26
550.466	1	12
551.656	1	9
552.846	1	20
554.036	1	14
555.226	1	13
556.416	1	23
557.606	1	0
558.796	1	12
559.986	1	6
561.175	1	2
562.365	1	17
563.555	1	17
564.744	1	21
565.934	1	13
567.123	1	26
568.313	1	4
569.502	1	14
570.692	1	10
571.881	1	7
573.070	1	12
574.260	1	4
575.449	1	14
576.638	1	11
577.827	1	21
579.016	1	21
580.205	1	11
581.394	1	1
582.583	1	4
583.772	1	13
584.961	1	13
586.150	1	12
587.339	1	4
588.528	1	8
589.717	1	8
590.905	1	10
592.094	1	15
593.283	1	7
594.471	1	13
595.660	1	-1
596.848	1	6
598.037	1	3
599.225	1	5
600.413	1	4
601.602	1	16
602.790	1	22
603.978	1	1
605.166	1	10
606.355	1	9
607.543	1	-1
608.731	1	-2
609.919	1	-4
611.107	1	4
612.295	1	5
613.483	1	11
614.671	1	12
615.858	1	4
617.046	1	9
618.234	1	7
619.422	1	3
620.609	1	10
621.797	1	9
622.985	1	2
624.172	1	11
625.360	1	-3
626.547	1	16
627.735	1	7
628.922	1	3
630.109	1	8
631.297	1	1
632.484	1	-1
633.671	1	3
634.858	1	12
636.045	1	11
637.232	1	7
638.419	1	10
639.606	1	16
640.793	1	9
641.980	1	4
643.167	1	10
644.354	1	6
645.541	1	-5
646.728	1	11
647.914	1	-6
649.101	1	6
650.288	1	0
651.474	1	8
652.661	1	9
653.847	1	11
655.034	1	6
656.220	1	0
657.406	1	7
658.593	1	-3
659.779	1	1
660.965	1	5
662.152	1	3
663.338	1	3
664.524	1	-5
665.710	1	3
666.896	1	4
668.082	1	8
669.268	1	-2
670.454	1	-1
671.640	1	-8
672.826	1	-12
674.011	1	12
675.197	1	4
676.383	1	2
677.569	1	-1
678.754	1	3
679.940	1	2
681.125	1	7
682.311	1	1
683.496	1	-3
684.682	1	2
685.867	1	2
687.053	1	12
688.238	1	1
688.746	1	6