File: Analysis/GaN_68K_200ms/GaN_sample E_spot4_UVVIS_68 K_200um_200 ms 2x2mm1_125.txt
340.368	1	8
341.565	1	-2
342.763	1	5
343.960	1	2
345.157	1	8
346.354	1	9
347.552	1	9
348.749	1	3
349.946	1	14
351.143	1	6
352.340	1	5
353.537	1	13
354.734	1	12
355.931	1	18
357.127	1	13
358.324	1	34
359.521	1	35
360.718	1	49
361.914	1	66
363.111	1	127
364.308	1	183
365.504	1	272
366.701	1	313
367.897	1	298
369.093	1	242
370.290	1	191
371.486	1	160
372.682	1	126
373.879	1	123
375.075	1	93
376.271	1	79
377.467	1	74
378.663	1	69
379.859	1	77
381.055	1	99
382.251	1	144
383.447	1	207
384.643	1	313
385.839	1	385
387.035	1	440
388.230	1	426
389.426	1	431
390.622	1	397
391.817	1	374
393.013	1	351
394.208	1	352
395.404	1	355
396.599	1	372
397.795	1	405
398.990	1	396
400.186	1	377
401.381	1	315
402.576	1	283
403.771	1	271
404.967	1	261
406.162	1	250
407.357	1	237
408.552	1	235
409.747	1	215
410.942	1	204
412.137	1	204
413.332	1	179
414.526	1	162
415.721	1	139
416.916	1	134
418.111	1	145
419.305	1	129
420.500	1	135
421.695	1	119
422.889	1	111
424.084	1	101
425.278	1	82
426.472	1	86
427.667	1	98
428.861	1	74
430.055	1	73
431.250	1	63
432.444	1	75
433.638	1	64
434.832	1	66
436.026	1	49
437.220	1	63
438.414	1	41
439.608	1	51
440.802	1	50
441.996	1	38
443.190	1	27
444.384	1	57
445.578	1	51
446.771	1	38
447.965	1	22
449.159	1	38
450.352	1	39
451.546	1	35
452.739	1	21
453.933	1	35
455.126	1	21
456.320	1	23
457.513	1	29
458.706	1	27
459.899	1	39
461.093	1	30
462.286	1	22
463.479	1	30
464.672	1	17
465.865	1	19
467.058	1	43
468.251	1	18
469.444	1	23
470.637	1	37
471.830	1	37
473.023	1	14
474.215	1	19
475.408	1	21
476.601	1	25
477.793	1	23
478.986	1	14
480.179	1	25
481.371	1	16
482.564	1	19
483.756	1	33
484.948	1	21
486.141	1	21
487.333	1	33
488.525	1	28
489.718	1	36
490.910	1	36
492.102	1	33
493.294	1	52
494.486	1	53
495.678	1	51
496.870	1	52
498.062	1	53
499.254	1	53
500.446	1	71
501.638	1	76
502.829	1	77
504.021	1	93
505.213	1	83
506.404	1	95
507.596	1	97
508.788	1	92
509.979	1	102
511.171	1	111
512.362	1	109
513.553	1	111
514.745	1	138
515.936	1	127
517.127	1	134
518.319	1	138
519.510	1	135
520.701	1	139
521.892	1	140
523.083	1	156
524.274	1	148
525.465	1	157
526.656	1	167
527.847	1	152
529.038	1	167
530.229	1	173
531.419	1	184
532.610	1	184
533.801	1	171
534.991	1	158
536.182	1	153
537.373	1	148
538.563	1	165
539.754	1	153
540.944	1	151
542.134	1	151
543.325	1	142
544.515	1	140
545.705	1	139
546.896	1	142
548.086	1	141
549.276	1	141
550.466	1	136
551.656	1	124
552.846	1	146
554.036	1	123
555.226	1	120
556.416	1	123
557.606	1	116
558.796	1	113
559.986	1	101
561.175	1	103
562.365	1	101
563.555	1	109
564.744	1	100
565.934	1	90
567.123	1	105
568.313	1	78
569.502	1	77
570.692	1	84
571.881	1	78
573.070	1	84
574.260	1	64
575.449	1	75
576.638	1	66
577.827	1	74
579.016	1	72
580.205	1	63
581.394	1	50
582.583	1	55
583.772	1	60
584.961	1	62
586.150	1	65
587.339	1	51
588.528	1	55
589.717	1	54
590.905	1	48
592.094	1	50
593.283	1	55
594.471	1	46
595.660	1	31
596.848	1	53
598.037	1	38
599.225	1	41
600.413	1	41
601.602	1	36
602.790	1	32
603.978	1	36
605.166	1	18
606.355	1	37
607.543	1	22
608.731	1	27
609.919	1	28
611.107	1	39
612.295	1	31
613.483	1	40
614.671	1	16
615.858	1	37
617.046	1	26
618.234	1	20
619.422	1	20
620.609	1	23
621.797	1	17
622.985	1	20
624.172	1	30
625.360	1	13
626.547	1	22
627.735	1	21
628.922	1	19
630.109	1	12
631.297	1	9
632.484	1	19
633.671	1	21
634.858	1	25
636.045	1	23
637.232	1	12
638.419	1	23
639.606	1	32
640.793	1	20
641.980	1	12
643.167	1	23
644.354	1	15
645.541	1	12
646.728	1	23
647.914	1	9
649.101	1	9
650.288	1	11
651.474	1	10
652.661	1	24
653.847	1	13
655.034	1	14
656.220	1	18
657.406	1	13
658.593	1	6
659.779	1	11
660.965	1	13
662.152	1	13
663.338	1	7
664.524	1	2
665.710	1	9
666.896	1	12
668.082	1	4
669.268	1	11
670.454	1	17
671.640	1	-1
672.826	1	-6
674.011	1	16
675.197	1	6
676.383	1	7
677.569	1	13
678.754	1	8
679.940	1	12
681.125	1	11
682.311	1	15
683.496	1	9
684.682	1	23
685.867	1	15
687.053	1	8
688.238	1	23
688.746	1	17