File: Analysis/GaN_68K_200ms/GaN_sample E_spot4_UVVIS_68 K_200um_200 ms 2x2mm1_154.txt
340.368	1	-2
341.565	1	-1
342.763	1	-1
343.960	1	3
345.157	1	11
346.354	1	7
347.552	1	1
348.749	1	7
349.946	1	17
351.143	1	-1
352.340	1	9
353.537	1	10
354.734	1	8
355.931	1	4
357.127	1	4
358.324	1	8
359.521	1	12
360.718	1	11
361.914	1	17
363.111	1	27
364.308	1	35
365.504	1	43
366.701	1	67
367.897	1	50
369.093	1	54
370.290	1	41
371.486	1	45
372.682	1	40
373.879	1	39
375.075	1	37
376.271	1	31
377.467	1	12
378.663	1	24
379.859	1	14
381.055	1	19
382.251	1	30
383.447	1	50
384.643	1	54
385.839	1	55
387.035	1	61
388.230	1	60
389.426	1	65
390.622	1	68
391.817	1	56
393.013	1	52
394.208	1	58
395.404	1	53
396.599	1	62
397.795	1	65
398.990	1	67
400.186	1	58
401.381	1	50
402.576	1	54
403.771	1	48
404.967	1	49
406.162	1	39
407.357	1	42
408.552	1	44
409.747	1	35
410.942	1	36
412.137	1	34
413.332	1	30
414.526	1	33
415.721	1	40
416.916	1	16
418.111	1	22
419.305	1	30
420.500	1	25
421.695	1	28
422.889	1	31
424.084	1	24
425.278	1	14
426.472	1	12
427.667	1	23
428.861	1	12
430.055	1	19
431.250	1	7
432.444	1	24
433.638	1	16
434.832	1	16
436.026	1	14
437.220	1	15
438.414	1	19
439.608	1	9
440.802	1	22
441.996	1	11
443.190	1	4
444.384	1	6
445.578	1	11
446.771	1	-3
447.965	1	1
449.159	1	11
450.352	1	17
451.546	1	11
452.739	1	10
453.933	1	17
455.126	1	8
456.320	1	9
457.513	1	11
458.706	1	9
459.899	1	22
461.093	1	9
462.286	1	23
463.479	1	17
464.672	1	10
465.865	1	7
467.058	1	19
468.251	1	7
469.444	1	4
470.637	1	20
471.830	1	16
473.023	1	-1
474.215	1	3
475.408	1	6
476.601	1	13
477.793	1	22
478.986	1	10
480.179	1	17
481.371	1	12
482.564	1	-3
483.756	1	13
484.948	1	7
486.141	1	-5
487.333	1	1
488.525	1	6
489.718	1	7
490.910	1	7
492.102	1	9
493.294	1	33
494.486	1	19
495.678	1	17
496.870	1	17
498.062	1	13
499.254	1	15
500.446	1	31
501.638	1	20
502.829	1	20
504.021	1	27
505.213	1	22
506.404	1	14
507.596	1	28
508.788	1	29
509.979	1	33
511.171	1	35
512.362	1	34
513.553	1	25
514.745	1	32
515.936	1	44
517.127	1	37
518.319	1	26
519.510	1	45
520.701	1	39
521.892	1	34
523.083	1	34
524.274	1	46
525.465	1	45
526.656	1	60
527.847	1	37
529.038	1	44
530.229	1	40
531.419	1	56
532.610	1	44
533.801	1	51
534.991	1	40
536.182	1	47
537.373	1	40
538.563	1	50
539.754	1	34
540.944	1	50
542.134	1	44
543.325	1	33
544.515	1	34
545.705	1	44
546.896	1	36
548.086	1	40
549.276	1	47
550.466	1	20
551.656	1	20
552.846	1	29
554.036	1	34
555.226	1	30
556.416	1	34
557.606	1	18
558.796	1	29
559.986	1	24
561.175	1	35
562.365	1	25
563.555	1	30
564.744	1	26
565.934	1	26
567.123	1	34
568.313	1	19
569.502	1	24
570.692	1	25
571.881	1	15
573.070	1	30
574.260	1	21
575.449	1	26
576.638	1	17
577.827	1	17
579.016	1	31
580.205	1	16
581.394	1	7
582.583	1	6
583.772	1	24
584.961	1	3
586.150	1	18
587.339	1	6
588.528	1	11
589.717	1	17
590.905	1	18
592.094	1	15
593.283	1	18
594.471	1	10
595.660	1	7
596.848	1	13
598.037	1	16
599.225	1	18
600.413	1	7
601.602	1	10
602.790	1	16
603.978	1	5
605.166	1	3
606.355	1	20
607.543	1	3
608.731	1	10
609.919	1	3
611.107	1	13
612.295	1	18
613.483	1	7
614.671	1	10
615.858	1	-2
617.046	1	8
618.234	1	4
619.422	1	9
620.609	1	4
621.797	1	11
622.985	1	8
624.172	1	11
625.360	1	2
626.547	1	4
627.735	1	19
628.922	1	4
630.109	1	0
631.297	1	-3
632.484	1	14
633.671	1	10
634.858	1	6
636.045	1	14
637.232	1	4
638.419	1	12
639.606	1	14
640.793	1	7
641.980	1	-1
643.167	1	20
644.354	1	7
645.541	1	-9
646.728	1	11
647.914	1	6
649.101	1	-3
650.288	1	1
651.474	1	10
652.661	1	4
653.847	1	8
655.034	1	7
656.220	1	12
657.406	1	8
658.593	1	-2
659.779	1	3
660.965	1	8
662.152	1	7
663.338	1	9
664.524	1	-1
665.710	1	3
666.896	1	0
668.082	1	12
669.268	1	2
670.454	1	8
671.640	1	-11
672.826	1	-3
674.011	1	11
675.197	1	1
676.383	1	7
677.569	1	2
678.754	1	-1
679.940	1	1
681.125	1	11
682.311	1	5
683.496	1	-1
684.682	1	17
685.867	1	11
687.053	1	9
688.238	1	17
688.746	1	13