File: Analysis/GaN_68K_200ms/GaN_sample E_spot4_UVVIS_68 K_200um_200 ms 2x2mm1_126.txt
340.368	1	5
341.565	1	4
342.763	1	4
343.960	1	4
345.157	1	7
346.354	1	9
347.552	1	5
348.749	1	12
349.946	1	9
351.143	1	-8
352.340	1	8
353.537	1	2
354.734	1	5
355.931	1	24
357.127	1	16
358.324	1	25
359.521	1	30
360.718	1	42
361.914	1	68
363.111	1	106
364.308	1	149
365.504	1	212
366.701	1	264
367.897	1	241
369.093	1	215
370.290	1	161
371.486	1	142
372.682	1	108
373.879	1	99
375.075	1	104
376.271	1	68
377.467	1	66
378.663	1	49
379.859	1	60
381.055	1	85
382.251	1	120
383.447	1	175
384.643	1	240
385.839	1	310
387.035	1	340
388.230	1	336
389.426	1	336
390.622	1	318
391.817	1	286
393.013	1	281
394.208	1	279
395.404	1	272
396.599	1	307
397.795	1	316
398.990	1	313
400.186	1	288
401.381	1	251
402.576	1	223
403.771	1	209
404.967	1	204
406.162	1	204
407.357	1	189
408.552	1	191
409.747	1	177
410.942	1	167
412.137	1	152
413.332	1	136
414.526	1	134
415.721	1	112
416.916	1	111
418.111	1	106
419.305	1	103
420.500	1	96
421.695	1	95
422.889	1	92
424.084	1	86
425.278	1	66
426.472	1	71
427.667	1	75
428.861	1	50
430.055	1	66
431.250	1	46
432.444	1	58
433.638	1	45
434.832	1	45
436.026	1	53
437.220	1	49
438.414	1	52
439.608	1	46
440.802	1	42
441.996	1	35
443.190	1	34
444.384	1	36
445.578	1	39
446.771	1	23
447.965	1	22
449.159	1	23
450.352	1	33
451.546	1	23
452.739	1	23
453.933	1	24
455.126	1	24
456.320	1	30
457.513	1	35
458.706	1	32
459.899	1	28
461.093	1	33
462.286	1	28
463.479	1	26
464.672	1	14
465.865	1	16
467.058	1	28
468.251	1	15
469.444	1	14
470.637	1	32
471.830	1	28
473.023	1	15
474.215	1	14
475.408	1	22
476.601	1	17
477.793	1	19
478.986	1	18
480.179	1	28
481.371	1	24
482.564	1	14
483.756	1	28
484.948	1	7
486.141	1	25
487.333	1	29
488.525	1	34
489.718	1	23
490.910	1	26
492.102	1	38
493.294	1	44
494.486	1	54
495.678	1	46
496.870	1	44
498.062	1	44
499.254	1	58
500.446	1	73
501.638	1	54
502.829	1	55
504.021	1	91
505.213	1	73
506.404	1	71
507.596	1	90
508.788	1	99
509.979	1	89
511.171	1	107
512.362	1	111
513.553	1	106
514.745	1	104
515.936	1	106
517.127	1	121
518.319	1	128
519.510	1	126
520.701	1	143
521.892	1	115
523.083	1	134
524.274	1	135
525.465	1	129
526.656	1	151
527.847	1	135
529.038	1	158
530.229	1	155
531.419	1	159
532.610	1	149
533.801	1	144
534.991	1	148
536.182	1	142
537.373	1	142
538.563	1	131
539.754	1	120
540.944	1	120
542.134	1	140
543.325	1	131
544.515	1	130
545.705	1	133
546.896	1	126
548.086	1	131
549.276	1	129
550.466	1	107
551.656	1	104
552.846	1	122
554.036	1	116
555.226	1	105
556.416	1	108
557.606	1	95
558.796	1	90
559.986	1	87
561.175	1	84
562.365	1	83
563.555	1	94
564.744	1	78
565.934	1	82
567.123	1	81
568.313	1	77
569.502	1	73
570.692	1	75
571.881	1	62
573.070	1	69
574.260	1	69
575.449	1	68
576.638	1	62
577.827	1	70
579.016	1	69
580.205	1	48
581.394	1	41
582.583	1	41
583.772	1	53
584.961	1	56
586.150	1	42
587.339	1	39
588.528	1	58
589.717	1	42
590.905	1	41
592.094	1	50
593.283	1	30
594.471	1	38
595.660	1	31
596.848	1	44
598.037	1	34
599.225	1	38
600.413	1	26
601.602	1	24
602.790	1	19
603.978	1	22
605.166	1	22
606.355	1	30
607.543	1	15
608.731	1	25
609.919	1	17
611.107	1	35
612.295	1	20
613.483	1	29
614.671	1	34
615.858	1	22
617.046	1	18
618.234	1	19
619.422	1	22
620.609	1	19
621.797	1	17
622.985	1	15
624.172	1	27
625.360	1	10
626.547	1	21
627.735	1	18
628.922	1	15
630.109	1	15
631.297	1	2
632.484	1	19
633.671	1	7
634.858	1	26
636.045	1	10
637.232	1	19
638.419	1	27
639.606	1	23
640.793	1	21
641.980	1	8
643.167	1	17
644.354	1	21
645.541	1	6
646.728	1	17
647.914	1	8
649.101	1	20
650.288	1	12
651.474	1	11
652.661	1	13
653.847	1	18
655.034	1	11
656.220	1	7
657.406	1	22
658.593	1	-4
659.779	1	-5
660.965	1	14
662.152	1	5
663.338	1	10
664.524	1	-2
665.710	1	-1
666.896	1	4
668.082	1	9
669.268	1	17
670.454	1	11
671.640	1	-5
672.826	1	-2
674.011	1	11
675.197	1	13
676.383	1	15
677.569	1	10
678.754	1	5
679.940	1	3
681.125	1	14
682.311	1	12
683.496	1	2
684.682	1	26
685.867	1	12
687.053	1	15
688.238	1	10
688.746	1	7