File: Analysis/GaN_68K_200ms/GaN_sample E_spot4_UVVIS_68 K_200um_200 ms 2x2mm1_1.txt
340.368	1	-3
341.565	1	-7
342.763	1	0
343.960	1	-7
345.157	1	3
346.354	1	-13
347.552	1	4
348.749	1	1
349.946	1	5
351.143	1	-2
352.340	1	0
353.537	1	1
354.734	1	-15
355.931	1	2
357.127	1	4
358.324	1	1
359.521	1	2
360.718	1	-12
361.914	1	4
363.111	1	2
364.308	1	-3
365.504	1	-6
366.701	1	-9
367.897	1	-1
369.093	1	2
370.290	1	-8
371.486	1	7
372.682	1	7
373.879	1	11
375.075	1	5
376.271	1	-3
377.467	1	-7
378.663	1	-3
379.859	1	-10
381.055	1	3
382.251	1	6
383.447	1	17
384.643	1	-5
385.839	1	5
387.035	1	-6
388.230	1	-6
389.426	1	0
390.622	1	-10
391.817	1	-13
393.013	1	6
394.208	1	9
395.404	1	6
396.599	1	-4
397.795	1	-2
398.990	1	-3
400.186	1	9
401.381	1	-2
402.576	1	7
403.771	1	-2
404.967	1	-5
406.162	1	-8
407.357	1	1
408.552	1	-4
409.747	1	-8
410.942	1	0
412.137	1	4
413.332	1	-7
414.526	1	1
415.721	1	2
416.916	1	-9
418.111	1	6
419.305	1	-1
420.500	1	4
421.695	1	1
422.889	1	-2
424.084	1	6
425.278	1	-9
426.472	1	-6
427.667	1	5
428.861	1	2
430.055	1	0
431.250	1	-7
432.444	1	4
433.638	1	0
434.832	1	-4
436.026	1	-2
437.220	1	4
438.414	1	5
439.608	1	2
440.802	1	3
441.996	1	2
443.190	1	-8
444.384	1	1
445.578	1	13
446.771	1	-8
447.965	1	-11
449.159	1	-8
450.352	1	3
451.546	1	5
452.739	1	4
453.933	1	7
455.126	1	3
456.320	1	-2
457.513	1	13
458.706	1	-3
459.899	1	6
461.093	1	12
462.286	1	2
463.479	1	8
464.672	1	-1
465.865	1	-8
467.058	1	5
468.251	1	-8
469.444	1	-3
470.637	1	5
471.830	1	13
473.023	1	-10
474.215	1	-6
475.408	1	1
476.601	1	-1
477.793	1	8
478.986	1	-11
480.179	1	4
481.371	1	-1
482.564	1	-6
483.756	1	2
484.948	1	-6
486.141	1	2
487.333	1	-1
488.525	1	4
489.718	1	-6
490.910	1	-4
492.102	1	0
493.294	1	6
494.486	1	2
495.678	1	2
496.870	1	4
498.062	1	-9
499.254	1	-2
500.446	1	13
501.638	1	0
502.829	1	1
504.021	1	17
505.213	1	5
506.404	1	-7
507.596	1	0
508.788	1	0
509.979	1	4
511.171	1	10
512.362	1	2
513.553	1	-7
514.745	1	4
515.936	1	-3
517.127	1	2
518.319	1	3
519.510	1	1
520.701	1	4
521.892	1	-4
523.083	1	-3
524.274	1	-6
525.465	1	1
526.656	1	14
527.847	1	-8
529.038	1	9
530.229	1	4
531.419	1	4
532.610	1	1
533.801	1	6
534.991	1	0
536.182	1	-4
537.373	1	-9
538.563	1	3
539.754	1	-6
540.944	1	0
542.134	1	4
543.325	1	0
544.515	1	1
545.705	1	15
546.896	1	-7
548.086	1	-5
549.276	1	2
550.466	1	-3
551.656	1	-16
552.846	1	9
554.036	1	-2
555.226	1	1
556.416	1	7
557.606	1	-6
558.796	1	2
559.986	1	5
561.175	1	-4
562.365	1	1
563.555	1	3
564.744	1	5
565.934	1	1
567.123	1	13
568.313	1	-8
569.502	1	5
570.692	1	3
571.881	1	-3
573.070	1	4
574.260	1	-6
575.449	1	7
576.638	1	0
577.827	1	6
579.016	1	7
580.205	1	2
581.394	1	-5
582.583	1	-4
583.772	1	-1
584.961	1	12
586.150	1	0
587.339	1	6
588.528	1	5
589.717	1	-11
590.905	1	4
592.094	1	1
593.283	1	-6
594.471	1	1
595.660	1	-2
596.848	1	12
598.037	1	2
599.225	1	1
600.413	1	-8
601.602	1	-3
602.790	1	2
603.978	1	3
605.166	1	-12
606.355	1	6
607.543	1	0
608.731	1	-18
609.919	1	-8
611.107	1	13
612.295	1	-5
613.483	1	-2
614.671	1	-2
615.858	1	9
617.046	1	2
618.234	1	-1
619.422	1	-6
620.609	1	1
621.797	1	7
622.985	1	1
624.172	1	15
625.360	1	-14
626.547	1	1
627.735	1	-5
628.922	1	-4
630.109	1	0
631.297	1	-4
632.484	1	-6
633.671	1	7
634.858	1	2
636.045	1	4
637.232	1	0
638.419	1	0
639.606	1	14
640.793	1	6
641.980	1	-5
643.167	1	14
644.354	1	1
645.541	1	-7
646.728	1	5
647.914	1	-3
649.101	1	4
650.288	1	-3
651.474	1	11
652.661	1	3
653.847	1	4
655.034	1	7
656.220	1	0
657.406	1	6
658.593	1	-2
659.779	1	-11
660.965	1	2
662.152	1	1
663.338	1	-9
664.524	1	-6
665.710	1	-7
666.896	1	-11
668.082	1	-1
669.268	1	-5
670.454	1	0
671.640	1	-14
672.826	1	-13
674.011	1	3
675.197	1	-5
676.383	1	-7
677.569	1	-7
678.754	1	5
679.940	1	0
681.125	1	1
682.311	1	2
683.496	1	-3
684.682	1	4
685.867	1	0
687.053	1	3
688.238	1	-8
688.746	1	4