File: Analysis/GaN_68K_200ms/GaN_sample E_spot4_UVVIS_68 K_200um_200 ms 2x2mm1_576.txt
340.368	1	-3
341.565	1	-6
342.763	1	-3
343.960	1	-2
345.157	1	6
346.354	1	-9
347.552	1	11
348.749	1	-2
349.946	1	6
351.143	1	-5
352.340	1	0
353.537	1	1
354.734	1	-5
355.931	1	-9
357.127	1	1
358.324	1	-6
359.521	1	2
360.718	1	-5
361.914	1	1
363.111	1	15
364.308	1	3
365.504	1	-6
366.701	1	-5
367.897	1	6
369.093	1	2
370.290	1	-11
371.486	1	10
372.682	1	0
373.879	1	2
375.075	1	12
376.271	1	2
377.467	1	-4
378.663	1	1
379.859	1	6
381.055	1	10
382.251	1	6
383.447	1	8
384.643	1	6
385.839	1	2
387.035	1	-2
388.230	1	3
389.426	1	2
390.622	1	11
391.817	1	3
393.013	1	16
394.208	1	12
395.404	1	11
396.599	1	-1
397.795	1	6
398.990	1	11
400.186	1	12
401.381	1	6
402.576	1	22
403.771	1	6
404.967	1	9
406.162	1	4
407.357	1	0
408.552	1	-3
409.747	1	-2
410.942	1	4
412.137	1	1
413.332	1	-1
414.526	1	3
415.721	1	2
416.916	1	4
418.111	1	-2
419.305	1	3
420.500	1	12
421.695	1	-2
422.889	1	6
424.084	1	1
425.278	1	0
426.472	1	-9
427.667	1	2
428.861	1	0
430.055	1	3
431.250	1	-3
432.444	1	4
433.638	1	1
434.832	1	-5
436.026	1	1
437.220	1	4
438.414	1	3
439.608	1	2
440.802	1	-3
441.996	1	2
443.190	1	-12
444.384	1	-5
445.578	1	6
446.771	1	1
447.965	1	-6
449.159	1	-3
450.352	1	9
451.546	1	5
452.739	1	1
453.933	1	-4
455.126	1	1
456.320	1	4
457.513	1	14
458.706	1	5
459.899	1	6
461.093	1	4
462.286	1	9
463.479	1	8
464.672	1	0
465.865	1	-6
467.058	1	13
468.251	1	-2
469.444	1	-2
470.637	1	12
471.830	1	3
473.023	1	1
474.215	1	-11
475.408	1	6
476.601	1	5
477.793	1	13
478.986	1	4
480.179	1	-2
481.371	1	4
482.564	1	-9
483.756	1	9
484.948	1	-3
486.141	1	-3
487.333	1	-5
488.525	1	-1
489.718	1	-3
490.910	1	-4
492.102	1	-6
493.294	1	3
494.486	1	-4
495.678	1	11
496.870	1	1
498.062	1	-7
499.254	1	4
500.446	1	9
501.638	1	8
502.829	1	-7
504.021	1	17
505.213	1	1
506.404	1	-13
507.596	1	2
508.788	1	2
509.979	1	-11
511.171	1	12
512.362	1	4
513.553	1	-5
514.745	1	-1
515.936	1	13
517.127	1	1
518.319	1	-2
519.510	1	0
520.701	1	12
521.892	1	-12
523.083	1	0
524.274	1	-2
525.465	1	0
526.656	1	13
527.847	1	-8
529.038	1	5
530.229	1	11
531.419	1	4
532.610	1	4
533.801	1	6
534.991	1	7
536.182	1	-3
537.373	1	3
538.563	1	3
539.754	1	-5
540.944	1	-5
542.134	1	10
543.325	1	2
544.515	1	6
545.705	1	1
546.896	1	0
548.086	1	8
549.276	1	5
550.466	1	2
551.656	1	-3
552.846	1	9
554.036	1	10
555.226	1	-1
556.416	1	-3
557.606	1	-11
558.796	1	-7
559.986	1	3
561.175	1	5
562.365	1	-4
563.555	1	15
564.744	1	4
565.934	1	1
567.123	1	20
568.313	1	1
569.502	1	-3
570.692	1	-1
571.881	1	8
573.070	1	-1
574.260	1	-2
575.449	1	7
576.638	1	-1
577.827	1	8
579.016	1	6
580.205	1	4
581.394	1	-7
582.583	1	-14
583.772	1	-2
584.961	1	-1
586.150	1	-9
587.339	1	10
588.528	1	12
589.717	1	6
590.905	1	8
592.094	1	0
593.283	1	2
594.471	1	3
595.660	1	-13
596.848	1	12
598.037	1	6
599.225	1	10
600.413	1	3
601.602	1	6
602.790	1	13
603.978	1	3
605.166	1	-7
606.355	1	8
607.543	1	-5
608.731	1	-11
609.919	1	-8
611.107	1	4
612.295	1	3
613.483	1	8
614.671	1	6
615.858	1	4
617.046	1	1
618.234	1	2
619.422	1	-4
620.609	1	7
621.797	1	4
622.985	1	4
624.172	1	14
625.360	1	-7
626.547	1	0
627.735	1	7
628.922	1	-7
630.109	1	-9
631.297	1	-8
632.484	1	-8
633.671	1	-5
634.858	1	6
636.045	1	-5
637.232	1	5
638.419	1	9
639.606	1	5
640.793	1	3
641.980	1	0
643.167	1	8
644.354	1	-6
645.541	1	-4
646.728	1	-6
647.914	1	0
649.101	1	3
650.288	1	-4
651.474	1	7
652.661	1	-1
653.847	1	8
655.034	1	5
656.220	1	6
657.406	1	9
658.593	1	-5
659.779	1	-3
660.965	1	0
662.152	1	-5
663.338	1	2
664.524	1	-8
665.710	1	-2
666.896	1	-11
668.082	1	1
669.268	1	-5
670.454	1	5
671.640	1	-15
672.826	1	-19
674.011	1	13
675.197	1	3
676.383	1	-12
677.569	1	-11
678.754	1	9
679.940	1	-13
681.125	1	4
682.311	1	-3
683.496	1	-6
684.682	1	12
685.867	1	0
687.053	1	-1
688.238	1	7
688.746	1	4