File: Analysis/GaN_68K_200ms/GaN_sample E_spot4_UVVIS_68 K_200um_200 ms 2x2mm1_350.txt
340.368	1	0
341.565	1	1
342.763	1	4
343.960	1	0
345.157	1	12
346.354	1	-7
347.552	1	-5
348.749	1	0
349.946	1	10
351.143	1	-4
352.340	1	-1
353.537	1	-1
354.734	1	8
355.931	1	-4
357.127	1	3
358.324	1	3
359.521	1	-4
360.718	1	2
361.914	1	-6
363.111	1	7
364.308	1	-3
365.504	1	-5
366.701	1	-6
367.897	1	-2
369.093	1	4
370.290	1	-1
371.486	1	13
372.682	1	-10
373.879	1	4
375.075	1	11
376.271	1	-8
377.467	1	6
378.663	1	1
379.859	1	-14
381.055	1	0
382.251	1	4
383.447	1	13
384.643	1	7
385.839	1	14
387.035	1	1
388.230	1	4
389.426	1	15
390.622	1	0
391.817	1	-4
393.013	1	19
394.208	1	8
395.404	1	7
396.599	1	4
397.795	1	15
398.990	1	22
400.186	1	18
401.381	1	17
402.576	1	9
403.771	1	14
404.967	1	7
406.162	1	8
407.357	1	6
408.552	1	7
409.747	1	-7
410.942	1	10
412.137	1	14
413.332	1	2
414.526	1	5
415.721	1	5
416.916	1	1
418.111	1	8
419.305	1	-2
420.500	1	9
421.695	1	5
422.889	1	6
424.084	1	4
425.278	1	-5
426.472	1	4
427.667	1	6
428.861	1	-4
430.055	1	1
431.250	1	-9
432.444	1	7
433.638	1	-9
434.832	1	-12
436.026	1	-2
437.220	1	8
438.414	1	2
439.608	1	9
440.802	1	8
441.996	1	-1
443.190	1	-8
444.384	1	2
445.578	1	15
446.771	1	-4
447.965	1	-3
449.159	1	-1
450.352	1	6
451.546	1	-5
452.739	1	0
453.933	1	11
455.126	1	7
456.320	1	2
457.513	1	8
458.706	1	2
459.899	1	9
461.093	1	1
462.286	1	14
463.479	1	11
464.672	1	3
465.865	1	1
467.058	1	5
468.251	1	2
469.444	1	-4
470.637	1	15
471.830	1	15
473.023	1	1
474.215	1	-3
475.408	1	-3
476.601	1	4
477.793	1	1
478.986	1	0
480.179	1	8
481.371	1	4
482.564	1	-10
483.756	1	6
484.948	1	-3
486.141	1	-2
487.333	1	0
488.525	1	-1
489.718	1	-5
490.910	1	-8
492.102	1	0
493.294	1	0
494.486	1	0
495.678	1	5
496.870	1	6
498.062	1	3
499.254	1	1
500.446	1	-1
501.638	1	10
502.829	1	1
504.021	1	16
505.213	1	-1
506.404	1	3
507.596	1	7
508.788	1	3
509.979	1	-4
511.171	1	8
512.362	1	5
513.553	1	1
514.745	1	5
515.936	1	-1
517.127	1	7
518.319	1	2
519.510	1	0
520.701	1	8
521.892	1	-11
523.083	1	0
524.274	1	-1
525.465	1	5
526.656	1	13
527.847	1	1
529.038	1	2
530.229	1	10
531.419	1	8
532.610	1	6
533.801	1	-4
534.991	1	12
536.182	1	15
537.373	1	3
538.563	1	-1
539.754	1	-2
540.944	1	2
542.134	1	13
543.325	1	1
544.515	1	4
545.705	1	9
546.896	1	4
548.086	1	11
549.276	1	10
550.466	1	4
551.656	1	-5
552.846	1	9
554.036	1	7
555.226	1	1
556.416	1	11
557.606	1	5
558.796	1	9
559.986	1	6
561.175	1	6
562.365	1	-5
563.555	1	11
564.744	1	9
565.934	1	12
567.123	1	15
568.313	1	2
569.502	1	1
570.692	1	6
571.881	1	0
573.070	1	2
574.260	1	-6
575.449	1	3
576.638	1	-5
577.827	1	4
579.016	1	13
580.205	1	7
581.394	1	-4
582.583	1	-6
583.772	1	1
584.961	1	3
586.150	1	0
587.339	1	9
588.528	1	6
589.717	1	-4
590.905	1	6
592.094	1	10
593.283	1	4
594.471	1	7
595.660	1	7
596.848	1	10
598.037	1	8
599.225	1	-2
600.413	1	0
601.602	1	10
602.790	1	3
603.978	1	1
605.166	1	5
606.355	1	13
607.543	1	-7
608.731	1	-2
609.919	1	-10
611.107	1	7
612.295	1	7
613.483	1	8
614.671	1	-3
615.858	1	8
617.046	1	5
618.234	1	4
619.422	1	-5
620.609	1	7
621.797	1	5
622.985	1	5
624.172	1	16
625.360	1	-3
626.547	1	1
627.735	1	6
628.922	1	3
630.109	1	0
631.297	1	11
632.484	1	-14
633.671	1	4
634.858	1	8
636.045	1	1
637.232	1	7
638.419	1	8
639.606	1	7
640.793	1	10
641.980	1	-1
643.167	1	9
644.354	1	3
645.541	1	-6
646.728	1	11
647.914	1	-5
649.101	1	7
650.288	1	5
651.474	1	12
652.661	1	5
653.847	1	1
655.034	1	-6
656.220	1	9
657.406	1	8
658.593	1	3
659.779	1	-1
660.965	1	4
662.152	1	0
663.338	1	3
664.524	1	-8
665.710	1	-9
666.896	1	6
668.082	1	1
669.268	1	-2
670.454	1	9
671.640	1	-15
672.826	1	-8
674.011	1	7
675.197	1	-9
676.383	1	0
677.569	1	0
678.754	1	2
679.940	1	0
681.125	1	4
682.311	1	-6
683.496	1	-3
684.682	1	-3
685.867	1	4
687.053	1	5
688.238	1	6
688.746	1	2