File: Analysis/GaN_68K_200ms/GaN_sample E_spot4_UVVIS_68 K_200um_200 ms 2x2mm1_73.txt
340.368	1	0
341.565	1	-6
342.763	1	1
343.960	1	-1
345.157	1	2
346.354	1	-7
347.552	1	-3
348.749	1	3
349.946	1	7
351.143	1	-8
352.340	1	3
353.537	1	-4
354.734	1	5
355.931	1	8
357.127	1	-11
358.324	1	0
359.521	1	-2
360.718	1	0
361.914	1	-3
363.111	1	4
364.308	1	-3
365.504	1	-6
366.701	1	-5
367.897	1	4
369.093	1	-9
370.290	1	0
371.486	1	11
372.682	1	-5
373.879	1	10
375.075	1	11
376.271	1	-3
377.467	1	0
378.663	1	1
379.859	1	2
381.055	1	6
382.251	1	10
383.447	1	-2
384.643	1	5
385.839	1	-2
387.035	1	-4
388.230	1	2
389.426	1	8
390.622	1	3
391.817	1	-8
393.013	1	10
394.208	1	7
395.404	1	-4
396.599	1	6
397.795	1	2
398.990	1	3
400.186	1	3
401.381	1	-1
402.576	1	4
403.771	1	5
404.967	1	2
406.162	1	-2
407.357	1	8
408.552	1	13
409.747	1	0
410.942	1	-2
412.137	1	5
413.332	1	-6
414.526	1	4
415.721	1	8
416.916	1	-1
418.111	1	6
419.305	1	-3
420.500	1	12
421.695	1	7
422.889	1	5
424.084	1	7
425.278	1	-3
426.472	1	-1
427.667	1	7
428.861	1	2
430.055	1	-9
431.250	1	-2
432.444	1	12
433.638	1	2
434.832	1	-4
436.026	1	2
437.220	1	3
438.414	1	-3
439.608	1	-4
440.802	1	13
441.996	1	14
443.190	1	1
444.384	1	3
445.578	1	15
446.771	1	-3
447.965	1	-10
449.159	1	1
450.352	1	3
451.546	1	13
452.739	1	4
453.933	1	-7
455.126	1	4
456.320	1	0
457.513	1	13
458.706	1	4
459.899	1	9
461.093	1	2
462.286	1	4
463.479	1	14
464.672	1	4
465.865	1	-4
467.058	1	7
468.251	1	-6
469.444	1	-5
470.637	1	10
471.830	1	11
473.023	1	-4
474.215	1	0
475.408	1	-1
476.601	1	1
477.793	1	7
478.986	1	2
480.179	1	-1
481.371	1	9
482.564	1	-11
483.756	1	10
484.948	1	-1
486.141	1	-5
487.333	1	6
488.525	1	-2
489.718	1	-7
490.910	1	5
492.102	1	-3
493.294	1	3
494.486	1	0
495.678	1	7
496.870	1	1
498.062	1	7
499.254	1	7
500.446	1	10
501.638	1	2
502.829	1	0
504.021	1	20
505.213	1	-4
506.404	1	-2
507.596	1	3
508.788	1	-6
509.979	1	-1
511.171	1	15
512.362	1	8
513.553	1	0
514.745	1	1
515.936	1	4
517.127	1	8
518.319	1	-3
519.510	1	-3
520.701	1	5
521.892	1	-8
523.083	1	-7
524.274	1	0
525.465	1	0
526.656	1	21
527.847	1	-2
529.038	1	8
530.229	1	7
531.419	1	9
532.610	1	-4
533.801	1	8
534.991	1	-1
536.182	1	5
537.373	1	-10
538.563	1	0
539.754	1	0
540.944	1	3
542.134	1	12
543.325	1	-7
544.515	1	-1
545.705	1	7
546.896	1	7
548.086	1	4
549.276	1	4
550.466	1	-5
551.656	1	-6
552.846	1	6
554.036	1	-1
555.226	1	-1
556.416	1	-1
557.606	1	-8
558.796	1	2
559.986	1	4
561.175	1	-7
562.365	1	7
563.555	1	4
564.744	1	7
565.934	1	5
567.123	1	14
568.313	1	1
569.502	1	8
570.692	1	9
571.881	1	12
573.070	1	0
574.260	1	-3
575.449	1	7
576.638	1	6
577.827	1	15
579.016	1	12
580.205	1	10
581.394	1	-4
582.583	1	-4
583.772	1	-4
584.961	1	-1
586.150	1	1
587.339	1	1
588.528	1	-1
589.717	1	2
590.905	1	10
592.094	1	2
593.283	1	6
594.471	1	6
595.660	1	4
596.848	1	5
598.037	1	5
599.225	1	-2
600.413	1	-5
601.602	1	1
602.790	1	3
603.978	1	3
605.166	1	6
606.355	1	6
607.543	1	-7
608.731	1	2
609.919	1	-5
611.107	1	10
612.295	1	-2
613.483	1	4
614.671	1	1
615.858	1	-1
617.046	1	-4
618.234	1	7
619.422	1	7
620.609	1	0
621.797	1	6
622.985	1	5
624.172	1	3
625.360	1	-5
626.547	1	3
627.735	1	8
628.922	1	5
630.109	1	1
631.297	1	0
632.484	1	-3
633.671	1	9
634.858	1	1
636.045	1	-3
637.232	1	-5
638.419	1	3
639.606	1	8
640.793	1	6
641.980	1	5
643.167	1	13
644.354	1	-4
645.541	1	-17
646.728	1	0
647.914	1	1
649.101	1	3
650.288	1	-3
651.474	1	8
652.661	1	0
653.847	1	7
655.034	1	2
656.220	1	6
657.406	1	-1
658.593	1	-1
659.779	1	-2
660.965	1	1
662.152	1	-2
663.338	1	-8
664.524	1	-8
665.710	1	-3
666.896	1	1
668.082	1	0
669.268	1	1
670.454	1	6
671.640	1	-16
672.826	1	-4
674.011	1	2
675.197	1	-2
676.383	1	-3
677.569	1	-12
678.754	1	-3
679.940	1	-4
681.125	1	14
682.311	1	2
683.496	1	-2
684.682	1	5
685.867	1	1
687.053	1	-2
688.238	1	-5
688.746	1	9