File: Analysis/GaN_68K_200ms/GaN_sample E_spot4_UVVIS_68 K_200um_200 ms 2x2mm1_142.txt
340.368	1	2
341.565	1	-6
342.763	1	-6
343.960	1	-3
345.157	1	10
346.354	1	5
347.552	1	12
348.749	1	10
349.946	1	0
351.143	1	-2
352.340	1	6
353.537	1	14
354.734	1	4
355.931	1	13
357.127	1	13
358.324	1	18
359.521	1	16
360.718	1	14
361.914	1	33
363.111	1	61
364.308	1	65
365.504	1	76
366.701	1	78
367.897	1	92
369.093	1	89
370.290	1	71
371.486	1	68
372.682	1	48
373.879	1	52
375.075	1	49
376.271	1	40
377.467	1	32
378.663	1	29
379.859	1	27
381.055	1	35
382.251	1	41
383.447	1	69
384.643	1	87
385.839	1	120
387.035	1	117
388.230	1	115
389.426	1	113
390.622	1	100
391.817	1	99
393.013	1	105
394.208	1	103
395.404	1	104
396.599	1	106
397.795	1	118
398.990	1	105
400.186	1	110
401.381	1	88
402.576	1	86
403.771	1	74
404.967	1	72
406.162	1	65
407.357	1	61
408.552	1	68
409.747	1	59
410.942	1	56
412.137	1	59
413.332	1	57
414.526	1	49
415.721	1	41
416.916	1	47
418.111	1	40
419.305	1	43
420.500	1	48
421.695	1	37
422.889	1	33
424.084	1	32
425.278	1	25
426.472	1	25
427.667	1	27
428.861	1	36
430.055	1	28
431.250	1	11
432.444	1	28
433.638	1	14
434.832	1	15
436.026	1	21
437.220	1	24
438.414	1	24
439.608	1	20
440.802	1	27
441.996	1	16
443.190	1	9
444.384	1	20
445.578	1	18
446.771	1	5
447.965	1	9
449.159	1	5
450.352	1	21
451.546	1	10
452.739	1	15
453.933	1	11
455.126	1	8
456.320	1	7
457.513	1	17
458.706	1	12
459.899	1	24
461.093	1	10
462.286	1	21
463.479	1	10
464.672	1	1
465.865	1	5
467.058	1	20
468.251	1	3
469.444	1	0
470.637	1	22
471.830	1	15
473.023	1	7
474.215	1	11
475.408	1	12
476.601	1	13
477.793	1	8
478.986	1	7
480.179	1	16
481.371	1	21
482.564	1	-1
483.756	1	27
484.948	1	5
486.141	1	-11
487.333	1	24
488.525	1	5
489.718	1	10
490.910	1	13
492.102	1	16
493.294	1	20
494.486	1	17
495.678	1	31
496.870	1	23
498.062	1	23
499.254	1	24
500.446	1	31
501.638	1	34
502.829	1	31
504.021	1	48
505.213	1	41
506.404	1	39
507.596	1	45
508.788	1	45
509.979	1	40
511.171	1	56
512.362	1	54
513.553	1	40
514.745	1	48
515.936	1	53
517.127	1	57
518.319	1	59
519.510	1	65
520.701	1	75
521.892	1	52
523.083	1	64
524.274	1	62
525.465	1	63
526.656	1	80
527.847	1	69
529.038	1	73
530.229	1	76
531.419	1	74
532.610	1	66
533.801	1	74
534.991	1	73
536.182	1	73
537.373	1	60
538.563	1	75
539.754	1	60
540.944	1	59
542.134	1	75
543.325	1	50
544.515	1	58
545.705	1	61
546.896	1	62
548.086	1	64
549.276	1	61
550.466	1	52
551.656	1	49
552.846	1	54
554.036	1	58
555.226	1	48
556.416	1	51
557.606	1	38
558.796	1	43
559.986	1	41
561.175	1	41
562.365	1	46
563.555	1	47
564.744	1	48
565.934	1	48
567.123	1	40
568.313	1	36
569.502	1	40
570.692	1	34
571.881	1	29
573.070	1	35
574.260	1	19
575.449	1	32
576.638	1	31
577.827	1	31
579.016	1	33
580.205	1	24
581.394	1	18
582.583	1	16
583.772	1	25
584.961	1	23
586.150	1	22
587.339	1	15
588.528	1	23
589.717	1	18
590.905	1	21
592.094	1	23
593.283	1	25
594.471	1	20
595.660	1	6
596.848	1	15
598.037	1	9
599.225	1	13
600.413	1	15
601.602	1	15
602.790	1	12
603.978	1	9
605.166	1	17
606.355	1	22
607.543	1	5
608.731	1	3
609.919	1	3
611.107	1	12
612.295	1	11
613.483	1	21
614.671	1	9
615.858	1	20
617.046	1	6
618.234	1	7
619.422	1	0
620.609	1	3
621.797	1	13
622.985	1	6
624.172	1	23
625.360	1	-4
626.547	1	18
627.735	1	9
628.922	1	9
630.109	1	6
631.297	1	2
632.484	1	10
633.671	1	7
634.858	1	19
636.045	1	8
637.232	1	7
638.419	1	8
639.606	1	24
640.793	1	16
641.980	1	10
643.167	1	21
644.354	1	7
645.541	1	-6
646.728	1	9
647.914	1	3
649.101	1	7
650.288	1	11
651.474	1	2
652.661	1	14
653.847	1	10
655.034	1	8
656.220	1	11
657.406	1	10
658.593	1	8
659.779	1	4
660.965	1	8
662.152	1	3
663.338	1	2
664.524	1	-8
665.710	1	2
666.896	1	12
668.082	1	0
669.268	1	7
670.454	1	8
671.640	1	-4
672.826	1	-5
674.011	1	14
675.197	1	2
676.383	1	1
677.569	1	2
678.754	1	3
679.940	1	1
681.125	1	15
682.311	1	7
683.496	1	-1
684.682	1	16
685.867	1	3
687.053	1	12
688.238	1	15
688.746	1	23