File: Analysis/GaN_68K_200ms/GaN_sample E_spot4_UVVIS_68 K_200um_200 ms 2x2mm1_277.txt
340.368	1	1
341.565	1	-5
342.763	1	3
343.960	1	-10
345.157	1	7
346.354	1	3
347.552	1	3
348.749	1	6
349.946	1	14
351.143	1	-6
352.340	1	2
353.537	1	-2
354.734	1	1
355.931	1	-2
357.127	1	8
358.324	1	3
359.521	1	6
360.718	1	10
361.914	1	7
363.111	1	13
364.308	1	3
365.504	1	2
366.701	1	4
367.897	1	9
369.093	1	8
370.290	1	8
371.486	1	15
372.682	1	6
373.879	1	12
375.075	1	17
376.271	1	4
377.467	1	1
378.663	1	7
379.859	1	-3
381.055	1	1
382.251	1	5
383.447	1	17
384.643	1	8
385.839	1	17
387.035	1	5
388.230	1	8
389.426	1	10
390.622	1	4
391.817	1	11
393.013	1	17
394.208	1	17
395.404	1	17
396.599	1	9
397.795	1	13
398.990	1	13
400.186	1	17
401.381	1	11
402.576	1	13
403.771	1	14
404.967	1	10
406.162	1	4
407.357	1	12
408.552	1	26
409.747	1	-6
410.942	1	8
412.137	1	17
413.332	1	4
414.526	1	8
415.721	1	6
416.916	1	3
418.111	1	3
419.305	1	1
420.500	1	-1
421.695	1	1
422.889	1	5
424.084	1	11
425.278	1	-7
426.472	1	-9
427.667	1	16
428.861	1	10
430.055	1	1
431.250	1	-5
432.444	1	15
433.638	1	4
434.832	1	-1
436.026	1	7
437.220	1	8
438.414	1	1
439.608	1	13
440.802	1	3
441.996	1	2
443.190	1	-1
444.384	1	11
445.578	1	13
446.771	1	5
447.965	1	1
449.159	1	-1
450.352	1	7
451.546	1	0
452.739	1	4
453.933	1	4
455.126	1	7
456.320	1	3
457.513	1	7
458.706	1	8
459.899	1	18
461.093	1	12
462.286	1	7
463.479	1	2
464.672	1	9
465.865	1	-2
467.058	1	13
468.251	1	-14
469.444	1	0
470.637	1	16
471.830	1	11
473.023	1	-2
474.215	1	-3
475.408	1	2
476.601	1	4
477.793	1	8
478.986	1	7
480.179	1	3
481.371	1	1
482.564	1	-9
483.756	1	19
484.948	1	-10
486.141	1	0
487.333	1	4
488.525	1	5
489.718	1	-6
490.910	1	2
492.102	1	3
493.294	1	13
494.486	1	8
495.678	1	9
496.870	1	6
498.062	1	-8
499.254	1	8
500.446	1	5
501.638	1	6
502.829	1	1
504.021	1	19
505.213	1	-2
506.404	1	-3
507.596	1	14
508.788	1	4
509.979	1	4
511.171	1	11
512.362	1	2
513.553	1	-6
514.745	1	-8
515.936	1	7
517.127	1	11
518.319	1	4
519.510	1	12
520.701	1	3
521.892	1	-6
523.083	1	-1
524.274	1	-2
525.465	1	7
526.656	1	17
527.847	1	-2
529.038	1	11
530.229	1	14
531.419	1	14
532.610	1	6
533.801	1	5
534.991	1	10
536.182	1	8
537.373	1	9
538.563	1	4
539.754	1	-2
540.944	1	3
542.134	1	13
543.325	1	3
544.515	1	8
545.705	1	10
546.896	1	2
548.086	1	7
549.276	1	15
550.466	1	2
551.656	1	-2
552.846	1	7
554.036	1	14
555.226	1	3
556.416	1	7
557.606	1	-3
558.796	1	9
559.986	1	-2
561.175	1	8
562.365	1	9
563.555	1	4
564.744	1	3
565.934	1	4
567.123	1	25
568.313	1	-1
569.502	1	3
570.692	1	6
571.881	1	12
573.070	1	7
574.260	1	-3
575.449	1	3
576.638	1	3
577.827	1	3
579.016	1	22
580.205	1	8
581.394	1	7
582.583	1	-3
583.772	1	8
584.961	1	2
586.150	1	1
587.339	1	1
588.528	1	7
589.717	1	1
590.905	1	6
592.094	1	-5
593.283	1	9
594.471	1	2
595.660	1	1
596.848	1	2
598.037	1	-2
599.225	1	10
600.413	1	4
601.602	1	16
602.790	1	1
603.978	1	5
605.166	1	-5
606.355	1	12
607.543	1	-2
608.731	1	-1
609.919	1	-3
611.107	1	14
612.295	1	2
613.483	1	5
614.671	1	8
615.858	1	11
617.046	1	6
618.234	1	5
619.422	1	6
620.609	1	5
621.797	1	0
622.985	1	12
624.172	1	12
625.360	1	-1
626.547	1	-6
627.735	1	5
628.922	1	-4
630.109	1	6
631.297	1	0
632.484	1	-5
633.671	1	2
634.858	1	3
636.045	1	8
637.232	1	10
638.419	1	19
639.606	1	8
640.793	1	18
641.980	1	-6
643.167	1	9
644.354	1	14
645.541	1	-8
646.728	1	3
647.914	1	0
649.101	1	10
650.288	1	-2
651.474	1	11
652.661	1	5
653.847	1	1
655.034	1	3
656.220	1	7
657.406	1	1
658.593	1	0
659.779	1	-1
660.965	1	10
662.152	1	0
663.338	1	1
664.524	1	-10
665.710	1	1
666.896	1	9
668.082	1	5
669.268	1	5
670.454	1	2
671.640	1	-17
672.826	1	-14
674.011	1	9
675.197	1	4
676.383	1	5
677.569	1	4
678.754	1	2
679.940	1	5
681.125	1	17
682.311	1	3
683.496	1	-2
684.682	1	3
685.867	1	6
687.053	1	2
688.238	1	6
688.746	1	1