File: Analysis/GaN_68K_200ms/GaN_sample E_spot4_UVVIS_68 K_200um_200 ms 2x2mm1_717.txt
340.368	1	5
341.565	1	-7
342.763	1	-1
343.960	1	-3
345.157	1	1
346.354	1	0
347.552	1	-6
348.749	1	3
349.946	1	5
351.143	1	-13
352.340	1	0
353.537	1	-5
354.734	1	-2
355.931	1	-7
357.127	1	11
358.324	1	-8
359.521	1	-3
360.718	1	-7
361.914	1	0
363.111	1	11
364.308	1	-11
365.504	1	-6
366.701	1	-3
367.897	1	2
369.093	1	-5
370.290	1	-8
371.486	1	8
372.682	1	-7
373.879	1	5
375.075	1	-1
376.271	1	-7
377.467	1	-11
378.663	1	2
379.859	1	2
381.055	1	-4
382.251	1	-1
383.447	1	7
384.643	1	8
385.839	1	7
387.035	1	2
388.230	1	-6
389.426	1	7
390.622	1	3
391.817	1	2
393.013	1	10
394.208	1	8
395.404	1	1
396.599	1	4
397.795	1	9
398.990	1	6
400.186	1	9
401.381	1	6
402.576	1	12
403.771	1	-4
404.967	1	6
406.162	1	-12
407.357	1	2
408.552	1	3
409.747	1	-3
410.942	1	6
412.137	1	2
413.332	1	-3
414.526	1	1
415.721	1	-4
416.916	1	0
418.111	1	-3
419.305	1	-1
420.500	1	7
421.695	1	4
422.889	1	8
424.084	1	-4
425.278	1	-1
426.472	1	0
427.667	1	6
428.861	1	-6
430.055	1	5
431.250	1	-10
432.444	1	10
433.638	1	5
434.832	1	-8
436.026	1	3
437.220	1	5
438.414	1	-9
439.608	1	5
440.802	1	5
441.996	1	-10
443.190	1	-20
444.384	1	5
445.578	1	5
446.771	1	0
447.965	1	-10
449.159	1	-9
450.352	1	4
451.546	1	-1
452.739	1	-4
453.933	1	6
455.126	1	2
456.320	1	4
457.513	1	11
458.706	1	4
459.899	1	15
461.093	1	-5
462.286	1	9
463.479	1	13
464.672	1	2
465.865	1	-2
467.058	1	9
468.251	1	-14
469.444	1	-2
470.637	1	5
471.830	1	12
473.023	1	-3
474.215	1	-9
475.408	1	2
476.601	1	0
477.793	1	11
478.986	1	-1
480.179	1	-5
481.371	1	-1
482.564	1	-7
483.756	1	3
484.948	1	-5
486.141	1	-4
487.333	1	8
488.525	1	-2
489.718	1	1
490.910	1	-4
492.102	1	1
493.294	1	-1
494.486	1	11
495.678	1	11
496.870	1	1
498.062	1	-3
499.254	1	3
500.446	1	5
501.638	1	-1
502.829	1	7
504.021	1	14
505.213	1	-4
506.404	1	4
507.596	1	5
508.788	1	3
509.979	1	3
511.171	1	11
512.362	1	2
513.553	1	-7
514.745	1	2
515.936	1	7
517.127	1	-3
518.319	1	-4
519.510	1	1
520.701	1	3
521.892	1	-8
523.083	1	-6
524.274	1	-8
525.465	1	6
526.656	1	10
527.847	1	-10
529.038	1	2
530.229	1	7
531.419	1	5
532.610	1	2
533.801	1	0
534.991	1	4
536.182	1	-7
537.373	1	-6
538.563	1	1
539.754	1	-2
540.944	1	-9
542.134	1	7
543.325	1	-6
544.515	1	-6
545.705	1	3
546.896	1	-2
548.086	1	0
549.276	1	9
550.466	1	1
551.656	1	-7
552.846	1	-5
554.036	1	3
555.226	1	-4
556.416	1	-5
557.606	1	-11
558.796	1	4
559.986	1	-3
561.175	1	-5
562.365	1	9
563.555	1	8
564.744	1	2
565.934	1	6
567.123	1	26
568.313	1	-4
569.502	1	2
570.692	1	2
571.881	1	3
573.070	1	1
574.260	1	9
575.449	1	3
576.638	1	2
577.827	1	-2
579.016	1	10
580.205	1	1
581.394	1	-12
582.583	1	-13
583.772	1	0
584.961	1	2
586.150	1	-2
587.339	1	2
588.528	1	1
589.717	1	1
590.905	1	3
592.094	1	8
593.283	1	3
594.471	1	1
595.660	1	-5
596.848	1	9
598.037	1	7
599.225	1	-4
600.413	1	-3
601.602	1	4
602.790	1	1
603.978	1	-1
605.166	1	2
606.355	1	9
607.543	1	-10
608.731	1	1
609.919	1	-9
611.107	1	2
612.295	1	-2
613.483	1	5
614.671	1	3
615.858	1	-3
617.046	1	4
618.234	1	2
619.422	1	-4
620.609	1	1
621.797	1	3
622.985	1	6
624.172	1	7
625.360	1	-6
626.547	1	4
627.735	1	0
628.922	1	-12
630.109	1	0
631.297	1	-4
632.484	1	-1
633.671	1	-3
634.858	1	8
636.045	1	-9
637.232	1	4
638.419	1	10
639.606	1	13
640.793	1	15
641.980	1	-4
643.167	1	9
644.354	1	1
645.541	1	-7
646.728	1	4
647.914	1	-1
649.101	1	-5
650.288	1	-3
651.474	1	2
652.661	1	-2
653.847	1	2
655.034	1	4
656.220	1	-5
657.406	1	2
658.593	1	-12
659.779	1	1
660.965	1	3
662.152	1	0
663.338	1	-4
664.524	1	-6
665.710	1	3
666.896	1	-3
668.082	1	-1
669.268	1	2
670.454	1	0
671.640	1	-13
672.826	1	-15
674.011	1	7
675.197	1	-3
676.383	1	-6
677.569	1	-11
678.754	1	-7
679.940	1	-7
681.125	1	-1
682.311	1	3
683.496	1	-10
684.682	1	5
685.867	1	5
687.053	1	-4
688.238	1	7
688.746	1	0