File: Analysis/GaN_68K_200ms/GaN_sample E_spot4_UVVIS_68 K_200um_200 ms 2x2mm1_712.txt
340.368	1	-4
341.565	1	-7
342.763	1	-8
343.960	1	-1
345.157	1	2
346.354	1	-1
347.552	1	5
348.749	1	-2
349.946	1	14
351.143	1	-12
352.340	1	5
353.537	1	8
354.734	1	-1
355.931	1	0
357.127	1	2
358.324	1	-1
359.521	1	3
360.718	1	-1
361.914	1	0
363.111	1	10
364.308	1	3
365.504	1	-5
366.701	1	-6
367.897	1	-7
369.093	1	2
370.290	1	8
371.486	1	8
372.682	1	-7
373.879	1	15
375.075	1	11
376.271	1	-6
377.467	1	0
378.663	1	2
379.859	1	3
381.055	1	-3
382.251	1	-3
383.447	1	14
384.643	1	5
385.839	1	-1
387.035	1	-4
388.230	1	-1
389.426	1	2
390.622	1	-1
391.817	1	-2
393.013	1	17
394.208	1	8
395.404	1	6
396.599	1	-5
397.795	1	-2
398.990	1	-1
400.186	1	19
401.381	1	8
402.576	1	15
403.771	1	9
404.967	1	1
406.162	1	-10
407.357	1	7
408.552	1	-2
409.747	1	-5
410.942	1	-5
412.137	1	6
413.332	1	-3
414.526	1	4
415.721	1	4
416.916	1	-2
418.111	1	3
419.305	1	0
420.500	1	8
421.695	1	5
422.889	1	7
424.084	1	8
425.278	1	-4
426.472	1	-6
427.667	1	15
428.861	1	-6
430.055	1	4
431.250	1	-11
432.444	1	3
433.638	1	0
434.832	1	-17
436.026	1	-7
437.220	1	9
438.414	1	-1
439.608	1	2
440.802	1	0
441.996	1	-2
443.190	1	-6
444.384	1	0
445.578	1	7
446.771	1	0
447.965	1	-10
449.159	1	1
450.352	1	11
451.546	1	-6
452.739	1	0
453.933	1	6
455.126	1	1
456.320	1	-5
457.513	1	22
458.706	1	-2
459.899	1	3
461.093	1	6
462.286	1	12
463.479	1	11
464.672	1	5
465.865	1	4
467.058	1	11
468.251	1	-14
469.444	1	-4
470.637	1	12
471.830	1	15
473.023	1	-9
474.215	1	-3
475.408	1	0
476.601	1	0
477.793	1	7
478.986	1	-2
480.179	1	-4
481.371	1	0
482.564	1	-12
483.756	1	14
484.948	1	-5
486.141	1	-6
487.333	1	13
488.525	1	-6
489.718	1	-4
490.910	1	-2
492.102	1	-5
493.294	1	7
494.486	1	1
495.678	1	3
496.870	1	3
498.062	1	0
499.254	1	-1
500.446	1	7
501.638	1	0
502.829	1	3
504.021	1	14
505.213	1	0
506.404	1	-1
507.596	1	1
508.788	1	3
509.979	1	1
511.171	1	10
512.362	1	1
513.553	1	1
514.745	1	10
515.936	1	9
517.127	1	7
518.319	1	4
519.510	1	1
520.701	1	3
521.892	1	-10
523.083	1	3
524.274	1	-13
525.465	1	-8
526.656	1	16
527.847	1	-3
529.038	1	4
530.229	1	6
531.419	1	-6
532.610	1	5
533.801	1	2
534.991	1	-2
536.182	1	-1
537.373	1	6
538.563	1	10
539.754	1	-2
540.944	1	1
542.134	1	8
543.325	1	-7
544.515	1	-1
545.705	1	6
546.896	1	1
548.086	1	6
549.276	1	8
550.466	1	-2
551.656	1	-8
552.846	1	11
554.036	1	2
555.226	1	4
556.416	1	5
557.606	1	-8
558.796	1	-2
559.986	1	-9
561.175	1	3
562.365	1	1
563.555	1	2
564.744	1	-1
565.934	1	5
567.123	1	7
568.313	1	0
569.502	1	-1
570.692	1	2
571.881	1	10
573.070	1	1
574.260	1	-4
575.449	1	4
576.638	1	-4
577.827	1	-1
579.016	1	10
580.205	1	-2
581.394	1	0
582.583	1	-9
583.772	1	-2
584.961	1	2
586.150	1	3
587.339	1	-5
588.528	1	1
589.717	1	-3
590.905	1	7
592.094	1	1
593.283	1	1
594.471	1	-4
595.660	1	1
596.848	1	7
598.037	1	6
599.225	1	-1
600.413	1	8
601.602	1	7
602.790	1	1
603.978	1	0
605.166	1	0
606.355	1	4
607.543	1	-8
608.731	1	-12
609.919	1	-4
611.107	1	8
612.295	1	2
613.483	1	-2
614.671	1	7
615.858	1	2
617.046	1	3
618.234	1	-1
619.422	1	1
620.609	1	1
621.797	1	0
622.985	1	1
624.172	1	4
625.360	1	-8
626.547	1	-2
627.735	1	-2
628.922	1	-3
630.109	1	-8
631.297	1	-1
632.484	1	-4
633.671	1	4
634.858	1	1
636.045	1	1
637.232	1	-4
638.419	1	10
639.606	1	14
640.793	1	11
641.980	1	-9
643.167	1	7
644.354	1	2
645.541	1	-17
646.728	1	0
647.914	1	-5
649.101	1	0
650.288	1	-15
651.474	1	4
652.661	1	0
653.847	1	1
655.034	1	-1
656.220	1	7
657.406	1	7
658.593	1	-5
659.779	1	-6
660.965	1	3
662.152	1	6
663.338	1	-1
664.524	1	-14
665.710	1	-5
666.896	1	-6
668.082	1	-6
669.268	1	0
670.454	1	2
671.640	1	-18
672.826	1	-13
674.011	1	2
675.197	1	1
676.383	1	-6
677.569	1	-2
678.754	1	-1
679.940	1	-1
681.125	1	5
682.311	1	-6
683.496	1	-6
684.682	1	2
685.867	1	3
687.053	1	4
688.238	1	3
688.746	1	-2