File: Analysis/GaN_68K_200ms/GaN_sample E_spot4_UVVIS_68 K_200um_200 ms 2x2mm1_813.txt
340.368	1	1
341.565	1	-9
342.763	1	2
343.960	1	-6
345.157	1	4
346.354	1	-3
347.552	1	5
348.749	1	1
349.946	1	4
351.143	1	-9
352.340	1	-1
353.537	1	-4
354.734	1	3
355.931	1	-3
357.127	1	5
358.324	1	0
359.521	1	3
360.718	1	-6
361.914	1	-4
363.111	1	2
364.308	1	-1
365.504	1	1
366.701	1	0
367.897	1	-2
369.093	1	5
370.290	1	-6
371.486	1	10
372.682	1	-8
373.879	1	3
375.075	1	14
376.271	1	8
377.467	1	-1
378.663	1	-7
379.859	1	-8
381.055	1	5
382.251	1	9
383.447	1	7
384.643	1	2
385.839	1	10
387.035	1	-3
388.230	1	-6
389.426	1	-4
390.622	1	-5
391.817	1	-2
393.013	1	5
394.208	1	3
395.404	1	4
396.599	1	0
397.795	1	2
398.990	1	2
400.186	1	5
401.381	1	1
402.576	1	6
403.771	1	4
404.967	1	7
406.162	1	-5
407.357	1	4
408.552	1	4
409.747	1	-1
410.942	1	8
412.137	1	8
413.332	1	-4
414.526	1	3
415.721	1	-2
416.916	1	-11
418.111	1	2
419.305	1	8
420.500	1	9
421.695	1	5
422.889	1	1
424.084	1	11
425.278	1	-18
426.472	1	-12
427.667	1	10
428.861	1	1
430.055	1	-5
431.250	1	-13
432.444	1	1
433.638	1	-1
434.832	1	-1
436.026	1	9
437.220	1	7
438.414	1	3
439.608	1	6
440.802	1	3
441.996	1	6
443.190	1	-2
444.384	1	2
445.578	1	1
446.771	1	-3
447.965	1	-11
449.159	1	-9
450.352	1	3
451.546	1	-2
452.739	1	-9
453.933	1	0
455.126	1	-5
456.320	1	1
457.513	1	8
458.706	1	-1
459.899	1	0
461.093	1	10
462.286	1	9
463.479	1	8
464.672	1	5
465.865	1	-4
467.058	1	12
468.251	1	-2
469.444	1	1
470.637	1	6
471.830	1	10
473.023	1	-16
474.215	1	-6
475.408	1	-2
476.601	1	2
477.793	1	5
478.986	1	-1
480.179	1	-2
481.371	1	-4
482.564	1	-13
483.756	1	8
484.948	1	-4
486.141	1	-5
487.333	1	2
488.525	1	-1
489.718	1	-5
490.910	1	-7
492.102	1	-6
493.294	1	14
494.486	1	10
495.678	1	7
496.870	1	-4
498.062	1	-6
499.254	1	0
500.446	1	5
501.638	1	11
502.829	1	0
504.021	1	9
505.213	1	-6
506.404	1	-1
507.596	1	4
508.788	1	-5
509.979	1	-4
511.171	1	15
512.362	1	3
513.553	1	-11
514.745	1	-10
515.936	1	-5
517.127	1	4
518.319	1	-9
519.510	1	-1
520.701	1	4
521.892	1	-13
523.083	1	5
524.274	1	-12
525.465	1	-3
526.656	1	22
527.847	1	-15
529.038	1	1
530.229	1	6
531.419	1	7
532.610	1	-3
533.801	1	5
534.991	1	-8
536.182	1	-3
537.373	1	-4
538.563	1	5
539.754	1	-5
540.944	1	-3
542.134	1	4
543.325	1	-1
544.515	1	-8
545.705	1	3
546.896	1	-6
548.086	1	-4
549.276	1	5
550.466	1	-6
551.656	1	-15
552.846	1	5
554.036	1	-6
555.226	1	-7
556.416	1	-3
557.606	1	-11
558.796	1	-1
559.986	1	-6
561.175	1	-2
562.365	1	1
563.555	1	8
564.744	1	4
565.934	1	3
567.123	1	14
568.313	1	-2
569.502	1	5
570.692	1	1
571.881	1	4
573.070	1	7
574.260	1	4
575.449	1	4
576.638	1	-3
577.827	1	17
579.016	1	8
580.205	1	4
581.394	1	3
582.583	1	-5
583.772	1	-4
584.961	1	3
586.150	1	4
587.339	1	2
588.528	1	0
589.717	1	-9
590.905	1	6
592.094	1	2
593.283	1	7
594.471	1	4
595.660	1	3
596.848	1	6
598.037	1	-1
599.225	1	-4
600.413	1	-2
601.602	1	10
602.790	1	1
603.978	1	-2
605.166	1	-13
606.355	1	4
607.543	1	-1
608.731	1	-8
609.919	1	2
611.107	1	9
612.295	1	-4
613.483	1	1
614.671	1	2
615.858	1	6
617.046	1	3
618.234	1	0
619.422	1	-1
620.609	1	-5
621.797	1	-1
622.985	1	0
624.172	1	5
625.360	1	-12
626.547	1	0
627.735	1	5
628.922	1	-5
630.109	1	-10
631.297	1	-4
632.484	1	4
633.671	1	-2
634.858	1	2
636.045	1	-2
637.232	1	-9
638.419	1	11
639.606	1	9
640.793	1	6
641.980	1	-7
643.167	1	6
644.354	1	-4
645.541	1	-3
646.728	1	-7
647.914	1	1
649.101	1	1
650.288	1	-8
651.474	1	-2
652.661	1	3
653.847	1	-1
655.034	1	-7
656.220	1	-5
657.406	1	1
658.593	1	-9
659.779	1	-8
660.965	1	-5
662.152	1	-4
663.338	1	-4
664.524	1	-15
665.710	1	-5
666.896	1	-5
668.082	1	-7
669.268	1	-4
670.454	1	-2
671.640	1	-17
672.826	1	-14
674.011	1	6
675.197	1	-9
676.383	1	1
677.569	1	-5
678.754	1	2
679.940	1	-2
681.125	1	-2
682.311	1	-2
683.496	1	-8
684.682	1	6
685.867	1	3
687.053	1	10
688.238	1	3
688.746	1	5