File: Analysis/GaN_68K_200ms/GaN_sample E_spot4_UVVIS_68 K_200um_200 ms 2x2mm1_675.txt
340.368	1	-1
341.565	1	-3
342.763	1	-6
343.960	1	-6
345.157	1	7
346.354	1	-2
347.552	1	5
348.749	1	8
349.946	1	3
351.143	1	-9
352.340	1	-2
353.537	1	-3
354.734	1	5
355.931	1	4
357.127	1	3
358.324	1	-6
359.521	1	6
360.718	1	5
361.914	1	-3
363.111	1	4
364.308	1	-6
365.504	1	-11
366.701	1	-11
367.897	1	-5
369.093	1	2
370.290	1	-3
371.486	1	14
372.682	1	-8
373.879	1	10
375.075	1	10
376.271	1	-5
377.467	1	-14
378.663	1	-11
379.859	1	1
381.055	1	-6
382.251	1	4
383.447	1	12
384.643	1	1
385.839	1	8
387.035	1	-1
388.230	1	0
389.426	1	2
390.622	1	-4
391.817	1	-2
393.013	1	2
394.208	1	10
395.404	1	0
396.599	1	4
397.795	1	-6
398.990	1	1
400.186	1	10
401.381	1	13
402.576	1	9
403.771	1	-3
404.967	1	1
406.162	1	-7
407.357	1	-1
408.552	1	15
409.747	1	3
410.942	1	7
412.137	1	4
413.332	1	0
414.526	1	4
415.721	1	5
416.916	1	-3
418.111	1	-1
419.305	1	5
420.500	1	5
421.695	1	-4
422.889	1	2
424.084	1	-3
425.278	1	-7
426.472	1	-4
427.667	1	14
428.861	1	-6
430.055	1	2
431.250	1	-11
432.444	1	15
433.638	1	0
434.832	1	-11
436.026	1	5
437.220	1	-3
438.414	1	7
439.608	1	5
440.802	1	5
441.996	1	-4
443.190	1	-18
444.384	1	-4
445.578	1	17
446.771	1	1
447.965	1	-5
449.159	1	-6
450.352	1	4
451.546	1	-1
452.739	1	-4
453.933	1	-6
455.126	1	7
456.320	1	1
457.513	1	3
458.706	1	4
459.899	1	7
461.093	1	13
462.286	1	0
463.479	1	8
464.672	1	-3
465.865	1	-6
467.058	1	9
468.251	1	-2
469.444	1	-4
470.637	1	12
471.830	1	14
473.023	1	-1
474.215	1	-5
475.408	1	3
476.601	1	3
477.793	1	11
478.986	1	-2
480.179	1	0
481.371	1	-2
482.564	1	-6
483.756	1	5
484.948	1	4
486.141	1	-6
487.333	1	0
488.525	1	-2
489.718	1	-9
490.910	1	-2
492.102	1	-2
493.294	1	13
494.486	1	9
495.678	1	9
496.870	1	-7
498.062	1	-1
499.254	1	-3
500.446	1	3
501.638	1	4
502.829	1	8
504.021	1	15
505.213	1	-4
506.404	1	-5
507.596	1	4
508.788	1	3
509.979	1	2
511.171	1	9
512.362	1	-5
513.553	1	-11
514.745	1	2
515.936	1	-2
517.127	1	2
518.319	1	-6
519.510	1	4
520.701	1	3
521.892	1	-10
523.083	1	-4
524.274	1	-4
525.465	1	-5
526.656	1	15
527.847	1	0
529.038	1	8
530.229	1	7
531.419	1	9
532.610	1	-3
533.801	1	-1
534.991	1	-4
536.182	1	-6
537.373	1	-7
538.563	1	-7
539.754	1	0
540.944	1	-8
542.134	1	-1
543.325	1	-7
544.515	1	3
545.705	1	6
546.896	1	10
548.086	1	4
549.276	1	-4
550.466	1	-4
551.656	1	-2
552.846	1	4
554.036	1	4
555.226	1	-1
556.416	1	0
557.606	1	-10
558.796	1	9
559.986	1	2
561.175	1	-5
562.365	1	3
563.555	1	11
564.744	1	6
565.934	1	6
567.123	1	12
568.313	1	-12
569.502	1	-1
570.692	1	4
571.881	1	7
573.070	1	4
574.260	1	3
575.449	1	2
576.638	1	-3
577.827	1	-4
579.016	1	12
580.205	1	4
581.394	1	-6
582.583	1	-2
583.772	1	-2
584.961	1	6
586.150	1	4
587.339	1	4
588.528	1	-2
589.717	1	3
590.905	1	9
592.094	1	3
593.283	1	9
594.471	1	-1
595.660	1	5
596.848	1	12
598.037	1	2
599.225	1	9
600.413	1	2
601.602	1	7
602.790	1	-1
603.978	1	-7
605.166	1	-3
606.355	1	1
607.543	1	-9
608.731	1	-10
609.919	1	-5
611.107	1	8
612.295	1	-3
613.483	1	9
614.671	1	1
615.858	1	1
617.046	1	5
618.234	1	1
619.422	1	0
620.609	1	7
621.797	1	6
622.985	1	4
624.172	1	5
625.360	1	-8
626.547	1	7
627.735	1	-7
628.922	1	-3
630.109	1	2
631.297	1	-11
632.484	1	-9
633.671	1	-1
634.858	1	7
636.045	1	-7
637.232	1	-1
638.419	1	12
639.606	1	13
640.793	1	6
641.980	1	-4
643.167	1	4
644.354	1	2
645.541	1	-17
646.728	1	-4
647.914	1	0
649.101	1	-3
650.288	1	1
651.474	1	5
652.661	1	4
653.847	1	2
655.034	1	0
656.220	1	-3
657.406	1	-1
658.593	1	-7
659.779	1	-12
660.965	1	-11
662.152	1	4
663.338	1	-5
664.524	1	-6
665.710	1	-3
666.896	1	-13
668.082	1	-6
669.268	1	9
670.454	1	4
671.640	1	-14
672.826	1	-14
674.011	1	3
675.197	1	1
676.383	1	-8
677.569	1	-10
678.754	1	1
679.940	1	11
681.125	1	4
682.311	1	5
683.496	1	0
684.682	1	4
685.867	1	1
687.053	1	2
688.238	1	1
688.746	1	-3