File: Analysis/GaN_68K_200ms/GaN_sample E_spot4_UVVIS_68 K_200um_200 ms 2x2mm1_400.txt
340.368	1	5
341.565	1	-4
342.763	1	4
343.960	1	2
345.157	1	3
346.354	1	3
347.552	1	-2
348.749	1	2
349.946	1	3
351.143	1	-10
352.340	1	7
353.537	1	9
354.734	1	-10
355.931	1	12
357.127	1	1
358.324	1	4
359.521	1	1
360.718	1	-7
361.914	1	-4
363.111	1	16
364.308	1	-2
365.504	1	-2
366.701	1	1
367.897	1	6
369.093	1	9
370.290	1	-9
371.486	1	10
372.682	1	-6
373.879	1	5
375.075	1	-1
376.271	1	-2
377.467	1	-7
378.663	1	0
379.859	1	-2
381.055	1	-1
382.251	1	-1
383.447	1	8
384.643	1	12
385.839	1	16
387.035	1	5
388.230	1	1
389.426	1	9
390.622	1	-1
391.817	1	2
393.013	1	12
394.208	1	7
395.404	1	14
396.599	1	0
397.795	1	11
398.990	1	15
400.186	1	12
401.381	1	13
402.576	1	13
403.771	1	7
404.967	1	0
406.162	1	-2
407.357	1	3
408.552	1	7
409.747	1	0
410.942	1	6
412.137	1	20
413.332	1	-7
414.526	1	6
415.721	1	5
416.916	1	-4
418.111	1	-2
419.305	1	-8
420.500	1	3
421.695	1	-2
422.889	1	-2
424.084	1	9
425.278	1	-8
426.472	1	-5
427.667	1	8
428.861	1	-1
430.055	1	-1
431.250	1	-13
432.444	1	6
433.638	1	-2
434.832	1	-10
436.026	1	-3
437.220	1	10
438.414	1	3
439.608	1	2
440.802	1	-1
441.996	1	6
443.190	1	-14
444.384	1	6
445.578	1	8
446.771	1	-4
447.965	1	-1
449.159	1	0
450.352	1	11
451.546	1	2
452.739	1	6
453.933	1	7
455.126	1	6
456.320	1	0
457.513	1	11
458.706	1	-8
459.899	1	16
461.093	1	16
462.286	1	6
463.479	1	1
464.672	1	3
465.865	1	-1
467.058	1	1
468.251	1	-1
469.444	1	0
470.637	1	6
471.830	1	20
473.023	1	0
474.215	1	-5
475.408	1	-4
476.601	1	-2
477.793	1	6
478.986	1	-10
480.179	1	11
481.371	1	7
482.564	1	-10
483.756	1	16
484.948	1	-1
486.141	1	-7
487.333	1	11
488.525	1	-2
489.718	1	-9
490.910	1	-2
492.102	1	3
493.294	1	9
494.486	1	9
495.678	1	11
496.870	1	-5
498.062	1	-3
499.254	1	-2
500.446	1	15
501.638	1	0
502.829	1	3
504.021	1	23
505.213	1	0
506.404	1	-8
507.596	1	2
508.788	1	7
509.979	1	4
511.171	1	14
512.362	1	-1
513.553	1	-7
514.745	1	7
515.936	1	3
517.127	1	-6
518.319	1	0
519.510	1	5
520.701	1	2
521.892	1	0
523.083	1	8
524.274	1	10
525.465	1	-3
526.656	1	20
527.847	1	-2
529.038	1	15
530.229	1	12
531.419	1	6
532.610	1	7
533.801	1	5
534.991	1	5
536.182	1	2
537.373	1	-11
538.563	1	-1
539.754	1	-2
540.944	1	3
542.134	1	3
543.325	1	5
544.515	1	-9
545.705	1	8
546.896	1	-3
548.086	1	6
549.276	1	10
550.466	1	-5
551.656	1	-3
552.846	1	5
554.036	1	7
555.226	1	-3
556.416	1	5
557.606	1	2
558.796	1	0
559.986	1	-8
561.175	1	6
562.365	1	9
563.555	1	12
564.744	1	8
565.934	1	13
567.123	1	14
568.313	1	3
569.502	1	9
570.692	1	5
571.881	1	7
573.070	1	8
574.260	1	-7
575.449	1	0
576.638	1	6
577.827	1	9
579.016	1	18
580.205	1	4
581.394	1	2
582.583	1	-6
583.772	1	-4
584.961	1	-1
586.150	1	9
587.339	1	-2
588.528	1	6
589.717	1	0
590.905	1	7
592.094	1	1
593.283	1	15
594.471	1	6
595.660	1	4
596.848	1	4
598.037	1	-8
599.225	1	6
600.413	1	-3
601.602	1	7
602.790	1	0
603.978	1	7
605.166	1	-5
606.355	1	1
607.543	1	-10
608.731	1	-17
609.919	1	-5
611.107	1	0
612.295	1	6
613.483	1	12
614.671	1	10
615.858	1	0
617.046	1	9
618.234	1	-4
619.422	1	-1
620.609	1	-4
621.797	1	2
622.985	1	3
624.172	1	16
625.360	1	-10
626.547	1	-9
627.735	1	7
628.922	1	1
630.109	1	4
631.297	1	-8
632.484	1	3
633.671	1	-3
634.858	1	3
636.045	1	-3
637.232	1	-3
638.419	1	4
639.606	1	8
640.793	1	8
641.980	1	-3
643.167	1	9
644.354	1	4
645.541	1	-5
646.728	1	7
647.914	1	-4
649.101	1	0
650.288	1	-7
651.474	1	11
652.661	1	0
653.847	1	5
655.034	1	-2
656.220	1	8
657.406	1	7
658.593	1	-8
659.779	1	0
660.965	1	1
662.152	1	-6
663.338	1	-1
664.524	1	-3
665.710	1	2
666.896	1	0
668.082	1	-9
669.268	1	0
670.454	1	7
671.640	1	-12
672.826	1	-15
674.011	1	11
675.197	1	1
676.383	1	-2
677.569	1	3
678.754	1	-2
679.940	1	-6
681.125	1	4
682.311	1	5
683.496	1	-3
684.682	1	8
685.867	1	3
687.053	1	-1
688.238	1	4
688.746	1	-1