File: Analysis/GaN_68K_200ms/GaN_sample E_spot4_UVVIS_68 K_200um_200 ms 2x2mm1_283.txt
340.368	1	8
341.565	1	-1
342.763	1	-1
343.960	1	-4
345.157	1	1
346.354	1	13
347.552	1	0
348.749	1	12
349.946	1	4
351.143	1	-11
352.340	1	3
353.537	1	-1
354.734	1	1
355.931	1	-4
357.127	1	1
358.324	1	1
359.521	1	4
360.718	1	5
361.914	1	11
363.111	1	14
364.308	1	3
365.504	1	-1
366.701	1	1
367.897	1	12
369.093	1	5
370.290	1	11
371.486	1	19
372.682	1	-1
373.879	1	11
375.075	1	9
376.271	1	2
377.467	1	-4
378.663	1	1
379.859	1	-1
381.055	1	0
382.251	1	10
383.447	1	8
384.643	1	12
385.839	1	15
387.035	1	15
388.230	1	8
389.426	1	7
390.622	1	7
391.817	1	2
393.013	1	18
394.208	1	16
395.404	1	20
396.599	1	17
397.795	1	12
398.990	1	8
400.186	1	16
401.381	1	22
402.576	1	19
403.771	1	18
404.967	1	8
406.162	1	-5
407.357	1	7
408.552	1	9
409.747	1	1
410.942	1	6
412.137	1	18
413.332	1	-6
414.526	1	8
415.721	1	10
416.916	1	0
418.111	1	8
419.305	1	-1
420.500	1	13
421.695	1	3
422.889	1	6
424.084	1	4
425.278	1	-8
426.472	1	-3
427.667	1	15
428.861	1	8
430.055	1	1
431.250	1	-3
432.444	1	8
433.638	1	1
434.832	1	-10
436.026	1	12
437.220	1	4
438.414	1	11
439.608	1	7
440.802	1	7
441.996	1	10
443.190	1	3
444.384	1	8
445.578	1	3
446.771	1	3
447.965	1	-1
449.159	1	-8
450.352	1	10
451.546	1	3
452.739	1	4
453.933	1	13
455.126	1	6
456.320	1	8
457.513	1	10
458.706	1	4
459.899	1	16
461.093	1	10
462.286	1	10
463.479	1	19
464.672	1	1
465.865	1	1
467.058	1	12
468.251	1	-13
469.444	1	2
470.637	1	11
471.830	1	18
473.023	1	9
474.215	1	-1
475.408	1	6
476.601	1	0
477.793	1	8
478.986	1	5
480.179	1	2
481.371	1	0
482.564	1	-11
483.756	1	16
484.948	1	-6
486.141	1	-9
487.333	1	8
488.525	1	-7
489.718	1	-8
490.910	1	0
492.102	1	4
493.294	1	11
494.486	1	3
495.678	1	6
496.870	1	-9
498.062	1	3
499.254	1	7
500.446	1	8
501.638	1	-5
502.829	1	11
504.021	1	16
505.213	1	4
506.404	1	3
507.596	1	11
508.788	1	2
509.979	1	8
511.171	1	12
512.362	1	13
513.553	1	-8
514.745	1	8
515.936	1	8
517.127	1	8
518.319	1	4
519.510	1	4
520.701	1	10
521.892	1	-4
523.083	1	0
524.274	1	2
525.465	1	9
526.656	1	22
527.847	1	6
529.038	1	13
530.229	1	7
531.419	1	12
532.610	1	9
533.801	1	12
534.991	1	7
536.182	1	1
537.373	1	8
538.563	1	7
539.754	1	6
540.944	1	1
542.134	1	13
543.325	1	15
544.515	1	7
545.705	1	13
546.896	1	5
548.086	1	9
549.276	1	10
550.466	1	-9
551.656	1	-3
552.846	1	0
554.036	1	7
555.226	1	5
556.416	1	7
557.606	1	-1
558.796	1	7
559.986	1	4
561.175	1	4
562.365	1	6
563.555	1	12
564.744	1	7
565.934	1	16
567.123	1	16
568.313	1	-7
569.502	1	8
570.692	1	12
571.881	1	12
573.070	1	-4
574.260	1	4
575.449	1	5
576.638	1	9
577.827	1	18
579.016	1	17
580.205	1	2
581.394	1	-1
582.583	1	-7
583.772	1	8
584.961	1	3
586.150	1	-4
587.339	1	-1
588.528	1	2
589.717	1	13
590.905	1	-2
592.094	1	1
593.283	1	9
594.471	1	1
595.660	1	7
596.848	1	3
598.037	1	-1
599.225	1	5
600.413	1	-2
601.602	1	11
602.790	1	4
603.978	1	8
605.166	1	0
606.355	1	14
607.543	1	-4
608.731	1	-7
609.919	1	-6
611.107	1	19
612.295	1	-2
613.483	1	10
614.671	1	3
615.858	1	12
617.046	1	-1
618.234	1	-2
619.422	1	10
620.609	1	8
621.797	1	-3
622.985	1	3
624.172	1	16
625.360	1	-7
626.547	1	-1
627.735	1	6
628.922	1	1
630.109	1	-2
631.297	1	-9
632.484	1	8
633.671	1	1
634.858	1	2
636.045	1	2
637.232	1	7
638.419	1	5
639.606	1	13
640.793	1	3
641.980	1	1
643.167	1	10
644.354	1	-6
645.541	1	-4
646.728	1	3
647.914	1	-6
649.101	1	1
650.288	1	-6
651.474	1	8
652.661	1	3
653.847	1	0
655.034	1	4
656.220	1	3
657.406	1	5
658.593	1	-15
659.779	1	3
660.965	1	0
662.152	1	1
663.338	1	-6
664.524	1	-5
665.710	1	-3
666.896	1	3
668.082	1	-3
669.268	1	3
670.454	1	1
671.640	1	-14
672.826	1	-9
674.011	1	1
675.197	1	-3
676.383	1	-10
677.569	1	-5
678.754	1	-3
679.940	1	2
681.125	1	8
682.311	1	-2
683.496	1	-8
684.682	1	5
685.867	1	-1
687.053	1	5
688.238	1	4
688.746	1	9