File: Analysis/GaN_68K_200ms/GaN_sample E_spot4_UVVIS_68 K_200um_200 ms 2x2mm1_724.txt
340.368	1	-3
341.565	1	-13
342.763	1	-10
343.960	1	-5
345.157	1	-7
346.354	1	-10
347.552	1	5
348.749	1	4
349.946	1	9
351.143	1	-13
352.340	1	-1
353.537	1	-7
354.734	1	-7
355.931	1	-6
357.127	1	5
358.324	1	-6
359.521	1	-9
360.718	1	-9
361.914	1	-3
363.111	1	5
364.308	1	5
365.504	1	-5
366.701	1	-10
367.897	1	-3
369.093	1	0
370.290	1	-1
371.486	1	0
372.682	1	-6
373.879	1	5
375.075	1	7
376.271	1	0
377.467	1	0
378.663	1	-2
379.859	1	-3
381.055	1	1
382.251	1	15
383.447	1	6
384.643	1	-1
385.839	1	0
387.035	1	-2
388.230	1	6
389.426	1	5
390.622	1	1
391.817	1	-2
393.013	1	8
394.208	1	4
395.404	1	6
396.599	1	4
397.795	1	3
398.990	1	5
400.186	1	10
401.381	1	15
402.576	1	16
403.771	1	1
404.967	1	5
406.162	1	-6
407.357	1	6
408.552	1	-2
409.747	1	2
410.942	1	-4
412.137	1	14
413.332	1	-5
414.526	1	-11
415.721	1	2
416.916	1	-9
418.111	1	-11
419.305	1	-1
420.500	1	-4
421.695	1	1
422.889	1	5
424.084	1	5
425.278	1	-16
426.472	1	-8
427.667	1	8
428.861	1	1
430.055	1	3
431.250	1	-2
432.444	1	8
433.638	1	-3
434.832	1	-10
436.026	1	3
437.220	1	2
438.414	1	4
439.608	1	-3
440.802	1	-3
441.996	1	-3
443.190	1	-6
444.384	1	-5
445.578	1	7
446.771	1	-6
447.965	1	-8
449.159	1	3
450.352	1	7
451.546	1	0
452.739	1	3
453.933	1	0
455.126	1	-1
456.320	1	0
457.513	1	13
458.706	1	4
459.899	1	12
461.093	1	-1
462.286	1	0
463.479	1	8
464.672	1	0
465.865	1	6
467.058	1	3
468.251	1	-5
469.444	1	-15
470.637	1	13
471.830	1	14
473.023	1	-5
474.215	1	-7
475.408	1	7
476.601	1	-1
477.793	1	4
478.986	1	3
480.179	1	-3
481.371	1	1
482.564	1	-14
483.756	1	11
484.948	1	-7
486.141	1	-2
487.333	1	-2
488.525	1	-6
489.718	1	-1
490.910	1	-9
492.102	1	-5
493.294	1	9
494.486	1	-1
495.678	1	4
496.870	1	-8
498.062	1	-2
499.254	1	5
500.446	1	10
501.638	1	-1
502.829	1	-7
504.021	1	17
505.213	1	-1
506.404	1	-6
507.596	1	3
508.788	1	-5
509.979	1	3
511.171	1	3
512.362	1	-8
513.553	1	-8
514.745	1	-8
515.936	1	10
517.127	1	0
518.319	1	-3
519.510	1	1
520.701	1	7
521.892	1	-12
523.083	1	-3
524.274	1	-5
525.465	1	6
526.656	1	25
527.847	1	-2
529.038	1	10
530.229	1	7
531.419	1	3
532.610	1	4
533.801	1	3
534.991	1	-1
536.182	1	4
537.373	1	2
538.563	1	-8
539.754	1	-3
540.944	1	-5
542.134	1	6
543.325	1	-9
544.515	1	-1
545.705	1	8
546.896	1	-2
548.086	1	0
549.276	1	9
550.466	1	-6
551.656	1	-12
552.846	1	-1
554.036	1	-1
555.226	1	-15
556.416	1	2
557.606	1	-15
558.796	1	-1
559.986	1	-6
561.175	1	4
562.365	1	-8
563.555	1	-1
564.744	1	7
565.934	1	-2
567.123	1	11
568.313	1	-8
569.502	1	-2
570.692	1	0
571.881	1	-6
573.070	1	9
574.260	1	-5
575.449	1	4
576.638	1	4
577.827	1	10
579.016	1	10
580.205	1	5
581.394	1	0
582.583	1	-9
583.772	1	-3
584.961	1	6
586.150	1	-1
587.339	1	3
588.528	1	3
589.717	1	11
590.905	1	4
592.094	1	9
593.283	1	10
594.471	1	3
595.660	1	-6
596.848	1	9
598.037	1	7
599.225	1	-8
600.413	1	-4
601.602	1	0
602.790	1	-10
603.978	1	1
605.166	1	3
606.355	1	8
607.543	1	-2
608.731	1	-3
609.919	1	-12
611.107	1	4
612.295	1	0
613.483	1	7
614.671	1	10
615.858	1	3
617.046	1	-1
618.234	1	-4
619.422	1	5
620.609	1	-4
621.797	1	1
622.985	1	2
624.172	1	3
625.360	1	-2
626.547	1	-2
627.735	1	8
628.922	1	-5
630.109	1	-3
631.297	1	-7
632.484	1	0
633.671	1	-3
634.858	1	10
636.045	1	-6
637.232	1	-7
638.419	1	3
639.606	1	13
640.793	1	3
641.980	1	-5
643.167	1	9
644.354	1	-2
645.541	1	-15
646.728	1	-3
647.914	1	-8
649.101	1	1
650.288	1	-3
651.474	1	1
652.661	1	-6
653.847	1	-5
655.034	1	-6
656.220	1	1
657.406	1	4
658.593	1	-8
659.779	1	-2
660.965	1	11
662.152	1	-11
663.338	1	-11
664.524	1	-10
665.710	1	-2
666.896	1	-1
668.082	1	-2
669.268	1	0
670.454	1	5
671.640	1	-13
672.826	1	-12
674.011	1	2
675.197	1	1
676.383	1	3
677.569	1	-8
678.754	1	-1
679.940	1	-4
681.125	1	4
682.311	1	0
683.496	1	-5
684.682	1	2
685.867	1	7
687.053	1	8
688.238	1	-5
688.746	1	5