File: Analysis/GaN_68K_200ms/GaN_sample E_spot4_UVVIS_68 K_200um_200 ms 2x2mm1_731.txt
340.368	1	1
341.565	1	-9
342.763	1	-5
343.960	1	1
345.157	1	-4
346.354	1	3
347.552	1	4
348.749	1	4
349.946	1	2
351.143	1	-10
352.340	1	2
353.537	1	7
354.734	1	-4
355.931	1	6
357.127	1	0
358.324	1	-6
359.521	1	1
360.718	1	-5
361.914	1	-4
363.111	1	12
364.308	1	3
365.504	1	-4
366.701	1	-10
367.897	1	-5
369.093	1	-2
370.290	1	-7
371.486	1	-3
372.682	1	-3
373.879	1	9
375.075	1	-3
376.271	1	3
377.467	1	-11
378.663	1	-10
379.859	1	-1
381.055	1	3
382.251	1	1
383.447	1	9
384.643	1	5
385.839	1	0
387.035	1	4
388.230	1	-4
389.426	1	7
390.622	1	7
391.817	1	-7
393.013	1	11
394.208	1	4
395.404	1	1
396.599	1	5
397.795	1	11
398.990	1	1
400.186	1	9
401.381	1	3
402.576	1	4
403.771	1	7
404.967	1	8
406.162	1	-2
407.357	1	3
408.552	1	6
409.747	1	-7
410.942	1	5
412.137	1	-2
413.332	1	-3
414.526	1	1
415.721	1	2
416.916	1	6
418.111	1	-2
419.305	1	-6
420.500	1	-6
421.695	1	-3
422.889	1	8
424.084	1	6
425.278	1	-8
426.472	1	-12
427.667	1	1
428.861	1	0
430.055	1	-1
431.250	1	-9
432.444	1	1
433.638	1	-3
434.832	1	-11
436.026	1	-6
437.220	1	13
438.414	1	-12
439.608	1	-2
440.802	1	5
441.996	1	-1
443.190	1	-13
444.384	1	-2
445.578	1	8
446.771	1	-5
447.965	1	-4
449.159	1	-6
450.352	1	2
451.546	1	10
452.739	1	-1
453.933	1	-3
455.126	1	3
456.320	1	-3
457.513	1	14
458.706	1	7
459.899	1	14
461.093	1	8
462.286	1	11
463.479	1	4
464.672	1	-6
465.865	1	-4
467.058	1	5
468.251	1	-6
469.444	1	-7
470.637	1	10
471.830	1	5
473.023	1	-7
474.215	1	-3
475.408	1	-2
476.601	1	4
477.793	1	10
478.986	1	0
480.179	1	-2
481.371	1	2
482.564	1	-9
483.756	1	0
484.948	1	-4
486.141	1	2
487.333	1	5
488.525	1	-2
489.718	1	0
490.910	1	-6
492.102	1	-3
493.294	1	2
494.486	1	1
495.678	1	5
496.870	1	-3
498.062	1	-12
499.254	1	2
500.446	1	3
501.638	1	3
502.829	1	4
504.021	1	17
505.213	1	-1
506.404	1	-6
507.596	1	5
508.788	1	-2
509.979	1	-2
511.171	1	11
512.362	1	1
513.553	1	-1
514.745	1	2
515.936	1	-4
517.127	1	5
518.319	1	-3
519.510	1	6
520.701	1	7
521.892	1	-3
523.083	1	2
524.274	1	-11
525.465	1	-4
526.656	1	9
527.847	1	-7
529.038	1	6
530.229	1	3
531.419	1	0
532.610	1	4
533.801	1	3
534.991	1	2
536.182	1	0
537.373	1	-7
538.563	1	4
539.754	1	-5
540.944	1	-9
542.134	1	11
543.325	1	5
544.515	1	2
545.705	1	-3
546.896	1	-6
548.086	1	12
549.276	1	10
550.466	1	-9
551.656	1	-5
552.846	1	6
554.036	1	-1
555.226	1	-8
556.416	1	2
557.606	1	-4
558.796	1	-11
559.986	1	-4
561.175	1	1
562.365	1	2
563.555	1	12
564.744	1	7
565.934	1	-2
567.123	1	16
568.313	1	-5
569.502	1	-4
570.692	1	2
571.881	1	0
573.070	1	13
574.260	1	-5
575.449	1	2
576.638	1	6
577.827	1	18
579.016	1	11
580.205	1	0
581.394	1	-7
582.583	1	-8
583.772	1	-5
584.961	1	4
586.150	1	2
587.339	1	-9
588.528	1	6
589.717	1	-2
590.905	1	-2
592.094	1	4
593.283	1	2
594.471	1	6
595.660	1	-4
596.848	1	-1
598.037	1	0
599.225	1	1
600.413	1	0
601.602	1	-3
602.790	1	3
603.978	1	-2
605.166	1	-1
606.355	1	12
607.543	1	-10
608.731	1	-18
609.919	1	-4
611.107	1	6
612.295	1	7
613.483	1	4
614.671	1	-4
615.858	1	0
617.046	1	10
618.234	1	1
619.422	1	-5
620.609	1	-4
621.797	1	-2
622.985	1	3
624.172	1	10
625.360	1	1
626.547	1	5
627.735	1	3
628.922	1	-11
630.109	1	0
631.297	1	-9
632.484	1	-4
633.671	1	-4
634.858	1	14
636.045	1	-2
637.232	1	7
638.419	1	1
639.606	1	18
640.793	1	9
641.980	1	-5
643.167	1	8
644.354	1	0
645.541	1	-11
646.728	1	4
647.914	1	-14
649.101	1	-2
650.288	1	-5
651.474	1	6
652.661	1	9
653.847	1	4
655.034	1	3
656.220	1	2
657.406	1	3
658.593	1	-7
659.779	1	-11
660.965	1	3
662.152	1	4
663.338	1	-4
664.524	1	-7
665.710	1	-2
666.896	1	-10
668.082	1	0
669.268	1	6
670.454	1	0
671.640	1	-7
672.826	1	-8
674.011	1	5
675.197	1	-3
676.383	1	2
677.569	1	-4
678.754	1	-1
679.940	1	-8
681.125	1	7
682.311	1	0
683.496	1	-8
684.682	1	9
685.867	1	-1
687.053	1	-1
688.238	1	3
688.746	1	2