File: Analysis/GaN_68K_200ms/GaN_sample E_spot4_UVVIS_68 K_200um_200 ms 2x2mm1_532.txt
340.368	1	-5
341.565	1	-14
342.763	1	-5
343.960	1	-1
345.157	1	-2
346.354	1	0
347.552	1	-2
348.749	1	4
349.946	1	6
351.143	1	-3
352.340	1	1
353.537	1	-1
354.734	1	-1
355.931	1	2
357.127	1	1
358.324	1	5
359.521	1	4
360.718	1	1
361.914	1	-3
363.111	1	4
364.308	1	-2
365.504	1	-8
366.701	1	-3
367.897	1	1
369.093	1	0
370.290	1	-3
371.486	1	14
372.682	1	-6
373.879	1	9
375.075	1	9
376.271	1	7
377.467	1	6
378.663	1	-4
379.859	1	-2
381.055	1	-4
382.251	1	4
383.447	1	7
384.643	1	13
385.839	1	-2
387.035	1	-3
388.230	1	3
389.426	1	6
390.622	1	5
391.817	1	-1
393.013	1	9
394.208	1	5
395.404	1	-4
396.599	1	-2
397.795	1	0
398.990	1	9
400.186	1	9
401.381	1	-8
402.576	1	3
403.771	1	1
404.967	1	-3
406.162	1	2
407.357	1	-7
408.552	1	11
409.747	1	-8
410.942	1	3
412.137	1	14
413.332	1	0
414.526	1	6
415.721	1	4
416.916	1	-8
418.111	1	0
419.305	1	4
420.500	1	9
421.695	1	11
422.889	1	-7
424.084	1	-2
425.278	1	-12
426.472	1	-14
427.667	1	6
428.861	1	2
430.055	1	-7
431.250	1	-7
432.444	1	12
433.638	1	-5
434.832	1	2
436.026	1	3
437.220	1	2
438.414	1	4
439.608	1	-13
440.802	1	6
441.996	1	7
443.190	1	-5
444.384	1	2
445.578	1	9
446.771	1	5
447.965	1	-14
449.159	1	-6
450.352	1	9
451.546	1	6
452.739	1	-2
453.933	1	3
455.126	1	3
456.320	1	4
457.513	1	4
458.706	1	3
459.899	1	11
461.093	1	4
462.286	1	2
463.479	1	12
464.672	1	1
465.865	1	-13
467.058	1	6
468.251	1	0
469.444	1	0
470.637	1	15
471.830	1	6
473.023	1	-3
474.215	1	1
475.408	1	10
476.601	1	-8
477.793	1	12
478.986	1	-4
480.179	1	12
481.371	1	0
482.564	1	-3
483.756	1	9
484.948	1	-4
486.141	1	-3
487.333	1	7
488.525	1	6
489.718	1	-2
490.910	1	-8
492.102	1	-3
493.294	1	6
494.486	1	10
495.678	1	6
496.870	1	0
498.062	1	1
499.254	1	7
500.446	1	6
501.638	1	8
502.829	1	0
504.021	1	10
505.213	1	-4
506.404	1	-11
507.596	1	-1
508.788	1	6
509.979	1	11
511.171	1	13
512.362	1	8
513.553	1	1
514.745	1	3
515.936	1	4
517.127	1	-1
518.319	1	3
519.510	1	6
520.701	1	1
521.892	1	-2
523.083	1	-7
524.274	1	-7
525.465	1	-2
526.656	1	17
527.847	1	9
529.038	1	3
530.229	1	-2
531.419	1	9
532.610	1	2
533.801	1	0
534.991	1	6
536.182	1	-3
537.373	1	-9
538.563	1	5
539.754	1	-2
540.944	1	-2
542.134	1	19
543.325	1	-4
544.515	1	-6
545.705	1	8
546.896	1	-2
548.086	1	7
549.276	1	6
550.466	1	-9
551.656	1	-1
552.846	1	4
554.036	1	5
555.226	1	-2
556.416	1	-6
557.606	1	3
558.796	1	-2
559.986	1	-4
561.175	1	4
562.365	1	5
563.555	1	7
564.744	1	3
565.934	1	2
567.123	1	11
568.313	1	0
569.502	1	2
570.692	1	-1
571.881	1	6
573.070	1	10
574.260	1	1
575.449	1	10
576.638	1	1
577.827	1	8
579.016	1	15
580.205	1	0
581.394	1	-7
582.583	1	3
583.772	1	1
584.961	1	-1
586.150	1	4
587.339	1	10
588.528	1	-6
589.717	1	4
590.905	1	1
592.094	1	7
593.283	1	-4
594.471	1	-8
595.660	1	0
596.848	1	7
598.037	1	0
599.225	1	6
600.413	1	1
601.602	1	3
602.790	1	-1
603.978	1	-5
605.166	1	-6
606.355	1	9
607.543	1	-7
608.731	1	-5
609.919	1	-2
611.107	1	7
612.295	1	-5
613.483	1	3
614.671	1	-7
615.858	1	4
617.046	1	-6
618.234	1	-3
619.422	1	-3
620.609	1	-1
621.797	1	4
622.985	1	8
624.172	1	17
625.360	1	-15
626.547	1	6
627.735	1	7
628.922	1	0
630.109	1	2
631.297	1	1
632.484	1	8
633.671	1	-9
634.858	1	9
636.045	1	-2
637.232	1	5
638.419	1	-2
639.606	1	8
640.793	1	7
641.980	1	-8
643.167	1	8
644.354	1	-7
645.541	1	-6
646.728	1	-3
647.914	1	-4
649.101	1	5
650.288	1	-7
651.474	1	4
652.661	1	1
653.847	1	2
655.034	1	-5
656.220	1	4
657.406	1	4
658.593	1	-3
659.779	1	-6
660.965	1	4
662.152	1	-4
663.338	1	3
664.524	1	-8
665.710	1	-1
666.896	1	-16
668.082	1	0
669.268	1	3
670.454	1	7
671.640	1	-11
672.826	1	-13
674.011	1	5
675.197	1	-10
676.383	1	-11
677.569	1	2
678.754	1	-4
679.940	1	-7
681.125	1	16
682.311	1	7
683.496	1	-8
684.682	1	-1
685.867	1	6
687.053	1	3
688.238	1	4
688.746	1	3