File: Analysis/GaN_68K_200ms/GaN_sample E_spot4_UVVIS_68 K_200um_200 ms 2x2mm1_175.txt
340.368	1	3
341.565	1	3
342.763	1	-10
343.960	1	0
345.157	1	7
346.354	1	3
347.552	1	1
348.749	1	12
349.946	1	10
351.143	1	-1
352.340	1	-1
353.537	1	7
354.734	1	3
355.931	1	10
357.127	1	12
358.324	1	2
359.521	1	11
360.718	1	3
361.914	1	14
363.111	1	35
364.308	1	20
365.504	1	25
366.701	1	40
367.897	1	36
369.093	1	35
370.290	1	26
371.486	1	31
372.682	1	13
373.879	1	28
375.075	1	22
376.271	1	13
377.467	1	11
378.663	1	19
379.859	1	7
381.055	1	19
382.251	1	22
383.447	1	40
384.643	1	47
385.839	1	52
387.035	1	50
388.230	1	46
389.426	1	51
390.622	1	36
391.817	1	28
393.013	1	57
394.208	1	31
395.404	1	49
396.599	1	48
397.795	1	50
398.990	1	43
400.186	1	57
401.381	1	33
402.576	1	39
403.771	1	30
404.967	1	38
406.162	1	25
407.357	1	30
408.552	1	26
409.747	1	20
410.942	1	21
412.137	1	36
413.332	1	24
414.526	1	24
415.721	1	15
416.916	1	12
418.111	1	18
419.305	1	21
420.500	1	20
421.695	1	18
422.889	1	12
424.084	1	24
425.278	1	10
426.472	1	16
427.667	1	18
428.861	1	15
430.055	1	10
431.250	1	7
432.444	1	9
433.638	1	5
434.832	1	0
436.026	1	8
437.220	1	20
438.414	1	18
439.608	1	13
440.802	1	13
441.996	1	7
443.190	1	4
444.384	1	13
445.578	1	22
446.771	1	8
447.965	1	5
449.159	1	0
450.352	1	13
451.546	1	18
452.739	1	13
453.933	1	14
455.126	1	11
456.320	1	9
457.513	1	12
458.706	1	18
459.899	1	9
461.093	1	7
462.286	1	18
463.479	1	8
464.672	1	4
465.865	1	5
467.058	1	23
468.251	1	3
469.444	1	11
470.637	1	19
471.830	1	18
473.023	1	4
474.215	1	7
475.408	1	10
476.601	1	7
477.793	1	16
478.986	1	-3
480.179	1	2
481.371	1	8
482.564	1	2
483.756	1	15
484.948	1	-3
486.141	1	6
487.333	1	8
488.525	1	14
489.718	1	0
490.910	1	11
492.102	1	5
493.294	1	15
494.486	1	2
495.678	1	15
496.870	1	13
498.062	1	10
499.254	1	14
500.446	1	17
501.638	1	13
502.829	1	17
504.021	1	36
505.213	1	19
506.404	1	9
507.596	1	30
508.788	1	16
509.979	1	16
511.171	1	30
512.362	1	12
513.553	1	7
514.745	1	14
515.936	1	23
517.127	1	20
518.319	1	15
519.510	1	16
520.701	1	26
521.892	1	12
523.083	1	27
524.274	1	17
525.465	1	24
526.656	1	43
527.847	1	23
529.038	1	36
530.229	1	30
531.419	1	27
532.610	1	31
533.801	1	23
534.991	1	34
536.182	1	25
537.373	1	15
538.563	1	28
539.754	1	26
540.944	1	27
542.134	1	27
543.325	1	22
544.515	1	14
545.705	1	30
546.896	1	29
548.086	1	26
549.276	1	27
550.466	1	26
551.656	1	21
552.846	1	28
554.036	1	16
555.226	1	13
556.416	1	22
557.606	1	10
558.796	1	23
559.986	1	15
561.175	1	12
562.365	1	20
563.555	1	23
564.744	1	13
565.934	1	15
567.123	1	31
568.313	1	7
569.502	1	15
570.692	1	12
571.881	1	17
573.070	1	7
574.260	1	11
575.449	1	19
576.638	1	13
577.827	1	19
579.016	1	17
580.205	1	10
581.394	1	10
582.583	1	2
583.772	1	11
584.961	1	8
586.150	1	14
587.339	1	7
588.528	1	16
589.717	1	14
590.905	1	10
592.094	1	14
593.283	1	4
594.471	1	11
595.660	1	2
596.848	1	21
598.037	1	8
599.225	1	11
600.413	1	13
601.602	1	10
602.790	1	6
603.978	1	5
605.166	1	0
606.355	1	14
607.543	1	-4
608.731	1	4
609.919	1	3
611.107	1	8
612.295	1	11
613.483	1	11
614.671	1	8
615.858	1	11
617.046	1	6
618.234	1	5
619.422	1	2
620.609	1	1
621.797	1	5
622.985	1	12
624.172	1	19
625.360	1	-9
626.547	1	3
627.735	1	6
628.922	1	13
630.109	1	-5
631.297	1	-4
632.484	1	3
633.671	1	9
634.858	1	7
636.045	1	0
637.232	1	6
638.419	1	14
639.606	1	17
640.793	1	11
641.980	1	1
643.167	1	12
644.354	1	1
645.541	1	-1
646.728	1	14
647.914	1	8
649.101	1	5
650.288	1	1
651.474	1	14
652.661	1	14
653.847	1	2
655.034	1	3
656.220	1	19
657.406	1	13
658.593	1	-2
659.779	1	-5
660.965	1	8
662.152	1	5
663.338	1	5
664.524	1	-9
665.710	1	5
666.896	1	-1
668.082	1	-7
669.268	1	6
670.454	1	6
671.640	1	-11
672.826	1	-8
674.011	1	14
675.197	1	3
676.383	1	0
677.569	1	-3
678.754	1	1
679.940	1	-3
681.125	1	6
682.311	1	6
683.496	1	-3
684.682	1	11
685.867	1	5
687.053	1	7
688.238	1	3
688.746	1	9