File: Analysis/GaN_68K_200ms/GaN_sample E_spot4_UVVIS_68 K_200um_200 ms 2x2mm1_766.txt
340.368	1	4
341.565	1	-17
342.763	1	5
343.960	1	5
345.157	1	7
346.354	1	-2
347.552	1	2
348.749	1	-5
349.946	1	0
351.143	1	-1
352.340	1	-1
353.537	1	-11
354.734	1	-5
355.931	1	5
357.127	1	-1
358.324	1	-4
359.521	1	-3
360.718	1	-3
361.914	1	-1
363.111	1	5
364.308	1	7
365.504	1	-7
366.701	1	-6
367.897	1	9
369.093	1	2
370.290	1	2
371.486	1	11
372.682	1	-5
373.879	1	9
375.075	1	4
376.271	1	1
377.467	1	-4
378.663	1	-4
379.859	1	-6
381.055	1	1
382.251	1	5
383.447	1	2
384.643	1	5
385.839	1	9
387.035	1	1
388.230	1	4
389.426	1	5
390.622	1	3
391.817	1	3
393.013	1	6
394.208	1	12
395.404	1	3
396.599	1	1
397.795	1	10
398.990	1	14
400.186	1	14
401.381	1	2
402.576	1	11
403.771	1	13
404.967	1	8
406.162	1	-8
407.357	1	5
408.552	1	-1
409.747	1	-18
410.942	1	-2
412.137	1	14
413.332	1	-3
414.526	1	-4
415.721	1	-1
416.916	1	-1
418.111	1	-7
419.305	1	-4
420.500	1	-4
421.695	1	3
422.889	1	10
424.084	1	-3
425.278	1	-3
426.472	1	-7
427.667	1	12
428.861	1	8
430.055	1	-3
431.250	1	-12
432.444	1	6
433.638	1	1
434.832	1	-2
436.026	1	3
437.220	1	7
438.414	1	-4
439.608	1	0
440.802	1	2
441.996	1	0
443.190	1	-1
444.384	1	13
445.578	1	0
446.771	1	0
447.965	1	3
449.159	1	-16
450.352	1	5
451.546	1	-4
452.739	1	-3
453.933	1	-3
455.126	1	-3
456.320	1	6
457.513	1	9
458.706	1	0
459.899	1	16
461.093	1	-5
462.286	1	2
463.479	1	11
464.672	1	1
465.865	1	-7
467.058	1	6
468.251	1	-1
469.444	1	-10
470.637	1	5
471.830	1	14
473.023	1	-3
474.215	1	-6
475.408	1	-9
476.601	1	0
477.793	1	-1
478.986	1	-6
480.179	1	6
481.371	1	-3
482.564	1	-8
483.756	1	3
484.948	1	-10
486.141	1	-8
487.333	1	-5
488.525	1	-5
489.718	1	-3
490.910	1	-2
492.102	1	3
493.294	1	12
494.486	1	0
495.678	1	4
496.870	1	-1
498.062	1	-2
499.254	1	11
500.446	1	-3
501.638	1	6
502.829	1	0
504.021	1	16
505.213	1	-7
506.404	1	0
507.596	1	3
508.788	1	1
509.979	1	1
511.171	1	11
512.362	1	-1
513.553	1	-3
514.745	1	5
515.936	1	4
517.127	1	-3
518.319	1	-1
519.510	1	-13
520.701	1	0
521.892	1	-8
523.083	1	3
524.274	1	-9
525.465	1	3
526.656	1	4
527.847	1	-4
529.038	1	11
530.229	1	1
531.419	1	11
532.610	1	1
533.801	1	4
534.991	1	5
536.182	1	4
537.373	1	-8
538.563	1	-3
539.754	1	5
540.944	1	-4
542.134	1	10
543.325	1	5
544.515	1	-1
545.705	1	5
546.896	1	0
548.086	1	1
549.276	1	10
550.466	1	-11
551.656	1	-1
552.846	1	5
554.036	1	1
555.226	1	-13
556.416	1	-2
557.606	1	-5
558.796	1	4
559.986	1	-6
561.175	1	4
562.365	1	5
563.555	1	-3
564.744	1	2
565.934	1	0
567.123	1	22
568.313	1	-6
569.502	1	5
570.692	1	1
571.881	1	3
573.070	1	-4
574.260	1	0
575.449	1	5
576.638	1	2
577.827	1	0
579.016	1	6
580.205	1	0
581.394	1	-11
582.583	1	-9
583.772	1	-1
584.961	1	0
586.150	1	3
587.339	1	6
588.528	1	11
589.717	1	4
590.905	1	5
592.094	1	3
593.283	1	0
594.471	1	-2
595.660	1	-5
596.848	1	4
598.037	1	-4
599.225	1	2
600.413	1	-3
601.602	1	1
602.790	1	4
603.978	1	-7
605.166	1	-5
606.355	1	16
607.543	1	-11
608.731	1	-4
609.919	1	-10
611.107	1	6
612.295	1	0
613.483	1	1
614.671	1	3
615.858	1	4
617.046	1	-5
618.234	1	0
619.422	1	4
620.609	1	-2
621.797	1	-6
622.985	1	3
624.172	1	8
625.360	1	-4
626.547	1	-6
627.735	1	3
628.922	1	-8
630.109	1	-9
631.297	1	-6
632.484	1	-2
633.671	1	-2
634.858	1	-3
636.045	1	-1
637.232	1	-4
638.419	1	0
639.606	1	12
640.793	1	4
641.980	1	-8
643.167	1	7
644.354	1	2
645.541	1	-9
646.728	1	-3
647.914	1	-2
649.101	1	-11
650.288	1	-11
651.474	1	7
652.661	1	-3
653.847	1	1
655.034	1	6
656.220	1	-3
657.406	1	3
658.593	1	0
659.779	1	-3
660.965	1	1
662.152	1	8
663.338	1	-14
664.524	1	-12
665.710	1	1
666.896	1	0
668.082	1	-8
669.268	1	1
670.454	1	7
671.640	1	-14
672.826	1	-15
674.011	1	0
675.197	1	-9
676.383	1	-9
677.569	1	-9
678.754	1	-4
679.940	1	-10
681.125	1	4
682.311	1	4
683.496	1	-1
684.682	1	7
685.867	1	-3
687.053	1	11
688.238	1	0
688.746	1	-4