File: Analysis/GaN_68K_200ms/GaN_sample E_spot4_UVVIS_68 K_200um_200 ms 2x2mm1_518.txt
340.368	1	-7
341.565	1	-9
342.763	1	-7
343.960	1	-11
345.157	1	3
346.354	1	5
347.552	1	6
348.749	1	1
349.946	1	11
351.143	1	-12
352.340	1	-6
353.537	1	0
354.734	1	0
355.931	1	5
357.127	1	13
358.324	1	-5
359.521	1	2
360.718	1	-2
361.914	1	-8
363.111	1	2
364.308	1	-4
365.504	1	-1
366.701	1	1
367.897	1	5
369.093	1	2
370.290	1	-3
371.486	1	12
372.682	1	-10
373.879	1	14
375.075	1	6
376.271	1	-2
377.467	1	2
378.663	1	-4
379.859	1	1
381.055	1	1
382.251	1	8
383.447	1	4
384.643	1	7
385.839	1	1
387.035	1	1
388.230	1	1
389.426	1	5
390.622	1	12
391.817	1	-4
393.013	1	5
394.208	1	12
395.404	1	9
396.599	1	6
397.795	1	10
398.990	1	11
400.186	1	12
401.381	1	0
402.576	1	10
403.771	1	14
404.967	1	1
406.162	1	-2
407.357	1	4
408.552	1	4
409.747	1	-5
410.942	1	3
412.137	1	5
413.332	1	1
414.526	1	-1
415.721	1	-2
416.916	1	-6
418.111	1	5
419.305	1	0
420.500	1	5
421.695	1	7
422.889	1	13
424.084	1	6
425.278	1	-3
426.472	1	0
427.667	1	6
428.861	1	-1
430.055	1	6
431.250	1	-6
432.444	1	13
433.638	1	5
434.832	1	-7
436.026	1	4
437.220	1	11
438.414	1	2
439.608	1	-4
440.802	1	8
441.996	1	2
443.190	1	-12
444.384	1	4
445.578	1	5
446.771	1	6
447.965	1	-15
449.159	1	3
450.352	1	6
451.546	1	-1
452.739	1	3
453.933	1	3
455.126	1	4
456.320	1	-5
457.513	1	11
458.706	1	5
459.899	1	4
461.093	1	-1
462.286	1	5
463.479	1	10
464.672	1	-3
465.865	1	3
467.058	1	20
468.251	1	4
469.444	1	-4
470.637	1	11
471.830	1	13
473.023	1	5
474.215	1	-5
475.408	1	2
476.601	1	-5
477.793	1	12
478.986	1	-7
480.179	1	7
481.371	1	6
482.564	1	-5
483.756	1	10
484.948	1	0
486.141	1	-14
487.333	1	3
488.525	1	-2
489.718	1	-2
490.910	1	-11
492.102	1	-4
493.294	1	8
494.486	1	-1
495.678	1	8
496.870	1	-2
498.062	1	-2
499.254	1	9
500.446	1	8
501.638	1	-3
502.829	1	4
504.021	1	15
505.213	1	-8
506.404	1	-12
507.596	1	2
508.788	1	6
509.979	1	0
511.171	1	11
512.362	1	-4
513.553	1	-8
514.745	1	6
515.936	1	4
517.127	1	2
518.319	1	1
519.510	1	-1
520.701	1	9
521.892	1	-7
523.083	1	-2
524.274	1	-14
525.465	1	-3
526.656	1	23
527.847	1	-6
529.038	1	14
530.229	1	9
531.419	1	4
532.610	1	10
533.801	1	-1
534.991	1	4
536.182	1	4
537.373	1	-6
538.563	1	3
539.754	1	-1
540.944	1	-8
542.134	1	1
543.325	1	0
544.515	1	-7
545.705	1	11
546.896	1	7
548.086	1	-1
549.276	1	11
550.466	1	-2
551.656	1	-7
552.846	1	7
554.036	1	3
555.226	1	-3
556.416	1	12
557.606	1	-8
558.796	1	5
559.986	1	3
561.175	1	3
562.365	1	3
563.555	1	6
564.744	1	-8
565.934	1	-1
567.123	1	12
568.313	1	-6
569.502	1	-1
570.692	1	8
571.881	1	11
573.070	1	10
574.260	1	-7
575.449	1	3
576.638	1	8
577.827	1	3
579.016	1	17
580.205	1	1
581.394	1	0
582.583	1	-4
583.772	1	3
584.961	1	3
586.150	1	9
587.339	1	15
588.528	1	1
589.717	1	7
590.905	1	10
592.094	1	2
593.283	1	2
594.471	1	2
595.660	1	-1
596.848	1	6
598.037	1	3
599.225	1	2
600.413	1	0
601.602	1	9
602.790	1	-2
603.978	1	2
605.166	1	-7
606.355	1	7
607.543	1	-10
608.731	1	-6
609.919	1	-3
611.107	1	12
612.295	1	5
613.483	1	0
614.671	1	4
615.858	1	4
617.046	1	-1
618.234	1	0
619.422	1	0
620.609	1	3
621.797	1	2
622.985	1	14
624.172	1	6
625.360	1	-3
626.547	1	8
627.735	1	11
628.922	1	-8
630.109	1	0
631.297	1	1
632.484	1	-4
633.671	1	4
634.858	1	9
636.045	1	8
637.232	1	1
638.419	1	13
639.606	1	20
640.793	1	8
641.980	1	0
643.167	1	7
644.354	1	-3
645.541	1	-7
646.728	1	7
647.914	1	-7
649.101	1	6
650.288	1	-9
651.474	1	5
652.661	1	-2
653.847	1	15
655.034	1	2
656.220	1	7
657.406	1	12
658.593	1	-10
659.779	1	-3
660.965	1	-1
662.152	1	-1
663.338	1	7
664.524	1	-13
665.710	1	-2
666.896	1	3
668.082	1	-5
669.268	1	12
670.454	1	6
671.640	1	-12
672.826	1	-12
674.011	1	1
675.197	1	-1
676.383	1	4
677.569	1	6
678.754	1	-3
679.940	1	-2
681.125	1	4
682.311	1	-1
683.496	1	2
684.682	1	9
685.867	1	-1
687.053	1	8
688.238	1	1
688.746	1	-2