File: Analysis/GaN_68K_200ms/GaN_sample E_spot4_UVVIS_68 K_200um_200 ms 2x2mm1_123.txt
340.368	1	4
341.565	1	1
342.763	1	0
343.960	1	2
345.157	1	7
346.354	1	0
347.552	1	13
348.749	1	14
349.946	1	17
351.143	1	0
352.340	1	6
353.537	1	12
354.734	1	10
355.931	1	15
357.127	1	28
358.324	1	24
359.521	1	31
360.718	1	51
361.914	1	86
363.111	1	152
364.308	1	212
365.504	1	320
366.701	1	393
367.897	1	376
369.093	1	315
370.290	1	243
371.486	1	193
372.682	1	160
373.879	1	147
375.075	1	122
376.271	1	104
377.467	1	85
378.663	1	76
379.859	1	93
381.055	1	108
382.251	1	174
383.447	1	268
384.643	1	397
385.839	1	535
387.035	1	596
388.230	1	596
389.426	1	568
390.622	1	541
391.817	1	493
393.013	1	475
394.208	1	455
395.404	1	488
396.599	1	542
397.795	1	553
398.990	1	540
400.186	1	487
401.381	1	444
402.576	1	402
403.771	1	362
404.967	1	334
406.162	1	333
407.357	1	319
408.552	1	315
409.747	1	297
410.942	1	286
412.137	1	266
413.332	1	241
414.526	1	207
415.721	1	208
416.916	1	192
418.111	1	190
419.305	1	187
420.500	1	169
421.695	1	152
422.889	1	154
424.084	1	131
425.278	1	113
426.472	1	103
427.667	1	115
428.861	1	104
430.055	1	104
431.250	1	84
432.444	1	89
433.638	1	86
434.832	1	75
436.026	1	70
437.220	1	70
438.414	1	314
439.608	1	67
440.802	1	60
441.996	1	67
443.190	1	48
444.384	1	46
445.578	1	54
446.771	1	36
447.965	1	34
449.159	1	30
450.352	1	46
451.546	1	46
452.739	1	38
453.933	1	37
455.126	1	47
456.320	1	35
457.513	1	44
458.706	1	35
459.899	1	37
461.093	1	43
462.286	1	39
463.479	1	31
464.672	1	29
465.865	1	24
467.058	1	38
468.251	1	20
469.444	1	27
470.637	1	35
471.830	1	34
473.023	1	26
474.215	1	23
475.408	1	35
476.601	1	26
477.793	1	30
478.986	1	21
480.179	1	30
481.371	1	41
482.564	1	12
483.756	1	29
484.948	1	28
486.141	1	30
487.333	1	42
488.525	1	38
489.718	1	39
490.910	1	53
492.102	1	33
493.294	1	49
494.486	1	61
495.678	1	55
496.870	1	55
498.062	1	61
499.254	1	71
500.446	1	89
501.638	1	90
502.829	1	96
504.021	1	105
505.213	1	95
506.404	1	96
507.596	1	106
508.788	1	110
509.979	1	112
511.171	1	130
512.362	1	119
513.553	1	120
514.745	1	132
515.936	1	136
517.127	1	135
518.319	1	151
519.510	1	159
520.701	1	191
521.892	1	162
523.083	1	166
524.274	1	178
525.465	1	170
526.656	1	195
527.847	1	183
529.038	1	187
530.229	1	187
531.419	1	204
532.610	1	182
533.801	1	198
534.991	1	199
536.182	1	194
537.373	1	183
538.563	1	175
539.754	1	182
540.944	1	174
542.134	1	184
543.325	1	167
544.515	1	154
545.705	1	164
546.896	1	160
548.086	1	169
549.276	1	163
550.466	1	172
551.656	1	142
552.846	1	168
554.036	1	150
555.226	1	136
556.416	1	136
557.606	1	129
558.796	1	131
559.986	1	119
561.175	1	128
562.365	1	120
563.555	1	127
564.744	1	109
565.934	1	105
567.123	1	117
568.313	1	92
569.502	1	107
570.692	1	88
571.881	1	93
573.070	1	92
574.260	1	85
575.449	1	89
576.638	1	88
577.827	1	73
579.016	1	87
580.205	1	75
581.394	1	62
582.583	1	63
583.772	1	68
584.961	1	68
586.150	1	73
587.339	1	73
588.528	1	62
589.717	1	56
590.905	1	54
592.094	1	56
593.283	1	59
594.471	1	40
595.660	1	41
596.848	1	54
598.037	1	41
599.225	1	46
600.413	1	42
601.602	1	49
602.790	1	41
603.978	1	38
605.166	1	40
606.355	1	48
607.543	1	33
608.731	1	38
609.919	1	29
611.107	1	50
612.295	1	47
613.483	1	44
614.671	1	36
615.858	1	37
617.046	1	32
618.234	1	22
619.422	1	39
620.609	1	21
621.797	1	30
622.985	1	31
624.172	1	30
625.360	1	20
626.547	1	32
627.735	1	26
628.922	1	23
630.109	1	10
631.297	1	10
632.484	1	17
633.671	1	23
634.858	1	24
636.045	1	20
637.232	1	25
638.419	1	27
639.606	1	23
640.793	1	17
641.980	1	22
643.167	1	29
644.354	1	24
645.541	1	23
646.728	1	17
647.914	1	19
649.101	1	29
650.288	1	7
651.474	1	16
652.661	1	12
653.847	1	26
655.034	1	22
656.220	1	24
657.406	1	11
658.593	1	10
659.779	1	13
660.965	1	17
662.152	1	18
663.338	1	13
664.524	1	6
665.710	1	6
666.896	1	15
668.082	1	8
669.268	1	13
670.454	1	11
671.640	1	-1
672.826	1	2
674.011	1	16
675.197	1	14
676.383	1	13
677.569	1	1
678.754	1	13
679.940	1	9
681.125	1	15
682.311	1	19
683.496	1	6
684.682	1	18
685.867	1	12
687.053	1	23
688.238	1	18
688.746	1	16