File: Analysis/GaN_68K_200ms/GaN_sample E_spot4_UVVIS_68 K_200um_200 ms 2x2mm1_78.txt
340.368	1	2
341.565	1	2
342.763	1	1
343.960	1	-5
345.157	1	2
346.354	1	-2
347.552	1	8
348.749	1	4
349.946	1	13
351.143	1	-10
352.340	1	3
353.537	1	-5
354.734	1	-3
355.931	1	2
357.127	1	7
358.324	1	-7
359.521	1	3
360.718	1	-4
361.914	1	1
363.111	1	11
364.308	1	0
365.504	1	-2
366.701	1	-3
367.897	1	-7
369.093	1	-3
370.290	1	1
371.486	1	11
372.682	1	-7
373.879	1	4
375.075	1	8
376.271	1	-5
377.467	1	-6
378.663	1	-13
379.859	1	1
381.055	1	3
382.251	1	9
383.447	1	11
384.643	1	7
385.839	1	7
387.035	1	1
388.230	1	-10
389.426	1	-1
390.622	1	-3
391.817	1	-1
393.013	1	3
394.208	1	9
395.404	1	10
396.599	1	0
397.795	1	10
398.990	1	-3
400.186	1	0
401.381	1	-1
402.576	1	13
403.771	1	-2
404.967	1	6
406.162	1	-8
407.357	1	-1
408.552	1	2
409.747	1	-2
410.942	1	1
412.137	1	6
413.332	1	6
414.526	1	3
415.721	1	4
416.916	1	0
418.111	1	0
419.305	1	6
420.500	1	5
421.695	1	6
422.889	1	1
424.084	1	5
425.278	1	-11
426.472	1	-4
427.667	1	5
428.861	1	-4
430.055	1	6
431.250	1	-13
432.444	1	6
433.638	1	8
434.832	1	-6
436.026	1	7
437.220	1	9
438.414	1	-1
439.608	1	0
440.802	1	12
441.996	1	-6
443.190	1	-6
444.384	1	-3
445.578	1	4
446.771	1	-4
447.965	1	-4
449.159	1	-7
450.352	1	2
451.546	1	9
452.739	1	8
453.933	1	15
455.126	1	-4
456.320	1	6
457.513	1	17
458.706	1	-2
459.899	1	7
461.093	1	1
462.286	1	13
463.479	1	7
464.672	1	4
465.865	1	-2
467.058	1	13
468.251	1	-1
469.444	1	3
470.637	1	14
471.830	1	18
473.023	1	-8
474.215	1	4
475.408	1	0
476.601	1	10
477.793	1	12
478.986	1	3
480.179	1	7
481.371	1	12
482.564	1	2
483.756	1	16
484.948	1	-5
486.141	1	-16
487.333	1	6
488.525	1	1
489.718	1	-3
490.910	1	-3
492.102	1	-1
493.294	1	4
494.486	1	8
495.678	1	6
496.870	1	11
498.062	1	-1
499.254	1	-3
500.446	1	3
501.638	1	3
502.829	1	4
504.021	1	25
505.213	1	6
506.404	1	-7
507.596	1	6
508.788	1	-3
509.979	1	-2
511.171	1	11
512.362	1	3
513.553	1	-18
514.745	1	4
515.936	1	2
517.127	1	9
518.319	1	-2
519.510	1	2
520.701	1	3
521.892	1	-3
523.083	1	2
524.274	1	-5
525.465	1	3
526.656	1	17
527.847	1	-13
529.038	1	7
530.229	1	1
531.419	1	2
532.610	1	2
533.801	1	-1
534.991	1	4
536.182	1	-1
537.373	1	-2
538.563	1	-6
539.754	1	2
540.944	1	5
542.134	1	2
543.325	1	-7
544.515	1	7
545.705	1	5
546.896	1	-7
548.086	1	9
549.276	1	2
550.466	1	1
551.656	1	-12
552.846	1	8
554.036	1	1
555.226	1	-3
556.416	1	6
557.606	1	-6
558.796	1	0
559.986	1	-5
561.175	1	4
562.365	1	0
563.555	1	8
564.744	1	5
565.934	1	1
567.123	1	21
568.313	1	0
569.502	1	4
570.692	1	2
571.881	1	6
573.070	1	11
574.260	1	-1
575.449	1	5
576.638	1	3
577.827	1	12
579.016	1	19
580.205	1	3
581.394	1	-4
582.583	1	-6
583.772	1	0
584.961	1	8
586.150	1	0
587.339	1	10
588.528	1	2
589.717	1	0
590.905	1	11
592.094	1	6
593.283	1	9
594.471	1	-3
595.660	1	-1
596.848	1	13
598.037	1	-2
599.225	1	5
600.413	1	-5
601.602	1	8
602.790	1	6
603.978	1	4
605.166	1	0
606.355	1	5
607.543	1	-7
608.731	1	4
609.919	1	-7
611.107	1	13
612.295	1	-3
613.483	1	5
614.671	1	2
615.858	1	7
617.046	1	-1
618.234	1	6
619.422	1	5
620.609	1	7
621.797	1	2
622.985	1	-2
624.172	1	6
625.360	1	-5
626.547	1	2
627.735	1	8
628.922	1	0
630.109	1	2
631.297	1	-11
632.484	1	-11
633.671	1	9
634.858	1	13
636.045	1	12
637.232	1	-9
638.419	1	4
639.606	1	8
640.793	1	12
641.980	1	-1
643.167	1	6
644.354	1	0
645.541	1	-15
646.728	1	4
647.914	1	2
649.101	1	-2
650.288	1	1
651.474	1	3
652.661	1	5
653.847	1	5
655.034	1	6
656.220	1	6
657.406	1	-1
658.593	1	-4
659.779	1	-2
660.965	1	-4
662.152	1	3
663.338	1	-5
664.524	1	-8
665.710	1	-12
666.896	1	-11
668.082	1	0
669.268	1	-2
670.454	1	1
671.640	1	-10
672.826	1	-9
674.011	1	8
675.197	1	-5
676.383	1	8
677.569	1	0
678.754	1	2
679.940	1	1
681.125	1	-2
682.311	1	-4
683.496	1	-4
684.682	1	9
685.867	1	2
687.053	1	9
688.238	1	1
688.746	1	5