File: Analysis/GaN_68K_200ms/GaN_sample E_spot4_UVVIS_68 K_200um_200 ms 2x2mm1_725.txt
340.368	1	4
341.565	1	-21
342.763	1	-6
343.960	1	-6
345.157	1	6
346.354	1	-3
347.552	1	7
348.749	1	10
349.946	1	7
351.143	1	-8
352.340	1	-4
353.537	1	1
354.734	1	2
355.931	1	5
357.127	1	2
358.324	1	-3
359.521	1	3
360.718	1	2
361.914	1	-2
363.111	1	11
364.308	1	-3
365.504	1	-2
366.701	1	-4
367.897	1	-4
369.093	1	-5
370.290	1	4
371.486	1	9
372.682	1	-14
373.879	1	10
375.075	1	6
376.271	1	-2
377.467	1	-6
378.663	1	1
379.859	1	1
381.055	1	0
382.251	1	3
383.447	1	0
384.643	1	1
385.839	1	3
387.035	1	3
388.230	1	7
389.426	1	11
390.622	1	-3
391.817	1	3
393.013	1	9
394.208	1	10
395.404	1	3
396.599	1	-1
397.795	1	2
398.990	1	6
400.186	1	9
401.381	1	6
402.576	1	17
403.771	1	-3
404.967	1	8
406.162	1	-13
407.357	1	7
408.552	1	5
409.747	1	-9
410.942	1	2
412.137	1	6
413.332	1	-1
414.526	1	-5
415.721	1	-1
416.916	1	-12
418.111	1	4
419.305	1	4
420.500	1	-2
421.695	1	1
422.889	1	7
424.084	1	4
425.278	1	-8
426.472	1	-6
427.667	1	12
428.861	1	3
430.055	1	-5
431.250	1	-10
432.444	1	7
433.638	1	3
434.832	1	-2
436.026	1	-2
437.220	1	4
438.414	1	-1
439.608	1	7
440.802	1	3
441.996	1	3
443.190	1	-5
444.384	1	0
445.578	1	1
446.771	1	1
447.965	1	4
449.159	1	-7
450.352	1	6
451.546	1	8
452.739	1	-4
453.933	1	2
455.126	1	-3
456.320	1	-1
457.513	1	2
458.706	1	0
459.899	1	8
461.093	1	-7
462.286	1	9
463.479	1	9
464.672	1	-1
465.865	1	-4
467.058	1	4
468.251	1	-8
469.444	1	3
470.637	1	8
471.830	1	11
473.023	1	-4
474.215	1	-2
475.408	1	4
476.601	1	1
477.793	1	9
478.986	1	-3
480.179	1	1
481.371	1	6
482.564	1	-2
483.756	1	11
484.948	1	-3
486.141	1	-6
487.333	1	4
488.525	1	-6
489.718	1	6
490.910	1	-8
492.102	1	-4
493.294	1	4
494.486	1	0
495.678	1	6
496.870	1	2
498.062	1	-2
499.254	1	-2
500.446	1	11
501.638	1	-1
502.829	1	3
504.021	1	16
505.213	1	-2
506.404	1	-1
507.596	1	10
508.788	1	3
509.979	1	0
511.171	1	9
512.362	1	6
513.553	1	-2
514.745	1	1
515.936	1	7
517.127	1	0
518.319	1	0
519.510	1	-2
520.701	1	9
521.892	1	-15
523.083	1	-2
524.274	1	-14
525.465	1	-8
526.656	1	20
527.847	1	-5
529.038	1	6
530.229	1	1
531.419	1	13
532.610	1	2
533.801	1	4
534.991	1	-6
536.182	1	-1
537.373	1	-14
538.563	1	-1
539.754	1	-9
540.944	1	1
542.134	1	4
543.325	1	-2
544.515	1	7
545.705	1	12
546.896	1	2
548.086	1	-6
549.276	1	9
550.466	1	6
551.656	1	-10
552.846	1	0
554.036	1	-2
555.226	1	-3
556.416	1	2
557.606	1	-7
558.796	1	-1
559.986	1	-5
561.175	1	-6
562.365	1	-2
563.555	1	6
564.744	1	6
565.934	1	4
567.123	1	8
568.313	1	-11
569.502	1	-1
570.692	1	-6
571.881	1	7
573.070	1	9
574.260	1	0
575.449	1	-2
576.638	1	1
577.827	1	5
579.016	1	9
580.205	1	-5
581.394	1	-6
582.583	1	-7
583.772	1	-2
584.961	1	7
586.150	1	8
587.339	1	0
588.528	1	5
589.717	1	3
590.905	1	7
592.094	1	1
593.283	1	5
594.471	1	6
595.660	1	0
596.848	1	15
598.037	1	9
599.225	1	10
600.413	1	4
601.602	1	1
602.790	1	-3
603.978	1	-6
605.166	1	-5
606.355	1	18
607.543	1	-5
608.731	1	-10
609.919	1	-4
611.107	1	8
612.295	1	1
613.483	1	10
614.671	1	-1
615.858	1	-3
617.046	1	0
618.234	1	-5
619.422	1	4
620.609	1	-7
621.797	1	3
622.985	1	8
624.172	1	0
625.360	1	-7
626.547	1	1
627.735	1	6
628.922	1	0
630.109	1	-2
631.297	1	-1
632.484	1	0
633.671	1	6
634.858	1	1
636.045	1	-2
637.232	1	-2
638.419	1	4
639.606	1	5
640.793	1	-2
641.980	1	1
643.167	1	14
644.354	1	-6
645.541	1	-7
646.728	1	8
647.914	1	-8
649.101	1	1
650.288	1	-4
651.474	1	4
652.661	1	2
653.847	1	8
655.034	1	-3
656.220	1	3
657.406	1	-3
658.593	1	-6
659.779	1	-10
660.965	1	-5
662.152	1	1
663.338	1	-1
664.524	1	-9
665.710	1	-8
666.896	1	-9
668.082	1	0
669.268	1	-1
670.454	1	-5
671.640	1	-6
672.826	1	-7
674.011	1	7
675.197	1	-2
676.383	1	-2
677.569	1	-14
678.754	1	-1
679.940	1	-6
681.125	1	3
682.311	1	1
683.496	1	-3
684.682	1	-1
685.867	1	-4
687.053	1	-3
688.238	1	3
688.746	1	14