File: Analysis/GaN_68K_200ms/GaN_sample E_spot4_UVVIS_68 K_200um_200 ms 2x2mm1_417.txt
340.368	1	4
341.565	1	-3
342.763	1	3
343.960	1	0
345.157	1	7
346.354	1	1
347.552	1	-4
348.749	1	1
349.946	1	3
351.143	1	-2
352.340	1	1
353.537	1	2
354.734	1	-9
355.931	1	-1
357.127	1	3
358.324	1	-3
359.521	1	-1
360.718	1	3
361.914	1	0
363.111	1	17
364.308	1	-5
365.504	1	-3
366.701	1	1
367.897	1	3
369.093	1	4
370.290	1	-2
371.486	1	6
372.682	1	6
373.879	1	9
375.075	1	14
376.271	1	-5
377.467	1	-2
378.663	1	2
379.859	1	-3
381.055	1	2
382.251	1	7
383.447	1	16
384.643	1	8
385.839	1	8
387.035	1	0
388.230	1	2
389.426	1	12
390.622	1	0
391.817	1	1
393.013	1	19
394.208	1	16
395.404	1	9
396.599	1	17
397.795	1	10
398.990	1	7
400.186	1	9
401.381	1	12
402.576	1	4
403.771	1	0
404.967	1	7
406.162	1	2
407.357	1	9
408.552	1	7
409.747	1	-7
410.942	1	9
412.137	1	14
413.332	1	4
414.526	1	1
415.721	1	8
416.916	1	0
418.111	1	2
419.305	1	0
420.500	1	5
421.695	1	2
422.889	1	9
424.084	1	-3
425.278	1	-5
426.472	1	1
427.667	1	4
428.861	1	1
430.055	1	2
431.250	1	3
432.444	1	9
433.638	1	-8
434.832	1	-4
436.026	1	3
437.220	1	11
438.414	1	5
439.608	1	-4
440.802	1	10
441.996	1	-3
443.190	1	-8
444.384	1	0
445.578	1	10
446.771	1	10
447.965	1	-4
449.159	1	5
450.352	1	4
451.546	1	-1
452.739	1	3
453.933	1	12
455.126	1	2
456.320	1	-3
457.513	1	13
458.706	1	3
459.899	1	8
461.093	1	13
462.286	1	12
463.479	1	11
464.672	1	-5
465.865	1	-2
467.058	1	10
468.251	1	2
469.444	1	-7
470.637	1	6
471.830	1	10
473.023	1	-6
474.215	1	-8
475.408	1	7
476.601	1	1
477.793	1	9
478.986	1	2
480.179	1	7
481.371	1	7
482.564	1	-12
483.756	1	4
484.948	1	2
486.141	1	-10
487.333	1	0
488.525	1	-2
489.718	1	-11
490.910	1	-4
492.102	1	3
493.294	1	2
494.486	1	10
495.678	1	10
496.870	1	4
498.062	1	-3
499.254	1	-3
500.446	1	5
501.638	1	7
502.829	1	3
504.021	1	18
505.213	1	-2
506.404	1	2
507.596	1	18
508.788	1	-1
509.979	1	5
511.171	1	16
512.362	1	8
513.553	1	-8
514.745	1	5
515.936	1	15
517.127	1	10
518.319	1	-1
519.510	1	5
520.701	1	13
521.892	1	-6
523.083	1	2
524.274	1	-5
525.465	1	2
526.656	1	8
527.847	1	-6
529.038	1	8
530.229	1	10
531.419	1	17
532.610	1	11
533.801	1	1
534.991	1	1
536.182	1	6
537.373	1	-2
538.563	1	1
539.754	1	-4
540.944	1	-1
542.134	1	13
543.325	1	-1
544.515	1	4
545.705	1	5
546.896	1	8
548.086	1	5
549.276	1	8
550.466	1	5
551.656	1	-4
552.846	1	7
554.036	1	11
555.226	1	-1
556.416	1	0
557.606	1	-6
558.796	1	1
559.986	1	-1
561.175	1	2
562.365	1	5
563.555	1	6
564.744	1	11
565.934	1	13
567.123	1	12
568.313	1	-7
569.502	1	19
570.692	1	5
571.881	1	4
573.070	1	4
574.260	1	-1
575.449	1	-1
576.638	1	4
577.827	1	8
579.016	1	7
580.205	1	8
581.394	1	-3
582.583	1	-2
583.772	1	1
584.961	1	8
586.150	1	0
587.339	1	-4
588.528	1	8
589.717	1	12
590.905	1	9
592.094	1	3
593.283	1	12
594.471	1	8
595.660	1	1
596.848	1	5
598.037	1	3
599.225	1	10
600.413	1	3
601.602	1	10
602.790	1	-1
603.978	1	-6
605.166	1	-1
606.355	1	4
607.543	1	0
608.731	1	-4
609.919	1	-9
611.107	1	12
612.295	1	8
613.483	1	3
614.671	1	4
615.858	1	14
617.046	1	6
618.234	1	0
619.422	1	1
620.609	1	7
621.797	1	-1
622.985	1	1
624.172	1	13
625.360	1	-6
626.547	1	6
627.735	1	4
628.922	1	0
630.109	1	4
631.297	1	4
632.484	1	-1
633.671	1	3
634.858	1	9
636.045	1	1
637.232	1	6
638.419	1	9
639.606	1	3
640.793	1	2
641.980	1	-3
643.167	1	0
644.354	1	-2
645.541	1	-7
646.728	1	3
647.914	1	-6
649.101	1	4
650.288	1	5
651.474	1	4
652.661	1	1
653.847	1	-2
655.034	1	-4
656.220	1	0
657.406	1	-6
658.593	1	-8
659.779	1	2
660.965	1	5
662.152	1	-1
663.338	1	-8
664.524	1	-11
665.710	1	-8
666.896	1	0
668.082	1	-10
669.268	1	-5
670.454	1	-1
671.640	1	-9
672.826	1	-13
674.011	1	11
675.197	1	-5
676.383	1	1
677.569	1	-12
678.754	1	7
679.940	1	-2
681.125	1	7
682.311	1	1
683.496	1	0
684.682	1	-1
685.867	1	4
687.053	1	11
688.238	1	-3
688.746	1	0