File: Analysis/GaN_68K_200ms/GaN_sample E_spot4_UVVIS_68 K_200um_200 ms 2x2mm1_759.txt
340.368	1	9
341.565	1	-4
342.763	1	-2
343.960	1	-3
345.157	1	3
346.354	1	0
347.552	1	-8
348.749	1	4
349.946	1	9
351.143	1	-7
352.340	1	-1
353.537	1	-3
354.734	1	-2
355.931	1	-3
357.127	1	12
358.324	1	-5
359.521	1	-7
360.718	1	1
361.914	1	2
363.111	1	4
364.308	1	-10
365.504	1	1
366.701	1	-7
367.897	1	1
369.093	1	2
370.290	1	2
371.486	1	5
372.682	1	1
373.879	1	16
375.075	1	15
376.271	1	-6
377.467	1	-2
378.663	1	-10
379.859	1	-4
381.055	1	0
382.251	1	-2
383.447	1	7
384.643	1	6
385.839	1	4
387.035	1	3
388.230	1	6
389.426	1	9
390.622	1	-3
391.817	1	9
393.013	1	-1
394.208	1	12
395.404	1	8
396.599	1	7
397.795	1	8
398.990	1	8
400.186	1	13
401.381	1	-1
402.576	1	5
403.771	1	7
404.967	1	2
406.162	1	-1
407.357	1	-1
408.552	1	11
409.747	1	-5
410.942	1	-1
412.137	1	8
413.332	1	-5
414.526	1	12
415.721	1	0
416.916	1	8
418.111	1	-3
419.305	1	2
420.500	1	0
421.695	1	1
422.889	1	-9
424.084	1	1
425.278	1	1
426.472	1	-2
427.667	1	16
428.861	1	2
430.055	1	2
431.250	1	-13
432.444	1	8
433.638	1	8
434.832	1	1
436.026	1	9
437.220	1	5
438.414	1	-4
439.608	1	6
440.802	1	0
441.996	1	4
443.190	1	-5
444.384	1	7
445.578	1	7
446.771	1	10
447.965	1	-10
449.159	1	-4
450.352	1	6
451.546	1	-3
452.739	1	-3
453.933	1	7
455.126	1	2
456.320	1	-1
457.513	1	-2
458.706	1	1
459.899	1	10
461.093	1	6
462.286	1	10
463.479	1	7
464.672	1	0
465.865	1	-8
467.058	1	15
468.251	1	0
469.444	1	-9
470.637	1	10
471.830	1	12
473.023	1	-10
474.215	1	1
475.408	1	-2
476.601	1	1
477.793	1	0
478.986	1	2
480.179	1	-5
481.371	1	-2
482.564	1	-4
483.756	1	-2
484.948	1	-2
486.141	1	-1
487.333	1	3
488.525	1	-7
489.718	1	-14
490.910	1	-5
492.102	1	4
493.294	1	11
494.486	1	6
495.678	1	-2
496.870	1	3
498.062	1	-1
499.254	1	-2
500.446	1	11
501.638	1	7
502.829	1	-2
504.021	1	14
505.213	1	-4
506.404	1	-11
507.596	1	1
508.788	1	-4
509.979	1	-3
511.171	1	13
512.362	1	3
513.553	1	-8
514.745	1	-2
515.936	1	8
517.127	1	-3
518.319	1	6
519.510	1	-10
520.701	1	5
521.892	1	-22
523.083	1	-7
524.274	1	1
525.465	1	-6
526.656	1	11
527.847	1	-8
529.038	1	7
530.229	1	2
531.419	1	-2
532.610	1	6
533.801	1	-1
534.991	1	-2
536.182	1	7
537.373	1	-9
538.563	1	9
539.754	1	-5
540.944	1	-2
542.134	1	10
543.325	1	-9
544.515	1	-3
545.705	1	1
546.896	1	2
548.086	1	-2
549.276	1	2
550.466	1	-5
551.656	1	-7
552.846	1	1
554.036	1	-2
555.226	1	-10
556.416	1	2
557.606	1	-12
558.796	1	1
559.986	1	-8
561.175	1	-2
562.365	1	5
563.555	1	0
564.744	1	7
565.934	1	9
567.123	1	16
568.313	1	-1
569.502	1	0
570.692	1	-1
571.881	1	11
573.070	1	5
574.260	1	-7
575.449	1	-2
576.638	1	6
577.827	1	-1
579.016	1	8
580.205	1	0
581.394	1	1
582.583	1	-12
583.772	1	0
584.961	1	7
586.150	1	-1
587.339	1	6
588.528	1	2
589.717	1	-6
590.905	1	7
592.094	1	3
593.283	1	7
594.471	1	-2
595.660	1	0
596.848	1	9
598.037	1	-2
599.225	1	-4
600.413	1	0
601.602	1	3
602.790	1	6
603.978	1	0
605.166	1	-6
606.355	1	5
607.543	1	-7
608.731	1	-3
609.919	1	-4
611.107	1	8
612.295	1	1
613.483	1	3
614.671	1	2
615.858	1	8
617.046	1	-1
618.234	1	-11
619.422	1	5
620.609	1	0
621.797	1	-6
622.985	1	2
624.172	1	15
625.360	1	-6
626.547	1	-2
627.735	1	8
628.922	1	-1
630.109	1	-3
631.297	1	-8
632.484	1	-9
633.671	1	5
634.858	1	6
636.045	1	3
637.232	1	-1
638.419	1	8
639.606	1	12
640.793	1	4
641.980	1	-4
643.167	1	11
644.354	1	-6
645.541	1	-5
646.728	1	6
647.914	1	0
649.101	1	0
650.288	1	-3
651.474	1	4
652.661	1	-2
653.847	1	4
655.034	1	2
656.220	1	8
657.406	1	-7
658.593	1	-16
659.779	1	4
660.965	1	-1
662.152	1	-1
663.338	1	-11
664.524	1	-3
665.710	1	-9
666.896	1	1
668.082	1	-7
669.268	1	7
670.454	1	-1
671.640	1	-13
672.826	1	-15
674.011	1	-5
675.197	1	-8
676.383	1	-8
677.569	1	-4
678.754	1	-8
679.940	1	4
681.125	1	5
682.311	1	4
683.496	1	-4
684.682	1	10
685.867	1	10
687.053	1	-7
688.238	1	-1
688.746	1	-3