File: Analysis/GaN_68K_200ms/GaN_sample E_spot4_UVVIS_68 K_200um_200 ms 2x2mm1_465.txt
340.368	1	-2
341.565	1	-3
342.763	1	0
343.960	1	-6
345.157	1	8
346.354	1	-2
347.552	1	3
348.749	1	10
349.946	1	5
351.143	1	-8
352.340	1	-2
353.537	1	0
354.734	1	-2
355.931	1	-2
357.127	1	-9
358.324	1	-2
359.521	1	2
360.718	1	-6
361.914	1	4
363.111	1	6
364.308	1	5
365.504	1	-7
366.701	1	1
367.897	1	8
369.093	1	-4
370.290	1	0
371.486	1	14
372.682	1	-4
373.879	1	9
375.075	1	11
376.271	1	-8
377.467	1	-6
378.663	1	1
379.859	1	1
381.055	1	2
382.251	1	6
383.447	1	7
384.643	1	7
385.839	1	3
387.035	1	5
388.230	1	1
389.426	1	7
390.622	1	-2
391.817	1	-2
393.013	1	10
394.208	1	7
395.404	1	12
396.599	1	10
397.795	1	7
398.990	1	9
400.186	1	9
401.381	1	14
402.576	1	13
403.771	1	15
404.967	1	6
406.162	1	-5
407.357	1	1
408.552	1	0
409.747	1	-3
410.942	1	7
412.137	1	11
413.332	1	2
414.526	1	3
415.721	1	-3
416.916	1	1
418.111	1	-1
419.305	1	-4
420.500	1	10
421.695	1	-1
422.889	1	8
424.084	1	1
425.278	1	-6
426.472	1	-5
427.667	1	7
428.861	1	5
430.055	1	1
431.250	1	-15
432.444	1	5
433.638	1	1
434.832	1	-3
436.026	1	4
437.220	1	6
438.414	1	0
439.608	1	6
440.802	1	4
441.996	1	3
443.190	1	-8
444.384	1	4
445.578	1	1
446.771	1	6
447.965	1	-13
449.159	1	-3
450.352	1	9
451.546	1	2
452.739	1	5
453.933	1	10
455.126	1	2
456.320	1	-1
457.513	1	9
458.706	1	5
459.899	1	5
461.093	1	8
462.286	1	10
463.479	1	10
464.672	1	4
465.865	1	-4
467.058	1	6
468.251	1	0
469.444	1	-6
470.637	1	18
471.830	1	10
473.023	1	3
474.215	1	-2
475.408	1	1
476.601	1	-1
477.793	1	2
478.986	1	7
480.179	1	4
481.371	1	-4
482.564	1	-8
483.756	1	2
484.948	1	-4
486.141	1	-9
487.333	1	2
488.525	1	5
489.718	1	-4
490.910	1	-5
492.102	1	-4
493.294	1	9
494.486	1	2
495.678	1	0
496.870	1	-3
498.062	1	-3
499.254	1	6
500.446	1	17
501.638	1	11
502.829	1	4
504.021	1	24
505.213	1	1
506.404	1	-11
507.596	1	11
508.788	1	10
509.979	1	0
511.171	1	12
512.362	1	-2
513.553	1	-3
514.745	1	-5
515.936	1	0
517.127	1	-2
518.319	1	-12
519.510	1	7
520.701	1	3
521.892	1	-14
523.083	1	-4
524.274	1	-7
525.465	1	4
526.656	1	17
527.847	1	2
529.038	1	11
530.229	1	-1
531.419	1	11
532.610	1	4
533.801	1	1
534.991	1	6
536.182	1	8
537.373	1	0
538.563	1	-6
539.754	1	-4
540.944	1	-5
542.134	1	9
543.325	1	-6
544.515	1	-2
545.705	1	4
546.896	1	2
548.086	1	13
549.276	1	2
550.466	1	-1
551.656	1	-12
552.846	1	4
554.036	1	12
555.226	1	-11
556.416	1	2
557.606	1	-9
558.796	1	6
559.986	1	-6
561.175	1	5
562.365	1	1
563.555	1	18
564.744	1	0
565.934	1	14
567.123	1	15
568.313	1	-2
569.502	1	1
570.692	1	4
571.881	1	4
573.070	1	0
574.260	1	1
575.449	1	5
576.638	1	-1
577.827	1	8
579.016	1	8
580.205	1	3
581.394	1	-13
582.583	1	-2
583.772	1	3
584.961	1	-1
586.150	1	-4
587.339	1	-1
588.528	1	6
589.717	1	8
590.905	1	15
592.094	1	9
593.283	1	-4
594.471	1	4
595.660	1	-9
596.848	1	9
598.037	1	8
599.225	1	5
600.413	1	2
601.602	1	13
602.790	1	-5
603.978	1	-4
605.166	1	0
606.355	1	7
607.543	1	0
608.731	1	-4
609.919	1	-3
611.107	1	12
612.295	1	7
613.483	1	2
614.671	1	4
615.858	1	1
617.046	1	3
618.234	1	0
619.422	1	-8
620.609	1	-7
621.797	1	9
622.985	1	2
624.172	1	3
625.360	1	-3
626.547	1	1
627.735	1	-4
628.922	1	-3
630.109	1	-2
631.297	1	-1
632.484	1	-8
633.671	1	-4
634.858	1	15
636.045	1	-6
637.232	1	0
638.419	1	14
639.606	1	16
640.793	1	4
641.980	1	-4
643.167	1	12
644.354	1	-7
645.541	1	-6
646.728	1	7
647.914	1	4
649.101	1	9
650.288	1	-1
651.474	1	9
652.661	1	7
653.847	1	-2
655.034	1	10
656.220	1	6
657.406	1	3
658.593	1	-5
659.779	1	0
660.965	1	6
662.152	1	3
663.338	1	-2
664.524	1	0
665.710	1	-7
666.896	1	1
668.082	1	-6
669.268	1	-1
670.454	1	-11
671.640	1	-12
672.826	1	-10
674.011	1	7
675.197	1	-11
676.383	1	-3
677.569	1	-8
678.754	1	-6
679.940	1	0
681.125	1	0
682.311	1	-1
683.496	1	-14
684.682	1	-1
685.867	1	-4
687.053	1	6
688.238	1	-8
688.746	1	8