File: Analysis/GaN_68K_200ms/GaN_sample E_spot4_UVVIS_68 K_200um_200 ms 2x2mm1_257.txt
340.368	1	4
341.565	1	-5
342.763	1	3
343.960	1	2
345.157	1	14
346.354	1	-7
347.552	1	2
348.749	1	3
349.946	1	10
351.143	1	-2
352.340	1	5
353.537	1	1
354.734	1	2
355.931	1	-4
357.127	1	1
358.324	1	1
359.521	1	6
360.718	1	8
361.914	1	2
363.111	1	18
364.308	1	5
365.504	1	15
366.701	1	4
367.897	1	16
369.093	1	9
370.290	1	3
371.486	1	14
372.682	1	14
373.879	1	17
375.075	1	10
376.271	1	8
377.467	1	2
378.663	1	3
379.859	1	5
381.055	1	9
382.251	1	10
383.447	1	15
384.643	1	26
385.839	1	18
387.035	1	6
388.230	1	10
389.426	1	11
390.622	1	13
391.817	1	12
393.013	1	13
394.208	1	18
395.404	1	10
396.599	1	16
397.795	1	20
398.990	1	17
400.186	1	30
401.381	1	22
402.576	1	21
403.771	1	13
404.967	1	9
406.162	1	15
407.357	1	8
408.552	1	11
409.747	1	5
410.942	1	13
412.137	1	14
413.332	1	1
414.526	1	6
415.721	1	13
416.916	1	5
418.111	1	8
419.305	1	2
420.500	1	15
421.695	1	12
422.889	1	13
424.084	1	8
425.278	1	1
426.472	1	9
427.667	1	12
428.861	1	10
430.055	1	5
431.250	1	-1
432.444	1	6
433.638	1	3
434.832	1	1
436.026	1	16
437.220	1	12
438.414	1	8
439.608	1	12
440.802	1	11
441.996	1	-1
443.190	1	-6
444.384	1	3
445.578	1	9
446.771	1	9
447.965	1	-1
449.159	1	-5
450.352	1	8
451.546	1	12
452.739	1	4
453.933	1	8
455.126	1	1
456.320	1	-1
457.513	1	10
458.706	1	6
459.899	1	15
461.093	1	11
462.286	1	3
463.479	1	12
464.672	1	4
465.865	1	-3
467.058	1	16
468.251	1	0
469.444	1	-2
470.637	1	9
471.830	1	22
473.023	1	1
474.215	1	-1
475.408	1	7
476.601	1	1
477.793	1	5
478.986	1	0
480.179	1	7
481.371	1	-1
482.564	1	0
483.756	1	10
484.948	1	7
486.141	1	-6
487.333	1	6
488.525	1	-2
489.718	1	-4
490.910	1	-3
492.102	1	0
493.294	1	8
494.486	1	6
495.678	1	16
496.870	1	-8
498.062	1	9
499.254	1	6
500.446	1	11
501.638	1	9
502.829	1	16
504.021	1	15
505.213	1	9
506.404	1	0
507.596	1	13
508.788	1	3
509.979	1	10
511.171	1	17
512.362	1	1
513.553	1	-4
514.745	1	2
515.936	1	8
517.127	1	11
518.319	1	1
519.510	1	12
520.701	1	19
521.892	1	-4
523.083	1	9
524.274	1	-2
525.465	1	11
526.656	1	16
527.847	1	5
529.038	1	15
530.229	1	15
531.419	1	15
532.610	1	15
533.801	1	16
534.991	1	7
536.182	1	12
537.373	1	4
538.563	1	10
539.754	1	2
540.944	1	10
542.134	1	16
543.325	1	9
544.515	1	8
545.705	1	12
546.896	1	15
548.086	1	5
549.276	1	12
550.466	1	4
551.656	1	2
552.846	1	8
554.036	1	13
555.226	1	-12
556.416	1	14
557.606	1	-1
558.796	1	4
559.986	1	-4
561.175	1	11
562.365	1	11
563.555	1	8
564.744	1	8
565.934	1	5
567.123	1	13
568.313	1	-2
569.502	1	10
570.692	1	9
571.881	1	14
573.070	1	9
574.260	1	-1
575.449	1	2
576.638	1	4
577.827	1	9
579.016	1	14
580.205	1	6
581.394	1	-9
582.583	1	-6
583.772	1	3
584.961	1	10
586.150	1	10
587.339	1	0
588.528	1	8
589.717	1	3
590.905	1	3
592.094	1	-1
593.283	1	11
594.471	1	8
595.660	1	0
596.848	1	6
598.037	1	7
599.225	1	3
600.413	1	4
601.602	1	9
602.790	1	-1
603.978	1	2
605.166	1	0
606.355	1	5
607.543	1	-6
608.731	1	-3
609.919	1	-7
611.107	1	16
612.295	1	8
613.483	1	6
614.671	1	9
615.858	1	1
617.046	1	9
618.234	1	7
619.422	1	0
620.609	1	10
621.797	1	2
622.985	1	7
624.172	1	12
625.360	1	-5
626.547	1	6
627.735	1	5
628.922	1	-5
630.109	1	0
631.297	1	4
632.484	1	5
633.671	1	5
634.858	1	9
636.045	1	6
637.232	1	1
638.419	1	16
639.606	1	12
640.793	1	5
641.980	1	-1
643.167	1	6
644.354	1	4
645.541	1	-3
646.728	1	9
647.914	1	5
649.101	1	0
650.288	1	-5
651.474	1	10
652.661	1	3
653.847	1	6
655.034	1	3
656.220	1	12
657.406	1	9
658.593	1	-3
659.779	1	-3
660.965	1	4
662.152	1	0
663.338	1	-6
664.524	1	-10
665.710	1	1
666.896	1	2
668.082	1	0
669.268	1	1
670.454	1	7
671.640	1	-18
672.826	1	-2
674.011	1	6
675.197	1	5
676.383	1	7
677.569	1	0
678.754	1	2
679.940	1	-3
681.125	1	8
682.311	1	2
683.496	1	-1
684.682	1	5
685.867	1	3
687.053	1	3
688.238	1	1
688.746	1	-1