File: Analysis/GaN_68K_200ms/GaN_sample E_spot4_UVVIS_68 K_200um_200 ms 2x2mm1_315.txt
340.368	1	6
341.565	1	-2
342.763	1	6
343.960	1	0
345.157	1	12
346.354	1	3
347.552	1	2
348.749	1	8
349.946	1	16
351.143	1	-5
352.340	1	2
353.537	1	-5
354.734	1	-2
355.931	1	4
357.127	1	6
358.324	1	5
359.521	1	2
360.718	1	1
361.914	1	1
363.111	1	9
364.308	1	-1
365.504	1	0
366.701	1	8
367.897	1	14
369.093	1	12
370.290	1	0
371.486	1	22
372.682	1	0
373.879	1	8
375.075	1	9
376.271	1	-3
377.467	1	-1
378.663	1	-3
379.859	1	-3
381.055	1	3
382.251	1	10
383.447	1	12
384.643	1	16
385.839	1	12
387.035	1	15
388.230	1	-1
389.426	1	12
390.622	1	4
391.817	1	3
393.013	1	14
394.208	1	2
395.404	1	7
396.599	1	15
397.795	1	10
398.990	1	3
400.186	1	12
401.381	1	11
402.576	1	26
403.771	1	16
404.967	1	8
406.162	1	3
407.357	1	8
408.552	1	8
409.747	1	1
410.942	1	12
412.137	1	22
413.332	1	6
414.526	1	8
415.721	1	3
416.916	1	1
418.111	1	11
419.305	1	9
420.500	1	14
421.695	1	8
422.889	1	14
424.084	1	4
425.278	1	-3
426.472	1	-1
427.667	1	10
428.861	1	0
430.055	1	1
431.250	1	-11
432.444	1	4
433.638	1	-2
434.832	1	0
436.026	1	2
437.220	1	2
438.414	1	6
439.608	1	7
440.802	1	12
441.996	1	-6
443.190	1	-3
444.384	1	4
445.578	1	4
446.771	1	-8
447.965	1	-3
449.159	1	-9
450.352	1	4
451.546	1	8
452.739	1	0
453.933	1	1
455.126	1	3
456.320	1	3
457.513	1	9
458.706	1	0
459.899	1	11
461.093	1	2
462.286	1	16
463.479	1	14
464.672	1	2
465.865	1	6
467.058	1	13
468.251	1	0
469.444	1	-3
470.637	1	12
471.830	1	22
473.023	1	-2
474.215	1	-7
475.408	1	6
476.601	1	2
477.793	1	10
478.986	1	5
480.179	1	2
481.371	1	3
482.564	1	-12
483.756	1	13
484.948	1	-6
486.141	1	0
487.333	1	3
488.525	1	0
489.718	1	-6
490.910	1	-2
492.102	1	-2
493.294	1	7
494.486	1	8
495.678	1	8
496.870	1	4
498.062	1	-5
499.254	1	2
500.446	1	13
501.638	1	2
502.829	1	6
504.021	1	16
505.213	1	-3
506.404	1	1
507.596	1	5
508.788	1	-2
509.979	1	7
511.171	1	15
512.362	1	-6
513.553	1	-2
514.745	1	-1
515.936	1	12
517.127	1	13
518.319	1	0
519.510	1	5
520.701	1	15
521.892	1	-10
523.083	1	6
524.274	1	-3
525.465	1	8
526.656	1	17
527.847	1	5
529.038	1	10
530.229	1	4
531.419	1	6
532.610	1	12
533.801	1	4
534.991	1	4
536.182	1	3
537.373	1	3
538.563	1	9
539.754	1	-2
540.944	1	-2
542.134	1	14
543.325	1	9
544.515	1	3
545.705	1	8
546.896	1	6
548.086	1	8
549.276	1	14
550.466	1	-1
551.656	1	-8
552.846	1	8
554.036	1	7
555.226	1	-3
556.416	1	5
557.606	1	-3
558.796	1	2
559.986	1	4
561.175	1	10
562.365	1	0
563.555	1	18
564.744	1	7
565.934	1	9
567.123	1	6
568.313	1	0
569.502	1	4
570.692	1	10
571.881	1	6
573.070	1	4
574.260	1	3
575.449	1	6
576.638	1	11
577.827	1	5
579.016	1	14
580.205	1	1
581.394	1	-2
582.583	1	-5
583.772	1	0
584.961	1	2
586.150	1	-1
587.339	1	7
588.528	1	2
589.717	1	-2
590.905	1	6
592.094	1	8
593.283	1	-1
594.471	1	1
595.660	1	8
596.848	1	11
598.037	1	-5
599.225	1	5
600.413	1	1
601.602	1	3
602.790	1	5
603.978	1	2
605.166	1	1
606.355	1	1
607.543	1	-2
608.731	1	-1
609.919	1	-3
611.107	1	2
612.295	1	7
613.483	1	-1
614.671	1	2
615.858	1	10
617.046	1	5
618.234	1	7
619.422	1	-3
620.609	1	7
621.797	1	3
622.985	1	3
624.172	1	12
625.360	1	-4
626.547	1	11
627.735	1	5
628.922	1	-6
630.109	1	9
631.297	1	3
632.484	1	0
633.671	1	5
634.858	1	8
636.045	1	0
637.232	1	-5
638.419	1	3
639.606	1	13
640.793	1	8
641.980	1	-5
643.167	1	5
644.354	1	0
645.541	1	-8
646.728	1	-1
647.914	1	0
649.101	1	8
650.288	1	-3
651.474	1	11
652.661	1	7
653.847	1	12
655.034	1	0
656.220	1	8
657.406	1	11
658.593	1	-6
659.779	1	-6
660.965	1	1
662.152	1	1
663.338	1	2
664.524	1	-7
665.710	1	-5
666.896	1	-4
668.082	1	7
669.268	1	-1
670.454	1	5
671.640	1	-16
672.826	1	-19
674.011	1	0
675.197	1	-2
676.383	1	2
677.569	1	1
678.754	1	2
679.940	1	7
681.125	1	6
682.311	1	3
683.496	1	-2
684.682	1	4
685.867	1	1
687.053	1	2
688.238	1	8
688.746	1	-1