File: Analysis/GaN_68K_200ms/GaN_sample E_spot4_UVVIS_68 K_200um_200 ms 2x2mm1_36.txt
340.368	1	-3
341.565	1	-3
342.763	1	-9
343.960	1	2
345.157	1	0
346.354	1	-5
347.552	1	4
348.749	1	-2
349.946	1	2
351.143	1	-9
352.340	1	-4
353.537	1	4
354.734	1	4
355.931	1	6
357.127	1	-2
358.324	1	-1
359.521	1	5
360.718	1	2
361.914	1	0
363.111	1	20
364.308	1	-1
365.504	1	-1
366.701	1	-3
367.897	1	7
369.093	1	0
370.290	1	-3
371.486	1	13
372.682	1	5
373.879	1	11
375.075	1	5
376.271	1	2
377.467	1	-6
378.663	1	-2
379.859	1	0
381.055	1	4
382.251	1	7
383.447	1	14
384.643	1	12
385.839	1	3
387.035	1	0
388.230	1	1
389.426	1	0
390.622	1	-10
391.817	1	-9
393.013	1	5
394.208	1	5
395.404	1	13
396.599	1	2
397.795	1	6
398.990	1	1
400.186	1	4
401.381	1	7
402.576	1	13
403.771	1	1
404.967	1	-1
406.162	1	-4
407.357	1	6
408.552	1	-1
409.747	1	-2
410.942	1	-1
412.137	1	0
413.332	1	-5
414.526	1	0
415.721	1	1
416.916	1	-4
418.111	1	-2
419.305	1	3
420.500	1	5
421.695	1	3
422.889	1	-2
424.084	1	5
425.278	1	-5
426.472	1	-2
427.667	1	2
428.861	1	-2
430.055	1	0
431.250	1	-8
432.444	1	2
433.638	1	2
434.832	1	-13
436.026	1	5
437.220	1	-3
438.414	1	-4
439.608	1	4
440.802	1	12
441.996	1	1
443.190	1	-2
444.384	1	-3
445.578	1	9
446.771	1	1
447.965	1	0
449.159	1	-11
450.352	1	-1
451.546	1	4
452.739	1	11
453.933	1	11
455.126	1	-1
456.320	1	2
457.513	1	15
458.706	1	2
459.899	1	6
461.093	1	8
462.286	1	6
463.479	1	13
464.672	1	4
465.865	1	-6
467.058	1	10
468.251	1	-3
469.444	1	2
470.637	1	10
471.830	1	11
473.023	1	1
474.215	1	-1
475.408	1	7
476.601	1	-2
477.793	1	7
478.986	1	-1
480.179	1	7
481.371	1	1
482.564	1	-10
483.756	1	9
484.948	1	-9
486.141	1	-8
487.333	1	3
488.525	1	0
489.718	1	5
490.910	1	0
492.102	1	-2
493.294	1	11
494.486	1	2
495.678	1	11
496.870	1	-2
498.062	1	-1
499.254	1	1
500.446	1	5
501.638	1	8
502.829	1	-4
504.021	1	11
505.213	1	-5
506.404	1	-2
507.596	1	7
508.788	1	-5
509.979	1	-4
511.171	1	8
512.362	1	8
513.553	1	-9
514.745	1	3
515.936	1	6
517.127	1	-5
518.319	1	0
519.510	1	-2
520.701	1	-7
521.892	1	-10
523.083	1	3
524.274	1	-5
525.465	1	0
526.656	1	13
527.847	1	-7
529.038	1	-8
530.229	1	2
531.419	1	-1
532.610	1	-2
533.801	1	-5
534.991	1	6
536.182	1	-3
537.373	1	-8
538.563	1	3
539.754	1	-7
540.944	1	-1
542.134	1	8
543.325	1	-4
544.515	1	-4
545.705	1	13
546.896	1	1
548.086	1	-3
549.276	1	1
550.466	1	0
551.656	1	-10
552.846	1	1
554.036	1	9
555.226	1	-9
556.416	1	0
557.606	1	-10
558.796	1	-3
559.986	1	-1
561.175	1	6
562.365	1	0
563.555	1	11
564.744	1	2
565.934	1	7
567.123	1	12
568.313	1	-5
569.502	1	4
570.692	1	0
571.881	1	0
573.070	1	3
574.260	1	-6
575.449	1	3
576.638	1	-2
577.827	1	6
579.016	1	20
580.205	1	5
581.394	1	-7
582.583	1	-10
583.772	1	7
584.961	1	2
586.150	1	6
587.339	1	2
588.528	1	3
589.717	1	11
590.905	1	8
592.094	1	9
593.283	1	1
594.471	1	2
595.660	1	-1
596.848	1	7
598.037	1	-1
599.225	1	3
600.413	1	11
601.602	1	2
602.790	1	4
603.978	1	3
605.166	1	1
606.355	1	11
607.543	1	-8
608.731	1	-5
609.919	1	-3
611.107	1	13
612.295	1	-4
613.483	1	-2
614.671	1	3
615.858	1	9
617.046	1	10
618.234	1	0
619.422	1	-5
620.609	1	2
621.797	1	-1
622.985	1	9
624.172	1	9
625.360	1	-4
626.547	1	0
627.735	1	5
628.922	1	-2
630.109	1	-3
631.297	1	0
632.484	1	-3
633.671	1	0
634.858	1	8
636.045	1	2
637.232	1	1
638.419	1	10
639.606	1	13
640.793	1	22
641.980	1	-5
643.167	1	11
644.354	1	6
645.541	1	-4
646.728	1	3
647.914	1	-8
649.101	1	9
650.288	1	-11
651.474	1	7
652.661	1	7
653.847	1	1
655.034	1	-1
656.220	1	9
657.406	1	4
658.593	1	-4
659.779	1	4
660.965	1	1
662.152	1	2
663.338	1	-2
664.524	1	2
665.710	1	-3
666.896	1	-4
668.082	1	-6
669.268	1	0
670.454	1	6
671.640	1	-10
672.826	1	-16
674.011	1	-5
675.197	1	0
676.383	1	-1
677.569	1	0
678.754	1	-5
679.940	1	-5
681.125	1	4
682.311	1	-5
683.496	1	-9
684.682	1	6
685.867	1	9
687.053	1	7
688.238	1	-1
688.746	1	7