File: Analysis/GaN_68K_200ms/GaN_sample E_spot4_UVVIS_68 K_200um_200 ms 2x2mm1_291.txt
340.368	1	5
341.565	1	6
342.763	1	-2
343.960	1	-4
345.157	1	4
346.354	1	1
347.552	1	2
348.749	1	2
349.946	1	7
351.143	1	-4
352.340	1	4
353.537	1	2
354.734	1	9
355.931	1	7
357.127	1	12
358.324	1	1
359.521	1	4
360.718	1	2
361.914	1	4
363.111	1	8
364.308	1	3
365.504	1	2
366.701	1	6
367.897	1	4
369.093	1	5
370.290	1	12
371.486	1	15
372.682	1	4
373.879	1	19
375.075	1	10
376.271	1	6
377.467	1	1
378.663	1	0
379.859	1	6
381.055	1	10
382.251	1	9
383.447	1	18
384.643	1	16
385.839	1	16
387.035	1	8
388.230	1	14
389.426	1	15
390.622	1	13
391.817	1	8
393.013	1	19
394.208	1	5
395.404	1	6
396.599	1	16
397.795	1	20
398.990	1	18
400.186	1	13
401.381	1	10
402.576	1	12
403.771	1	15
404.967	1	9
406.162	1	10
407.357	1	19
408.552	1	11
409.747	1	9
410.942	1	3
412.137	1	16
413.332	1	6
414.526	1	-2
415.721	1	5
416.916	1	11
418.111	1	15
419.305	1	7
420.500	1	13
421.695	1	9
422.889	1	21
424.084	1	7
425.278	1	-3
426.472	1	1
427.667	1	11
428.861	1	9
430.055	1	12
431.250	1	-4
432.444	1	5
433.638	1	6
434.832	1	-3
436.026	1	8
437.220	1	11
438.414	1	6
439.608	1	6
440.802	1	15
441.996	1	3
443.190	1	-10
444.384	1	2
445.578	1	4
446.771	1	-9
447.965	1	-1
449.159	1	-9
450.352	1	10
451.546	1	9
452.739	1	11
453.933	1	-2
455.126	1	4
456.320	1	0
457.513	1	13
458.706	1	-1
459.899	1	17
461.093	1	1
462.286	1	12
463.479	1	5
464.672	1	0
465.865	1	-1
467.058	1	12
468.251	1	-6
469.444	1	-3
470.637	1	11
471.830	1	19
473.023	1	-1
474.215	1	-8
475.408	1	11
476.601	1	-4
477.793	1	11
478.986	1	2
480.179	1	6
481.371	1	3
482.564	1	-6
483.756	1	8
484.948	1	-1
486.141	1	-2
487.333	1	8
488.525	1	3
489.718	1	0
490.910	1	-3
492.102	1	0
493.294	1	3
494.486	1	-1
495.678	1	15
496.870	1	3
498.062	1	3
499.254	1	5
500.446	1	6
501.638	1	12
502.829	1	9
504.021	1	24
505.213	1	1
506.404	1	3
507.596	1	13
508.788	1	-2
509.979	1	0
511.171	1	16
512.362	1	1
513.553	1	5
514.745	1	4
515.936	1	8
517.127	1	14
518.319	1	1
519.510	1	12
520.701	1	16
521.892	1	-4
523.083	1	7
524.274	1	2
525.465	1	1
526.656	1	21
527.847	1	5
529.038	1	19
530.229	1	12
531.419	1	19
532.610	1	5
533.801	1	0
534.991	1	0
536.182	1	3
537.373	1	-6
538.563	1	7
539.754	1	11
540.944	1	6
542.134	1	22
543.325	1	1
544.515	1	6
545.705	1	9
546.896	1	6
548.086	1	7
549.276	1	3
550.466	1	5
551.656	1	-11
552.846	1	19
554.036	1	6
555.226	1	-9
556.416	1	14
557.606	1	-11
558.796	1	3
559.986	1	6
561.175	1	8
562.365	1	16
563.555	1	9
564.744	1	6
565.934	1	11
567.123	1	17
568.313	1	6
569.502	1	9
570.692	1	5
571.881	1	6
573.070	1	11
574.260	1	-4
575.449	1	1
576.638	1	4
577.827	1	11
579.016	1	21
580.205	1	1
581.394	1	-1
582.583	1	0
583.772	1	3
584.961	1	14
586.150	1	1
587.339	1	10
588.528	1	5
589.717	1	7
590.905	1	6
592.094	1	2
593.283	1	11
594.471	1	2
595.660	1	0
596.848	1	10
598.037	1	3
599.225	1	-3
600.413	1	4
601.602	1	1
602.790	1	10
603.978	1	3
605.166	1	2
606.355	1	4
607.543	1	-2
608.731	1	-5
609.919	1	0
611.107	1	1
612.295	1	9
613.483	1	5
614.671	1	8
615.858	1	11
617.046	1	1
618.234	1	-7
619.422	1	-1
620.609	1	11
621.797	1	-5
622.985	1	2
624.172	1	6
625.360	1	-7
626.547	1	2
627.735	1	3
628.922	1	3
630.109	1	2
631.297	1	-7
632.484	1	-4
633.671	1	10
634.858	1	7
636.045	1	3
637.232	1	1
638.419	1	3
639.606	1	9
640.793	1	4
641.980	1	1
643.167	1	7
644.354	1	2
645.541	1	1
646.728	1	6
647.914	1	-7
649.101	1	5
650.288	1	-4
651.474	1	2
652.661	1	5
653.847	1	0
655.034	1	0
656.220	1	-1
657.406	1	10
658.593	1	-9
659.779	1	1
660.965	1	4
662.152	1	1
663.338	1	-8
664.524	1	-5
665.710	1	1
666.896	1	-7
668.082	1	9
669.268	1	6
670.454	1	2
671.640	1	-17
672.826	1	-17
674.011	1	11
675.197	1	-4
676.383	1	3
677.569	1	-5
678.754	1	3
679.940	1	-3
681.125	1	10
682.311	1	-11
683.496	1	0
684.682	1	10
685.867	1	7
687.053	1	12
688.238	1	-7
688.746	1	1