File: Analysis/GaN_68K_200ms/GaN_sample E_spot4_UVVIS_68 K_200um_200 ms 2x2mm1_704.txt
340.368	1	3
341.565	1	-16
342.763	1	-7
343.960	1	4
345.157	1	1
346.354	1	-7
347.552	1	1
348.749	1	6
349.946	1	4
351.143	1	-5
352.340	1	-7
353.537	1	-6
354.734	1	-4
355.931	1	9
357.127	1	0
358.324	1	-5
359.521	1	-6
360.718	1	1
361.914	1	1
363.111	1	6
364.308	1	0
365.504	1	-7
366.701	1	0
367.897	1	-1
369.093	1	-6
370.290	1	-5
371.486	1	6
372.682	1	-1
373.879	1	7
375.075	1	5
376.271	1	2
377.467	1	0
378.663	1	-10
379.859	1	-1
381.055	1	0
382.251	1	0
383.447	1	3
384.643	1	2
385.839	1	-4
387.035	1	-5
388.230	1	4
389.426	1	8
390.622	1	-5
391.817	1	-2
393.013	1	4
394.208	1	0
395.404	1	8
396.599	1	4
397.795	1	9
398.990	1	0
400.186	1	7
401.381	1	6
402.576	1	17
403.771	1	-2
404.967	1	10
406.162	1	4
407.357	1	-7
408.552	1	5
409.747	1	-4
410.942	1	-3
412.137	1	7
413.332	1	-4
414.526	1	3
415.721	1	3
416.916	1	-3
418.111	1	0
419.305	1	7
420.500	1	2
421.695	1	-4
422.889	1	7
424.084	1	0
425.278	1	-2
426.472	1	1
427.667	1	2
428.861	1	-1
430.055	1	5
431.250	1	-7
432.444	1	12
433.638	1	-8
434.832	1	0
436.026	1	4
437.220	1	-2
438.414	1	9
439.608	1	-5
440.802	1	1
441.996	1	-6
443.190	1	-5
444.384	1	0
445.578	1	8
446.771	1	-3
447.965	1	-11
449.159	1	-4
450.352	1	7
451.546	1	5
452.739	1	1
453.933	1	15
455.126	1	-5
456.320	1	-4
457.513	1	2
458.706	1	0
459.899	1	4
461.093	1	4
462.286	1	5
463.479	1	12
464.672	1	6
465.865	1	1
467.058	1	6
468.251	1	-3
469.444	1	3
470.637	1	17
471.830	1	10
473.023	1	-10
474.215	1	0
475.408	1	-2
476.601	1	0
477.793	1	8
478.986	1	-3
480.179	1	0
481.371	1	1
482.564	1	-4
483.756	1	7
484.948	1	3
486.141	1	-8
487.333	1	0
488.525	1	-5
489.718	1	1
490.910	1	-6
492.102	1	0
493.294	1	11
494.486	1	4
495.678	1	8
496.870	1	-6
498.062	1	-4
499.254	1	2
500.446	1	2
501.638	1	8
502.829	1	-1
504.021	1	16
505.213	1	0
506.404	1	-4
507.596	1	-4
508.788	1	7
509.979	1	2
511.171	1	11
512.362	1	1
513.553	1	-9
514.745	1	-3
515.936	1	3
517.127	1	8
518.319	1	0
519.510	1	0
520.701	1	3
521.892	1	-2
523.083	1	-3
524.274	1	-11
525.465	1	3
526.656	1	16
527.847	1	-7
529.038	1	11
530.229	1	1
531.419	1	4
532.610	1	0
533.801	1	3
534.991	1	-1
536.182	1	-4
537.373	1	-6
538.563	1	6
539.754	1	-10
540.944	1	-8
542.134	1	3
543.325	1	3
544.515	1	3
545.705	1	6
546.896	1	-6
548.086	1	2
549.276	1	4
550.466	1	-6
551.656	1	-6
552.846	1	-2
554.036	1	0
555.226	1	0
556.416	1	1
557.606	1	-6
558.796	1	-4
559.986	1	-11
561.175	1	0
562.365	1	1
563.555	1	8
564.744	1	1
565.934	1	0
567.123	1	17
568.313	1	-6
569.502	1	6
570.692	1	1
571.881	1	3
573.070	1	4
574.260	1	-2
575.449	1	-1
576.638	1	-3
577.827	1	9
579.016	1	6
580.205	1	0
581.394	1	-8
582.583	1	-11
583.772	1	6
584.961	1	-4
586.150	1	-1
587.339	1	-1
588.528	1	4
589.717	1	-6
590.905	1	3
592.094	1	12
593.283	1	6
594.471	1	0
595.660	1	2
596.848	1	1
598.037	1	2
599.225	1	1
600.413	1	3
601.602	1	4
602.790	1	4
603.978	1	-5
605.166	1	-12
606.355	1	16
607.543	1	-9
608.731	1	-10
609.919	1	-6
611.107	1	11
612.295	1	1
613.483	1	9
614.671	1	2
615.858	1	-1
617.046	1	-1
618.234	1	6
619.422	1	-1
620.609	1	-1
621.797	1	-7
622.985	1	-2
624.172	1	10
625.360	1	-13
626.547	1	1
627.735	1	2
628.922	1	-7
630.109	1	-9
631.297	1	-7
632.484	1	-7
633.671	1	4
634.858	1	9
636.045	1	-4
637.232	1	-5
638.419	1	3
639.606	1	3
640.793	1	5
641.980	1	1
643.167	1	-2
644.354	1	-1
645.541	1	-3
646.728	1	-1
647.914	1	-3
649.101	1	-3
650.288	1	-1
651.474	1	6
652.661	1	3
653.847	1	1
655.034	1	1
656.220	1	3
657.406	1	4
658.593	1	-13
659.779	1	-2
660.965	1	9
662.152	1	4
663.338	1	-7
664.524	1	-9
665.710	1	-1
666.896	1	-5
668.082	1	0
669.268	1	-2
670.454	1	0
671.640	1	-13
672.826	1	-15
674.011	1	9
675.197	1	-6
676.383	1	-2
677.569	1	-1
678.754	1	-9
679.940	1	-1
681.125	1	1
682.311	1	-3
683.496	1	-4
684.682	1	1
685.867	1	-5
687.053	1	5
688.238	1	5
688.746	1	4