File: Analysis/GaN_68K_200ms/GaN_sample E_spot4_UVVIS_68 K_200um_200 ms 2x2mm1_816.txt
340.368	1	3
341.565	1	-6
342.763	1	-2
343.960	1	-3
345.157	1	2
346.354	1	4
347.552	1	-3
348.749	1	10
349.946	1	7
351.143	1	-13
352.340	1	4
353.537	1	-5
354.734	1	-14
355.931	1	-7
357.127	1	2
358.324	1	-7
359.521	1	-4
360.718	1	-10
361.914	1	-6
363.111	1	10
364.308	1	-3
365.504	1	-5
366.701	1	-9
367.897	1	-5
369.093	1	-6
370.290	1	3
371.486	1	8
372.682	1	-3
373.879	1	5
375.075	1	7
376.271	1	-5
377.467	1	-3
378.663	1	-4
379.859	1	-2
381.055	1	-1
382.251	1	3
383.447	1	8
384.643	1	-8
385.839	1	11
387.035	1	-2
388.230	1	-2
389.426	1	11
390.622	1	-4
391.817	1	-10
393.013	1	-5
394.208	1	8
395.404	1	0
396.599	1	2
397.795	1	5
398.990	1	7
400.186	1	8
401.381	1	3
402.576	1	6
403.771	1	5
404.967	1	0
406.162	1	-6
407.357	1	1
408.552	1	4
409.747	1	-3
410.942	1	-5
412.137	1	11
413.332	1	2
414.526	1	-2
415.721	1	2
416.916	1	-1
418.111	1	2
419.305	1	-5
420.500	1	-4
421.695	1	-2
422.889	1	6
424.084	1	10
425.278	1	-9
426.472	1	-7
427.667	1	5
428.861	1	-5
430.055	1	0
431.250	1	-18
432.444	1	2
433.638	1	4
434.832	1	-3
436.026	1	1
437.220	1	8
438.414	1	0
439.608	1	1
440.802	1	2
441.996	1	2
443.190	1	-18
444.384	1	-4
445.578	1	2
446.771	1	-13
447.965	1	-3
449.159	1	3
450.352	1	9
451.546	1	-4
452.739	1	1
453.933	1	-2
455.126	1	7
456.320	1	-10
457.513	1	3
458.706	1	5
459.899	1	-1
461.093	1	11
462.286	1	3
463.479	1	8
464.672	1	0
465.865	1	-2
467.058	1	16
468.251	1	1
469.444	1	0
470.637	1	6
471.830	1	8
473.023	1	-7
474.215	1	2
475.408	1	5
476.601	1	3
477.793	1	11
478.986	1	-3
480.179	1	-1
481.371	1	6
482.564	1	-14
483.756	1	6
484.948	1	1
486.141	1	-14
487.333	1	6
488.525	1	-8
489.718	1	-7
490.910	1	-13
492.102	1	-11
493.294	1	7
494.486	1	1
495.678	1	6
496.870	1	6
498.062	1	-7
499.254	1	-5
500.446	1	5
501.638	1	-4
502.829	1	-4
504.021	1	20
505.213	1	-3
506.404	1	-5
507.596	1	6
508.788	1	-3
509.979	1	-2
511.171	1	4
512.362	1	-3
513.553	1	-2
514.745	1	4
515.936	1	1
517.127	1	1
518.319	1	-6
519.510	1	-3
520.701	1	2
521.892	1	-10
523.083	1	-2
524.274	1	-7
525.465	1	2
526.656	1	13
527.847	1	-5
529.038	1	-2
530.229	1	3
531.419	1	13
532.610	1	6
533.801	1	-3
534.991	1	-4
536.182	1	1
537.373	1	-9
538.563	1	3
539.754	1	-4
540.944	1	4
542.134	1	0
543.325	1	-4
544.515	1	2
545.705	1	8
546.896	1	-1
548.086	1	5
549.276	1	8
550.466	1	-11
551.656	1	-8
552.846	1	-2
554.036	1	7
555.226	1	-1
556.416	1	-1
557.606	1	-5
558.796	1	-5
559.986	1	-6
561.175	1	3
562.365	1	-2
563.555	1	8
564.744	1	8
565.934	1	0
567.123	1	13
568.313	1	-2
569.502	1	-2
570.692	1	10
571.881	1	0
573.070	1	4
574.260	1	-8
575.449	1	1
576.638	1	-4
577.827	1	2
579.016	1	16
580.205	1	-3
581.394	1	-8
582.583	1	-9
583.772	1	-14
584.961	1	6
586.150	1	0
587.339	1	3
588.528	1	1
589.717	1	1
590.905	1	10
592.094	1	-5
593.283	1	9
594.471	1	3
595.660	1	-10
596.848	1	1
598.037	1	-1
599.225	1	-4
600.413	1	0
601.602	1	2
602.790	1	-1
603.978	1	-1
605.166	1	-6
606.355	1	10
607.543	1	-6
608.731	1	-8
609.919	1	-3
611.107	1	5
612.295	1	10
613.483	1	0
614.671	1	2
615.858	1	2
617.046	1	4
618.234	1	1
619.422	1	2
620.609	1	-5
621.797	1	3
622.985	1	4
624.172	1	4
625.360	1	-1
626.547	1	6
627.735	1	9
628.922	1	-3
630.109	1	5
631.297	1	-8
632.484	1	-7
633.671	1	-2
634.858	1	16
636.045	1	-3
637.232	1	0
638.419	1	4
639.606	1	9
640.793	1	5
641.980	1	0
643.167	1	5
644.354	1	3
645.541	1	-2
646.728	1	-4
647.914	1	-10
649.101	1	-4
650.288	1	-5
651.474	1	7
652.661	1	2
653.847	1	1
655.034	1	3
656.220	1	-6
657.406	1	4
658.593	1	-9
659.779	1	-1
660.965	1	-4
662.152	1	9
663.338	1	-2
664.524	1	-3
665.710	1	-2
666.896	1	-6
668.082	1	-4
669.268	1	-6
670.454	1	-8
671.640	1	-16
672.826	1	-18
674.011	1	9
675.197	1	-5
676.383	1	1
677.569	1	-1
678.754	1	-3
679.940	1	-1
681.125	1	9
682.311	1	3
683.496	1	-4
684.682	1	11
685.867	1	-11
687.053	1	1
688.238	1	3
688.746	1	8