File: Analysis/GaN_68K_200ms/GaN_sample E_spot4_UVVIS_68 K_200um_200 ms 2x2mm1_357.txt
340.368	1	0
341.565	1	-2
342.763	1	-1
343.960	1	1
345.157	1	7
346.354	1	2
347.552	1	1
348.749	1	6
349.946	1	14
351.143	1	-9
352.340	1	-4
353.537	1	0
354.734	1	4
355.931	1	4
357.127	1	5
358.324	1	1
359.521	1	-2
360.718	1	-1
361.914	1	1
363.111	1	12
364.308	1	9
365.504	1	6
366.701	1	-5
367.897	1	9
369.093	1	1
370.290	1	-1
371.486	1	10
372.682	1	-10
373.879	1	10
375.075	1	2
376.271	1	-3
377.467	1	2
378.663	1	6
379.859	1	-2
381.055	1	5
382.251	1	7
383.447	1	14
384.643	1	8
385.839	1	8
387.035	1	2
388.230	1	12
389.426	1	13
390.622	1	15
391.817	1	0
393.013	1	15
394.208	1	11
395.404	1	6
396.599	1	22
397.795	1	13
398.990	1	12
400.186	1	17
401.381	1	13
402.576	1	15
403.771	1	17
404.967	1	4
406.162	1	-2
407.357	1	8
408.552	1	9
409.747	1	5
410.942	1	7
412.137	1	4
413.332	1	2
414.526	1	1
415.721	1	8
416.916	1	-3
418.111	1	9
419.305	1	12
420.500	1	0
421.695	1	8
422.889	1	7
424.084	1	6
425.278	1	5
426.472	1	5
427.667	1	9
428.861	1	5
430.055	1	10
431.250	1	-6
432.444	1	9
433.638	1	5
434.832	1	2
436.026	1	2
437.220	1	0
438.414	1	3
439.608	1	8
440.802	1	5
441.996	1	1
443.190	1	-14
444.384	1	10
445.578	1	12
446.771	1	2
447.965	1	-5
449.159	1	4
450.352	1	7
451.546	1	5
452.739	1	0
453.933	1	3
455.126	1	-8
456.320	1	-9
457.513	1	3
458.706	1	0
459.899	1	9
461.093	1	14
462.286	1	7
463.479	1	13
464.672	1	-4
465.865	1	5
467.058	1	14
468.251	1	-2
469.444	1	2
470.637	1	8
471.830	1	15
473.023	1	-2
474.215	1	-8
475.408	1	7
476.601	1	-7
477.793	1	15
478.986	1	1
480.179	1	7
481.371	1	17
482.564	1	2
483.756	1	10
484.948	1	-7
486.141	1	-8
487.333	1	-2
488.525	1	2
489.718	1	4
490.910	1	-6
492.102	1	-8
493.294	1	7
494.486	1	7
495.678	1	7
496.870	1	-2
498.062	1	-11
499.254	1	2
500.446	1	15
501.638	1	6
502.829	1	8
504.021	1	24
505.213	1	6
506.404	1	-9
507.596	1	6
508.788	1	11
509.979	1	-2
511.171	1	11
512.362	1	7
513.553	1	-7
514.745	1	1
515.936	1	6
517.127	1	2
518.319	1	-5
519.510	1	11
520.701	1	12
521.892	1	0
523.083	1	3
524.274	1	-4
525.465	1	-3
526.656	1	19
527.847	1	2
529.038	1	18
530.229	1	8
531.419	1	7
532.610	1	10
533.801	1	-3
534.991	1	6
536.182	1	5
537.373	1	1
538.563	1	1
539.754	1	-4
540.944	1	2
542.134	1	9
543.325	1	0
544.515	1	6
545.705	1	1
546.896	1	3
548.086	1	9
549.276	1	8
550.466	1	0
551.656	1	-12
552.846	1	10
554.036	1	1
555.226	1	-5
556.416	1	5
557.606	1	-4
558.796	1	-5
559.986	1	0
561.175	1	6
562.365	1	10
563.555	1	12
564.744	1	2
565.934	1	12
567.123	1	18
568.313	1	3
569.502	1	-1
570.692	1	8
571.881	1	5
573.070	1	5
574.260	1	6
575.449	1	2
576.638	1	12
577.827	1	18
579.016	1	3
580.205	1	1
581.394	1	-3
582.583	1	-10
583.772	1	5
584.961	1	2
586.150	1	7
587.339	1	-2
588.528	1	12
589.717	1	0
590.905	1	0
592.094	1	-1
593.283	1	9
594.471	1	-4
595.660	1	-2
596.848	1	2
598.037	1	1
599.225	1	0
600.413	1	-2
601.602	1	2
602.790	1	-2
603.978	1	7
605.166	1	-1
606.355	1	12
607.543	1	-4
608.731	1	-7
609.919	1	-1
611.107	1	0
612.295	1	-5
613.483	1	-1
614.671	1	12
615.858	1	2
617.046	1	3
618.234	1	6
619.422	1	0
620.609	1	11
621.797	1	4
622.985	1	1
624.172	1	5
625.360	1	-3
626.547	1	-1
627.735	1	4
628.922	1	-7
630.109	1	-5
631.297	1	-4
632.484	1	0
633.671	1	4
634.858	1	15
636.045	1	-2
637.232	1	-4
638.419	1	4
639.606	1	9
640.793	1	13
641.980	1	1
643.167	1	4
644.354	1	-4
645.541	1	-8
646.728	1	8
647.914	1	-9
649.101	1	0
650.288	1	6
651.474	1	6
652.661	1	3
653.847	1	4
655.034	1	6
656.220	1	2
657.406	1	9
658.593	1	-9
659.779	1	-9
660.965	1	-2
662.152	1	2
663.338	1	-3
664.524	1	-7
665.710	1	-3
666.896	1	0
668.082	1	-1
669.268	1	3
670.454	1	3
671.640	1	-10
672.826	1	-5
674.011	1	8
675.197	1	-1
676.383	1	-6
677.569	1	3
678.754	1	2
679.940	1	0
681.125	1	5
682.311	1	-1
683.496	1	-6
684.682	1	10
685.867	1	3
687.053	1	-7
688.238	1	-5
688.746	1	9