File: Analysis/GaN_68K_200ms/GaN_sample E_spot4_UVVIS_68 K_200um_200 ms 2x2mm1_72.txt
340.368	1	2
341.565	1	6
342.763	1	2
343.960	1	2
345.157	1	1
346.354	1	2
347.552	1	-4
348.749	1	4
349.946	1	3
351.143	1	-12
352.340	1	-4
353.537	1	1
354.734	1	9
355.931	1	4
357.127	1	7
358.324	1	-9
359.521	1	1
360.718	1	2
361.914	1	-4
363.111	1	5
364.308	1	-2
365.504	1	3
366.701	1	-1
367.897	1	1
369.093	1	-3
370.290	1	2
371.486	1	11
372.682	1	1
373.879	1	10
375.075	1	7
376.271	1	-6
377.467	1	-4
378.663	1	-2
379.859	1	-7
381.055	1	1
382.251	1	12
383.447	1	4
384.643	1	4
385.839	1	4
387.035	1	-5
388.230	1	-5
389.426	1	3
390.622	1	-2
391.817	1	-4
393.013	1	9
394.208	1	3
395.404	1	9
396.599	1	1
397.795	1	8
398.990	1	5
400.186	1	10
401.381	1	2
402.576	1	3
403.771	1	5
404.967	1	3
406.162	1	-6
407.357	1	2
408.552	1	3
409.747	1	2
410.942	1	-1
412.137	1	11
413.332	1	-4
414.526	1	8
415.721	1	1
416.916	1	3
418.111	1	-2
419.305	1	-2
420.500	1	6
421.695	1	-4
422.889	1	8
424.084	1	4
425.278	1	-8
426.472	1	0
427.667	1	10
428.861	1	3
430.055	1	-2
431.250	1	-15
432.444	1	7
433.638	1	3
434.832	1	-1
436.026	1	3
437.220	1	8
438.414	1	10
439.608	1	-4
440.802	1	-2
441.996	1	4
443.190	1	-10
444.384	1	7
445.578	1	14
446.771	1	-5
447.965	1	-3
449.159	1	-1
450.352	1	4
451.546	1	-1
452.739	1	-8
453.933	1	11
455.126	1	-8
456.320	1	0
457.513	1	14
458.706	1	0
459.899	1	14
461.093	1	8
462.286	1	6
463.479	1	7
464.672	1	5
465.865	1	-15
467.058	1	4
468.251	1	6
469.444	1	-2
470.637	1	9
471.830	1	16
473.023	1	-3
474.215	1	3
475.408	1	0
476.601	1	0
477.793	1	8
478.986	1	-5
480.179	1	2
481.371	1	7
482.564	1	-4
483.756	1	6
484.948	1	-4
486.141	1	-6
487.333	1	4
488.525	1	0
489.718	1	-5
490.910	1	-2
492.102	1	-2
493.294	1	8
494.486	1	-3
495.678	1	2
496.870	1	-1
498.062	1	-3
499.254	1	3
500.446	1	2
501.638	1	7
502.829	1	-4
504.021	1	18
505.213	1	-2
506.404	1	-12
507.596	1	9
508.788	1	6
509.979	1	0
511.171	1	11
512.362	1	-1
513.553	1	-1
514.745	1	-1
515.936	1	9
517.127	1	3
518.319	1	-3
519.510	1	-3
520.701	1	8
521.892	1	-12
523.083	1	-3
524.274	1	-5
525.465	1	-6
526.656	1	13
527.847	1	-4
529.038	1	0
530.229	1	-1
531.419	1	7
532.610	1	5
533.801	1	2
534.991	1	-3
536.182	1	-8
537.373	1	-2
538.563	1	-4
539.754	1	-9
540.944	1	-11
542.134	1	14
543.325	1	6
544.515	1	0
545.705	1	7
546.896	1	1
548.086	1	7
549.276	1	3
550.466	1	-3
551.656	1	-5
552.846	1	7
554.036	1	-3
555.226	1	-4
556.416	1	2
557.606	1	-6
558.796	1	-1
559.986	1	-6
561.175	1	2
562.365	1	12
563.555	1	10
564.744	1	5
565.934	1	7
567.123	1	13
568.313	1	-6
569.502	1	13
570.692	1	6
571.881	1	2
573.070	1	9
574.260	1	-5
575.449	1	-3
576.638	1	-6
577.827	1	12
579.016	1	11
580.205	1	9
581.394	1	-4
582.583	1	-17
583.772	1	0
584.961	1	-3
586.150	1	1
587.339	1	11
588.528	1	4
589.717	1	7
590.905	1	16
592.094	1	-1
593.283	1	6
594.471	1	4
595.660	1	0
596.848	1	7
598.037	1	8
599.225	1	2
600.413	1	1
601.602	1	1
602.790	1	-5
603.978	1	7
605.166	1	-2
606.355	1	7
607.543	1	-1
608.731	1	-5
609.919	1	-3
611.107	1	6
612.295	1	-3
613.483	1	6
614.671	1	2
615.858	1	2
617.046	1	1
618.234	1	-1
619.422	1	-6
620.609	1	0
621.797	1	5
622.985	1	5
624.172	1	6
625.360	1	-10
626.547	1	4
627.735	1	-5
628.922	1	-2
630.109	1	1
631.297	1	-3
632.484	1	-2
633.671	1	6
634.858	1	2
636.045	1	8
637.232	1	3
638.419	1	3
639.606	1	9
640.793	1	10
641.980	1	-2
643.167	1	6
644.354	1	-13
645.541	1	-3
646.728	1	-5
647.914	1	-4
649.101	1	1
650.288	1	1
651.474	1	-1
652.661	1	1
653.847	1	6
655.034	1	5
656.220	1	4
657.406	1	9
658.593	1	-3
659.779	1	1
660.965	1	4
662.152	1	-2
663.338	1	5
664.524	1	-6
665.710	1	-5
666.896	1	0
668.082	1	4
669.268	1	1
670.454	1	6
671.640	1	-21
672.826	1	-10
674.011	1	9
675.197	1	2
676.383	1	-1
677.569	1	2
678.754	1	-2
679.940	1	2
681.125	1	10
682.311	1	-8
683.496	1	6
684.682	1	12
685.867	1	-1
687.053	1	6
688.238	1	-11
688.746	1	0