File: Analysis/GaN_68K_200ms/GaN_sample E_spot4_UVVIS_68 K_200um_200 ms 2x2mm1_720.txt
340.368	1	4
341.565	1	0
342.763	1	-5
343.960	1	2
345.157	1	5
346.354	1	-4
347.552	1	5
348.749	1	-2
349.946	1	0
351.143	1	-5
352.340	1	-6
353.537	1	6
354.734	1	-7
355.931	1	-1
357.127	1	6
358.324	1	-3
359.521	1	-2
360.718	1	-2
361.914	1	0
363.111	1	3
364.308	1	-10
365.504	1	-3
366.701	1	-7
367.897	1	-2
369.093	1	-5
370.290	1	-1
371.486	1	5
372.682	1	2
373.879	1	10
375.075	1	14
376.271	1	2
377.467	1	2
378.663	1	-4
379.859	1	0
381.055	1	3
382.251	1	6
383.447	1	4
384.643	1	3
385.839	1	3
387.035	1	2
388.230	1	5
389.426	1	5
390.622	1	-1
391.817	1	1
393.013	1	1
394.208	1	4
395.404	1	8
396.599	1	7
397.795	1	7
398.990	1	4
400.186	1	11
401.381	1	8
402.576	1	9
403.771	1	2
404.967	1	0
406.162	1	-8
407.357	1	7
408.552	1	2
409.747	1	0
410.942	1	7
412.137	1	10
413.332	1	-3
414.526	1	2
415.721	1	-2
416.916	1	-3
418.111	1	1
419.305	1	-3
420.500	1	10
421.695	1	-2
422.889	1	-3
424.084	1	6
425.278	1	-6
426.472	1	-4
427.667	1	12
428.861	1	-7
430.055	1	8
431.250	1	-15
432.444	1	5
433.638	1	-2
434.832	1	-1
436.026	1	-1
437.220	1	14
438.414	1	1
439.608	1	1
440.802	1	13
441.996	1	1
443.190	1	-2
444.384	1	1
445.578	1	7
446.771	1	-2
447.965	1	-1
449.159	1	-1
450.352	1	7
451.546	1	1
452.739	1	-6
453.933	1	10
455.126	1	2
456.320	1	-9
457.513	1	5
458.706	1	-2
459.899	1	-1
461.093	1	-1
462.286	1	7
463.479	1	13
464.672	1	2
465.865	1	3
467.058	1	3
468.251	1	-5
469.444	1	2
470.637	1	3
471.830	1	10
473.023	1	-7
474.215	1	2
475.408	1	5
476.601	1	-2
477.793	1	8
478.986	1	-11
480.179	1	-4
481.371	1	4
482.564	1	-2
483.756	1	0
484.948	1	3
486.141	1	-13
487.333	1	5
488.525	1	-4
489.718	1	-4
490.910	1	-3
492.102	1	-1
493.294	1	5
494.486	1	5
495.678	1	6
496.870	1	-7
498.062	1	1
499.254	1	6
500.446	1	8
501.638	1	3
502.829	1	2
504.021	1	5
505.213	1	0
506.404	1	-1
507.596	1	-2
508.788	1	-1
509.979	1	0
511.171	1	12
512.362	1	-8
513.553	1	-2
514.745	1	0
515.936	1	1
517.127	1	1
518.319	1	-6
519.510	1	-7
520.701	1	4
521.892	1	-12
523.083	1	-10
524.274	1	-5
525.465	1	0
526.656	1	17
527.847	1	-1
529.038	1	5
530.229	1	5
531.419	1	1
532.610	1	2
533.801	1	6
534.991	1	4
536.182	1	-2
537.373	1	2
538.563	1	-9
539.754	1	-8
540.944	1	-1
542.134	1	5
543.325	1	2
544.515	1	0
545.705	1	-3
546.896	1	9
548.086	1	12
549.276	1	11
550.466	1	-5
551.656	1	-2
552.846	1	0
554.036	1	2
555.226	1	-9
556.416	1	-3
557.606	1	-9
558.796	1	4
559.986	1	-10
561.175	1	-1
562.365	1	3
563.555	1	11
564.744	1	-2
565.934	1	7
567.123	1	5
568.313	1	-3
569.502	1	4
570.692	1	2
571.881	1	5
573.070	1	6
574.260	1	-5
575.449	1	3
576.638	1	-5
577.827	1	5
579.016	1	7
580.205	1	6
581.394	1	0
582.583	1	-2
583.772	1	-5
584.961	1	5
586.150	1	-3
587.339	1	4
588.528	1	1
589.717	1	-1
590.905	1	7
592.094	1	2
593.283	1	-1
594.471	1	3
595.660	1	-1
596.848	1	10
598.037	1	9
599.225	1	3
600.413	1	-3
601.602	1	0
602.790	1	1
603.978	1	3
605.166	1	-14
606.355	1	2
607.543	1	-7
608.731	1	-10
609.919	1	-11
611.107	1	4
612.295	1	1
613.483	1	5
614.671	1	1
615.858	1	-1
617.046	1	-2
618.234	1	6
619.422	1	-4
620.609	1	2
621.797	1	7
622.985	1	8
624.172	1	9
625.360	1	-8
626.547	1	8
627.735	1	9
628.922	1	-3
630.109	1	-7
631.297	1	-4
632.484	1	2
633.671	1	4
634.858	1	7
636.045	1	2
637.232	1	-1
638.419	1	4
639.606	1	11
640.793	1	6
641.980	1	-4
643.167	1	11
644.354	1	1
645.541	1	-9
646.728	1	-4
647.914	1	4
649.101	1	2
650.288	1	-2
651.474	1	5
652.661	1	13
653.847	1	1
655.034	1	4
656.220	1	1
657.406	1	8
658.593	1	-7
659.779	1	0
660.965	1	-4
662.152	1	-4
663.338	1	-5
664.524	1	-11
665.710	1	-4
666.896	1	-1
668.082	1	-4
669.268	1	-4
670.454	1	-3
671.640	1	-14
672.826	1	-8
674.011	1	-1
675.197	1	-15
676.383	1	-2
677.569	1	-3
678.754	1	-17
679.940	1	-8
681.125	1	0
682.311	1	-4
683.496	1	-10
684.682	1	-2
685.867	1	3
687.053	1	0
688.238	1	2
688.746	1	-10