File: Analysis/GaN_68K_200ms/GaN_sample E_spot4_UVVIS_68 K_200um_200 ms 2x2mm1_785.txt
340.368	1	2
341.565	1	-5
342.763	1	0
343.960	1	-1
345.157	1	8
346.354	1	-1
347.552	1	4
348.749	1	6
349.946	1	-1
351.143	1	-8
352.340	1	-1
353.537	1	-7
354.734	1	0
355.931	1	-2
357.127	1	2
358.324	1	-7
359.521	1	-2
360.718	1	5
361.914	1	-4
363.111	1	9
364.308	1	4
365.504	1	-3
366.701	1	0
367.897	1	3
369.093	1	-2
370.290	1	-1
371.486	1	6
372.682	1	-6
373.879	1	6
375.075	1	4
376.271	1	-8
377.467	1	2
378.663	1	-8
379.859	1	-3
381.055	1	4
382.251	1	1
383.447	1	5
384.643	1	11
385.839	1	-2
387.035	1	0
388.230	1	3
389.426	1	6
390.622	1	-10
391.817	1	1
393.013	1	7
394.208	1	3
395.404	1	7
396.599	1	0
397.795	1	-1
398.990	1	9
400.186	1	5
401.381	1	4
402.576	1	14
403.771	1	1
404.967	1	6
406.162	1	-8
407.357	1	-4
408.552	1	-3
409.747	1	-7
410.942	1	-2
412.137	1	-1
413.332	1	-8
414.526	1	-2
415.721	1	4
416.916	1	-9
418.111	1	-7
419.305	1	0
420.500	1	5
421.695	1	3
422.889	1	5
424.084	1	5
425.278	1	-1
426.472	1	0
427.667	1	-1
428.861	1	-4
430.055	1	-2
431.250	1	-10
432.444	1	14
433.638	1	-2
434.832	1	-6
436.026	1	1
437.220	1	8
438.414	1	2
439.608	1	6
440.802	1	2
441.996	1	4
443.190	1	-13
444.384	1	4
445.578	1	0
446.771	1	-5
447.965	1	-8
449.159	1	-6
450.352	1	7
451.546	1	4
452.739	1	-6
453.933	1	2
455.126	1	-4
456.320	1	2
457.513	1	5
458.706	1	2
459.899	1	11
461.093	1	4
462.286	1	13
463.479	1	12
464.672	1	-10
465.865	1	-7
467.058	1	6
468.251	1	-4
469.444	1	-5
470.637	1	9
471.830	1	20
473.023	1	-5
474.215	1	-4
475.408	1	2
476.601	1	4
477.793	1	14
478.986	1	-2
480.179	1	4
481.371	1	-3
482.564	1	-8
483.756	1	13
484.948	1	-6
486.141	1	-4
487.333	1	6
488.525	1	4
489.718	1	4
490.910	1	3
492.102	1	0
493.294	1	2
494.486	1	-1
495.678	1	4
496.870	1	4
498.062	1	1
499.254	1	1
500.446	1	7
501.638	1	-4
502.829	1	-3
504.021	1	15
505.213	1	-2
506.404	1	-3
507.596	1	4
508.788	1	7
509.979	1	0
511.171	1	9
512.362	1	2
513.553	1	-4
514.745	1	1
515.936	1	3
517.127	1	3
518.319	1	3
519.510	1	4
520.701	1	7
521.892	1	-15
523.083	1	-7
524.274	1	-12
525.465	1	-2
526.656	1	14
527.847	1	-9
529.038	1	8
530.229	1	6
531.419	1	9
532.610	1	4
533.801	1	8
534.991	1	-5
536.182	1	2
537.373	1	-8
538.563	1	9
539.754	1	-2
540.944	1	-2
542.134	1	3
543.325	1	0
544.515	1	-3
545.705	1	-3
546.896	1	-1
548.086	1	6
549.276	1	3
550.466	1	-2
551.656	1	-1
552.846	1	6
554.036	1	3
555.226	1	-12
556.416	1	-4
557.606	1	-14
558.796	1	-2
559.986	1	3
561.175	1	-4
562.365	1	3
563.555	1	8
564.744	1	6
565.934	1	-4
567.123	1	5
568.313	1	3
569.502	1	-5
570.692	1	0
571.881	1	1
573.070	1	6
574.260	1	7
575.449	1	-5
576.638	1	6
577.827	1	5
579.016	1	9
580.205	1	1
581.394	1	-5
582.583	1	-7
583.772	1	0
584.961	1	-1
586.150	1	-4
587.339	1	8
588.528	1	-2
589.717	1	8
590.905	1	2
592.094	1	0
593.283	1	8
594.471	1	2
595.660	1	-5
596.848	1	0
598.037	1	8
599.225	1	-9
600.413	1	-1
601.602	1	9
602.790	1	0
603.978	1	3
605.166	1	-1
606.355	1	9
607.543	1	-23
608.731	1	-1
609.919	1	-11
611.107	1	-7
612.295	1	12
613.483	1	3
614.671	1	7
615.858	1	11
617.046	1	2
618.234	1	-2
619.422	1	7
620.609	1	-4
621.797	1	0
622.985	1	4
624.172	1	12
625.360	1	-10
626.547	1	-1
627.735	1	6
628.922	1	-1
630.109	1	-4
631.297	1	-6
632.484	1	-5
633.671	1	-4
634.858	1	4
636.045	1	0
637.232	1	-1
638.419	1	11
639.606	1	-1
640.793	1	7
641.980	1	6
643.167	1	5
644.354	1	-7
645.541	1	-5
646.728	1	1
647.914	1	4
649.101	1	-2
650.288	1	-3
651.474	1	-4
652.661	1	0
653.847	1	5
655.034	1	0
656.220	1	5
657.406	1	5
658.593	1	-3
659.779	1	3
660.965	1	-3
662.152	1	-2
663.338	1	-5
664.524	1	-20
665.710	1	-5
666.896	1	2
668.082	1	-3
669.268	1	3
670.454	1	6
671.640	1	-8
672.826	1	-15
674.011	1	4
675.197	1	-1
676.383	1	-3
677.569	1	-4
678.754	1	-11
679.940	1	-3
681.125	1	0
682.311	1	2
683.496	1	-3
684.682	1	5
685.867	1	1
687.053	1	-6
688.238	1	-4
688.746	1	4