File: Analysis/GaN_68K_200ms/GaN_sample E_spot4_UVVIS_68 K_200um_200 ms 2x2mm1_196.txt
340.368	1	2
341.565	1	-9
342.763	1	0
343.960	1	-5
345.157	1	7
346.354	1	-5
347.552	1	12
348.749	1	4
349.946	1	13
351.143	1	-3
352.340	1	4
353.537	1	2
354.734	1	4
355.931	1	10
357.127	1	5
358.324	1	6
359.521	1	9
360.718	1	-7
361.914	1	-5
363.111	1	11
364.308	1	15
365.504	1	11
366.701	1	17
367.897	1	16
369.093	1	15
370.290	1	8
371.486	1	25
372.682	1	5
373.879	1	18
375.075	1	7
376.271	1	3
377.467	1	12
378.663	1	11
379.859	1	3
381.055	1	21
382.251	1	5
383.447	1	22
384.643	1	18
385.839	1	22
387.035	1	23
388.230	1	25
389.426	1	22
390.622	1	21
391.817	1	17
393.013	1	21
394.208	1	16
395.404	1	28
396.599	1	18
397.795	1	23
398.990	1	30
400.186	1	24
401.381	1	17
402.576	1	30
403.771	1	21
404.967	1	23
406.162	1	12
407.357	1	17
408.552	1	16
409.747	1	2
410.942	1	18
412.137	1	18
413.332	1	8
414.526	1	16
415.721	1	19
416.916	1	11
418.111	1	20
419.305	1	20
420.500	1	12
421.695	1	9
422.889	1	20
424.084	1	14
425.278	1	10
426.472	1	8
427.667	1	22
428.861	1	8
430.055	1	17
431.250	1	-1
432.444	1	15
433.638	1	3
434.832	1	7
436.026	1	14
437.220	1	16
438.414	1	14
439.608	1	12
440.802	1	8
441.996	1	6
443.190	1	-7
444.384	1	14
445.578	1	17
446.771	1	2
447.965	1	2
449.159	1	-2
450.352	1	18
451.546	1	6
452.739	1	3
453.933	1	10
455.126	1	10
456.320	1	4
457.513	1	7
458.706	1	5
459.899	1	11
461.093	1	12
462.286	1	10
463.479	1	10
464.672	1	13
465.865	1	4
467.058	1	15
468.251	1	3
469.444	1	5
470.637	1	16
471.830	1	21
473.023	1	-2
474.215	1	5
475.408	1	6
476.601	1	5
477.793	1	8
478.986	1	5
480.179	1	14
481.371	1	4
482.564	1	-12
483.756	1	13
484.948	1	1
486.141	1	-11
487.333	1	2
488.525	1	2
489.718	1	-2
490.910	1	1
492.102	1	9
493.294	1	11
494.486	1	5
495.678	1	21
496.870	1	9
498.062	1	3
499.254	1	8
500.446	1	14
501.638	1	9
502.829	1	5
504.021	1	27
505.213	1	12
506.404	1	3
507.596	1	20
508.788	1	12
509.979	1	1
511.171	1	23
512.362	1	14
513.553	1	12
514.745	1	8
515.936	1	8
517.127	1	10
518.319	1	10
519.510	1	15
520.701	1	16
521.892	1	5
523.083	1	11
524.274	1	4
525.465	1	17
526.656	1	22
527.847	1	14
529.038	1	20
530.229	1	20
531.419	1	28
532.610	1	18
533.801	1	21
534.991	1	21
536.182	1	11
537.373	1	13
538.563	1	21
539.754	1	6
540.944	1	2
542.134	1	26
543.325	1	18
544.515	1	14
545.705	1	16
546.896	1	13
548.086	1	14
549.276	1	16
550.466	1	10
551.656	1	7
552.846	1	15
554.036	1	17
555.226	1	2
556.416	1	12
557.606	1	3
558.796	1	5
559.986	1	10
561.175	1	10
562.365	1	13
563.555	1	22
564.744	1	16
565.934	1	15
567.123	1	14
568.313	1	9
569.502	1	9
570.692	1	8
571.881	1	19
573.070	1	6
574.260	1	1
575.449	1	19
576.638	1	14
577.827	1	14
579.016	1	14
580.205	1	11
581.394	1	-3
582.583	1	4
583.772	1	7
584.961	1	8
586.150	1	-1
587.339	1	6
588.528	1	10
589.717	1	3
590.905	1	8
592.094	1	10
593.283	1	15
594.471	1	3
595.660	1	6
596.848	1	14
598.037	1	8
599.225	1	0
600.413	1	9
601.602	1	15
602.790	1	6
603.978	1	4
605.166	1	1
606.355	1	11
607.543	1	-4
608.731	1	1
609.919	1	2
611.107	1	6
612.295	1	19
613.483	1	5
614.671	1	10
615.858	1	14
617.046	1	7
618.234	1	-1
619.422	1	7
620.609	1	8
621.797	1	2
622.985	1	5
624.172	1	19
625.360	1	0
626.547	1	6
627.735	1	10
628.922	1	3
630.109	1	3
631.297	1	-4
632.484	1	-5
633.671	1	3
634.858	1	5
636.045	1	1
637.232	1	6
638.419	1	3
639.606	1	9
640.793	1	2
641.980	1	1
643.167	1	14
644.354	1	7
645.541	1	-13
646.728	1	7
647.914	1	0
649.101	1	-3
650.288	1	-6
651.474	1	8
652.661	1	-3
653.847	1	6
655.034	1	0
656.220	1	10
657.406	1	1
658.593	1	-11
659.779	1	7
660.965	1	8
662.152	1	-1
663.338	1	3
664.524	1	-4
665.710	1	10
666.896	1	3
668.082	1	3
669.268	1	14
670.454	1	6
671.640	1	-7
672.826	1	-10
674.011	1	6
675.197	1	1
676.383	1	-2
677.569	1	0
678.754	1	1
679.940	1	2
681.125	1	6
682.311	1	5
683.496	1	-3
684.682	1	8
685.867	1	0
687.053	1	13
688.238	1	9
688.746	1	9