File: Analysis/GaN_68K_200ms/GaN_sample E_spot4_UVVIS_68 K_200um_200 ms 2x2mm1_528.txt
340.368	1	3
341.565	1	-11
342.763	1	5
343.960	1	3
345.157	1	3
346.354	1	-8
347.552	1	2
348.749	1	7
349.946	1	5
351.143	1	-9
352.340	1	-1
353.537	1	1
354.734	1	0
355.931	1	-2
357.127	1	-8
358.324	1	-2
359.521	1	0
360.718	1	-9
361.914	1	-9
363.111	1	6
364.308	1	-1
365.504	1	-2
366.701	1	-6
367.897	1	3
369.093	1	-1
370.290	1	-2
371.486	1	4
372.682	1	-6
373.879	1	7
375.075	1	14
376.271	1	-6
377.467	1	2
378.663	1	-8
379.859	1	-5
381.055	1	1
382.251	1	-3
383.447	1	11
384.643	1	2
385.839	1	9
387.035	1	9
388.230	1	8
389.426	1	4
390.622	1	-1
391.817	1	3
393.013	1	9
394.208	1	11
395.404	1	3
396.599	1	0
397.795	1	-3
398.990	1	7
400.186	1	9
401.381	1	9
402.576	1	9
403.771	1	6
404.967	1	-3
406.162	1	0
407.357	1	1
408.552	1	14
409.747	1	-1
410.942	1	-3
412.137	1	5
413.332	1	-5
414.526	1	2
415.721	1	4
416.916	1	-6
418.111	1	-5
419.305	1	-4
420.500	1	-3
421.695	1	2
422.889	1	-4
424.084	1	7
425.278	1	-7
426.472	1	-11
427.667	1	6
428.861	1	6
430.055	1	2
431.250	1	-6
432.444	1	2
433.638	1	-6
434.832	1	-4
436.026	1	-3
437.220	1	3
438.414	1	7
439.608	1	-7
440.802	1	3
441.996	1	-7
443.190	1	-6
444.384	1	2
445.578	1	7
446.771	1	-8
447.965	1	-6
449.159	1	-6
450.352	1	11
451.546	1	1
452.739	1	1
453.933	1	8
455.126	1	5
456.320	1	-4
457.513	1	6
458.706	1	1
459.899	1	12
461.093	1	11
462.286	1	3
463.479	1	9
464.672	1	5
465.865	1	-8
467.058	1	10
468.251	1	-5
469.444	1	1
470.637	1	11
471.830	1	10
473.023	1	0
474.215	1	-6
475.408	1	0
476.601	1	-1
477.793	1	4
478.986	1	5
480.179	1	9
481.371	1	1
482.564	1	-5
483.756	1	14
484.948	1	-8
486.141	1	-12
487.333	1	3
488.525	1	-1
489.718	1	-3
490.910	1	-5
492.102	1	-1
493.294	1	3
494.486	1	10
495.678	1	7
496.870	1	2
498.062	1	1
499.254	1	11
500.446	1	4
501.638	1	-4
502.829	1	-4
504.021	1	5
505.213	1	3
506.404	1	-5
507.596	1	5
508.788	1	-5
509.979	1	3
511.171	1	9
512.362	1	-2
513.553	1	-5
514.745	1	0
515.936	1	1
517.127	1	4
518.319	1	0
519.510	1	3
520.701	1	2
521.892	1	-1
523.083	1	-5
524.274	1	-6
525.465	1	-2
526.656	1	22
527.847	1	-5
529.038	1	7
530.229	1	5
531.419	1	3
532.610	1	6
533.801	1	-4
534.991	1	3
536.182	1	-2
537.373	1	-3
538.563	1	-5
539.754	1	-6
540.944	1	1
542.134	1	8
543.325	1	4
544.515	1	0
545.705	1	8
546.896	1	2
548.086	1	1
549.276	1	8
550.466	1	6
551.656	1	-6
552.846	1	14
554.036	1	5
555.226	1	-7
556.416	1	7
557.606	1	3
558.796	1	1
559.986	1	-5
561.175	1	-1
562.365	1	0
563.555	1	14
564.744	1	1
565.934	1	-2
567.123	1	15
568.313	1	-6
569.502	1	-1
570.692	1	-2
571.881	1	-1
573.070	1	6
574.260	1	1
575.449	1	9
576.638	1	8
577.827	1	12
579.016	1	15
580.205	1	0
581.394	1	-3
582.583	1	-3
583.772	1	-3
584.961	1	8
586.150	1	5
587.339	1	8
588.528	1	-1
589.717	1	3
590.905	1	6
592.094	1	4
593.283	1	6
594.471	1	8
595.660	1	-10
596.848	1	8
598.037	1	-1
599.225	1	-4
600.413	1	6
601.602	1	-3
602.790	1	4
603.978	1	4
605.166	1	-10
606.355	1	10
607.543	1	-5
608.731	1	-10
609.919	1	-4
611.107	1	5
612.295	1	2
613.483	1	7
614.671	1	6
615.858	1	4
617.046	1	5
618.234	1	-1
619.422	1	-5
620.609	1	-4
621.797	1	-1
622.985	1	-4
624.172	1	12
625.360	1	-11
626.547	1	9
627.735	1	3
628.922	1	-2
630.109	1	-5
631.297	1	-4
632.484	1	-5
633.671	1	2
634.858	1	9
636.045	1	0
637.232	1	-3
638.419	1	10
639.606	1	10
640.793	1	12
641.980	1	8
643.167	1	14
644.354	1	7
645.541	1	-5
646.728	1	3
647.914	1	-9
649.101	1	0
650.288	1	6
651.474	1	5
652.661	1	6
653.847	1	7
655.034	1	-3
656.220	1	3
657.406	1	6
658.593	1	-10
659.779	1	1
660.965	1	-6
662.152	1	4
663.338	1	0
664.524	1	-8
665.710	1	-2
666.896	1	-8
668.082	1	3
669.268	1	12
670.454	1	-2
671.640	1	-12
672.826	1	-13
674.011	1	10
675.197	1	-3
676.383	1	-3
677.569	1	-5
678.754	1	-12
679.940	1	-6
681.125	1	1
682.311	1	-4
683.496	1	1
684.682	1	10
685.867	1	1
687.053	1	2
688.238	1	5
688.746	1	10