File: Analysis/GaN_68K_200ms/GaN_sample E_spot4_UVVIS_68 K_200um_200 ms 2x2mm1_380.txt
340.368	1	7
341.565	1	-4
342.763	1	6
343.960	1	2
345.157	1	11
346.354	1	-1
347.552	1	11
348.749	1	1
349.946	1	14
351.143	1	-9
352.340	1	-3
353.537	1	3
354.734	1	-1
355.931	1	5
357.127	1	3
358.324	1	0
359.521	1	-2
360.718	1	1
361.914	1	-2
363.111	1	11
364.308	1	1
365.504	1	7
366.701	1	1
367.897	1	-1
369.093	1	0
370.290	1	0
371.486	1	6
372.682	1	5
373.879	1	9
375.075	1	1
376.271	1	2
377.467	1	1
378.663	1	-4
379.859	1	-3
381.055	1	-3
382.251	1	-2
383.447	1	14
384.643	1	11
385.839	1	6
387.035	1	8
388.230	1	12
389.426	1	13
390.622	1	2
391.817	1	4
393.013	1	4
394.208	1	12
395.404	1	7
396.599	1	8
397.795	1	8
398.990	1	3
400.186	1	13
401.381	1	3
402.576	1	15
403.771	1	9
404.967	1	10
406.162	1	8
407.357	1	2
408.552	1	7
409.747	1	0
410.942	1	7
412.137	1	15
413.332	1	-3
414.526	1	9
415.721	1	0
416.916	1	3
418.111	1	3
419.305	1	6
420.500	1	10
421.695	1	3
422.889	1	5
424.084	1	-1
425.278	1	4
426.472	1	1
427.667	1	8
428.861	1	-11
430.055	1	3
431.250	1	0
432.444	1	3
433.638	1	1
434.832	1	1
436.026	1	6
437.220	1	11
438.414	1	10
439.608	1	3
440.802	1	0
441.996	1	8
443.190	1	-8
444.384	1	10
445.578	1	11
446.771	1	-5
447.965	1	-6
449.159	1	-4
450.352	1	-1
451.546	1	3
452.739	1	8
453.933	1	1
455.126	1	-1
456.320	1	2
457.513	1	8
458.706	1	1
459.899	1	19
461.093	1	7
462.286	1	7
463.479	1	9
464.672	1	6
465.865	1	5
467.058	1	8
468.251	1	-5
469.444	1	-5
470.637	1	8
471.830	1	6
473.023	1	-8
474.215	1	-6
475.408	1	12
476.601	1	-1
477.793	1	4
478.986	1	-3
480.179	1	10
481.371	1	1
482.564	1	-10
483.756	1	8
484.948	1	6
486.141	1	-8
487.333	1	10
488.525	1	5
489.718	1	7
490.910	1	1
492.102	1	6
493.294	1	15
494.486	1	10
495.678	1	4
496.870	1	3
498.062	1	-5
499.254	1	6
500.446	1	7
501.638	1	1
502.829	1	10
504.021	1	12
505.213	1	5
506.404	1	-6
507.596	1	4
508.788	1	7
509.979	1	2
511.171	1	11
512.362	1	8
513.553	1	-2
514.745	1	-2
515.936	1	11
517.127	1	3
518.319	1	11
519.510	1	6
520.701	1	12
521.892	1	-9
523.083	1	13
524.274	1	-4
525.465	1	1
526.656	1	22
527.847	1	3
529.038	1	12
530.229	1	7
531.419	1	5
532.610	1	7
533.801	1	7
534.991	1	9
536.182	1	8
537.373	1	-2
538.563	1	9
539.754	1	-7
540.944	1	-6
542.134	1	12
543.325	1	0
544.515	1	4
545.705	1	3
546.896	1	6
548.086	1	0
549.276	1	8
550.466	1	-9
551.656	1	-5
552.846	1	5
554.036	1	1
555.226	1	-2
556.416	1	3
557.606	1	-11
558.796	1	8
559.986	1	4
561.175	1	-1
562.365	1	-2
563.555	1	14
564.744	1	15
565.934	1	10
567.123	1	18
568.313	1	-4
569.502	1	0
570.692	1	2
571.881	1	1
573.070	1	4
574.260	1	-3
575.449	1	9
576.638	1	-2
577.827	1	5
579.016	1	20
580.205	1	1
581.394	1	2
582.583	1	-5
583.772	1	6
584.961	1	3
586.150	1	4
587.339	1	2
588.528	1	4
589.717	1	6
590.905	1	5
592.094	1	13
593.283	1	11
594.471	1	0
595.660	1	-2
596.848	1	13
598.037	1	2
599.225	1	9
600.413	1	7
601.602	1	14
602.790	1	5
603.978	1	-6
605.166	1	-7
606.355	1	6
607.543	1	-7
608.731	1	-5
609.919	1	-2
611.107	1	14
612.295	1	3
613.483	1	11
614.671	1	0
615.858	1	8
617.046	1	12
618.234	1	2
619.422	1	-2
620.609	1	2
621.797	1	-6
622.985	1	1
624.172	1	8
625.360	1	-6
626.547	1	-3
627.735	1	6
628.922	1	1
630.109	1	2
631.297	1	-4
632.484	1	0
633.671	1	6
634.858	1	11
636.045	1	3
637.232	1	-1
638.419	1	8
639.606	1	7
640.793	1	7
641.980	1	3
643.167	1	4
644.354	1	-5
645.541	1	-5
646.728	1	1
647.914	1	-9
649.101	1	12
650.288	1	-4
651.474	1	2
652.661	1	1
653.847	1	1
655.034	1	4
656.220	1	21
657.406	1	6
658.593	1	-6
659.779	1	6
660.965	1	4
662.152	1	5
663.338	1	1
664.524	1	-5
665.710	1	-8
666.896	1	4
668.082	1	-3
669.268	1	3
670.454	1	1
671.640	1	-21
672.826	1	-10
674.011	1	2
675.197	1	-4
676.383	1	0
677.569	1	-2
678.754	1	2
679.940	1	-7
681.125	1	7
682.311	1	0
683.496	1	-11
684.682	1	13
685.867	1	6
687.053	1	9
688.238	1	-1
688.746	1	6