File: Analysis/GaN_68K_200ms/GaN_sample E_spot4_UVVIS_68 K_200um_200 ms 2x2mm1_832.txt
340.368	1	-6
341.565	1	-1
342.763	1	-2
343.960	1	-3
345.157	1	5
346.354	1	5
347.552	1	-10
348.749	1	0
349.946	1	6
351.143	1	-8
352.340	1	3
353.537	1	-4
354.734	1	-7
355.931	1	-2
357.127	1	6
358.324	1	0
359.521	1	-2
360.718	1	-3
361.914	1	5
363.111	1	6
364.308	1	1
365.504	1	-12
366.701	1	-11
367.897	1	4
369.093	1	-4
370.290	1	-8
371.486	1	1
372.682	1	-10
373.879	1	5
375.075	1	-6
376.271	1	-4
377.467	1	-9
378.663	1	-6
379.859	1	0
381.055	1	-1
382.251	1	9
383.447	1	5
384.643	1	5
385.839	1	-1
387.035	1	2
388.230	1	0
389.426	1	4
390.622	1	-3
391.817	1	-9
393.013	1	5
394.208	1	8
395.404	1	3
396.599	1	-3
397.795	1	2
398.990	1	1
400.186	1	6
401.381	1	-1
402.576	1	2
403.771	1	-2
404.967	1	-9
406.162	1	-10
407.357	1	4
408.552	1	-1
409.747	1	-10
410.942	1	2
412.137	1	12
413.332	1	-7
414.526	1	4
415.721	1	-1
416.916	1	-3
418.111	1	2
419.305	1	0
420.500	1	-10
421.695	1	-2
422.889	1	6
424.084	1	1
425.278	1	-3
426.472	1	-12
427.667	1	8
428.861	1	-6
430.055	1	1
431.250	1	-8
432.444	1	6
433.638	1	2
434.832	1	1
436.026	1	4
437.220	1	11
438.414	1	1
439.608	1	7
440.802	1	1
441.996	1	3
443.190	1	-18
444.384	1	-5
445.578	1	9
446.771	1	2
447.965	1	-3
449.159	1	6
450.352	1	1
451.546	1	7
452.739	1	3
453.933	1	1
455.126	1	-5
456.320	1	2
457.513	1	12
458.706	1	-1
459.899	1	6
461.093	1	1
462.286	1	1
463.479	1	12
464.672	1	0
465.865	1	-10
467.058	1	9
468.251	1	8
469.444	1	-9
470.637	1	8
471.830	1	12
473.023	1	-8
474.215	1	-7
475.408	1	-4
476.601	1	-1
477.793	1	3
478.986	1	-10
480.179	1	1
481.371	1	5
482.564	1	0
483.756	1	-1
484.948	1	-4
486.141	1	-4
487.333	1	-4
488.525	1	-4
489.718	1	-5
490.910	1	0
492.102	1	-3
493.294	1	4
494.486	1	-2
495.678	1	2
496.870	1	7
498.062	1	-10
499.254	1	-2
500.446	1	4
501.638	1	-5
502.829	1	0
504.021	1	16
505.213	1	2
506.404	1	-8
507.596	1	7
508.788	1	4
509.979	1	1
511.171	1	6
512.362	1	-2
513.553	1	-10
514.745	1	-9
515.936	1	2
517.127	1	-4
518.319	1	7
519.510	1	-2
520.701	1	6
521.892	1	-10
523.083	1	5
524.274	1	-5
525.465	1	-3
526.656	1	13
527.847	1	1
529.038	1	1
530.229	1	-1
531.419	1	14
532.610	1	4
533.801	1	1
534.991	1	0
536.182	1	-1
537.373	1	-1
538.563	1	0
539.754	1	-3
540.944	1	-4
542.134	1	4
543.325	1	-6
544.515	1	-5
545.705	1	4
546.896	1	-1
548.086	1	-4
549.276	1	1
550.466	1	-8
551.656	1	-14
552.846	1	1
554.036	1	1
555.226	1	9
556.416	1	0
557.606	1	-1
558.796	1	-4
559.986	1	-5
561.175	1	-6
562.365	1	3
563.555	1	8
564.744	1	9
565.934	1	0
567.123	1	13
568.313	1	-6
569.502	1	0
570.692	1	2
571.881	1	7
573.070	1	-5
574.260	1	-7
575.449	1	4
576.638	1	-2
577.827	1	2
579.016	1	11
580.205	1	-3
581.394	1	-9
582.583	1	-9
583.772	1	-1
584.961	1	0
586.150	1	-3
587.339	1	9
588.528	1	-1
589.717	1	-6
590.905	1	3
592.094	1	9
593.283	1	-1
594.471	1	-6
595.660	1	-6
596.848	1	7
598.037	1	1
599.225	1	-5
600.413	1	0
601.602	1	5
602.790	1	-6
603.978	1	7
605.166	1	-6
606.355	1	5
607.543	1	-6
608.731	1	-15
609.919	1	0
611.107	1	4
612.295	1	0
613.483	1	-4
614.671	1	4
615.858	1	-5
617.046	1	9
618.234	1	-2
619.422	1	2
620.609	1	8
621.797	1	-14
622.985	1	1
624.172	1	12
625.360	1	-7
626.547	1	6
627.735	1	11
628.922	1	-4
630.109	1	-6
631.297	1	-1
632.484	1	-5
633.671	1	5
634.858	1	3
636.045	1	-10
637.232	1	0
638.419	1	3
639.606	1	4
640.793	1	-3
641.980	1	-6
643.167	1	8
644.354	1	-1
645.541	1	-10
646.728	1	2
647.914	1	-4
649.101	1	-1
650.288	1	-5
651.474	1	-6
652.661	1	1
653.847	1	1
655.034	1	4
656.220	1	11
657.406	1	2
658.593	1	-17
659.779	1	-6
660.965	1	-6
662.152	1	-5
663.338	1	-2
664.524	1	-9
665.710	1	-7
666.896	1	2
668.082	1	2
669.268	1	1
670.454	1	-3
671.640	1	-15
672.826	1	-13
674.011	1	-2
675.197	1	-5
676.383	1	-4
677.569	1	1
678.754	1	-3
679.940	1	-5
681.125	1	5
682.311	1	4
683.496	1	-4
684.682	1	3
685.867	1	3
687.053	1	4
688.238	1	-6
688.746	1	4