File: Analysis/GaN_68K_200ms/GaN_sample E_spot4_UVVIS_68 K_200um_200 ms 2x2mm1_128.txt
340.368	1	6
341.565	1	2
342.763	1	10
343.960	1	2
345.157	1	11
346.354	1	5
347.552	1	6
348.749	1	11
349.946	1	15
351.143	1	3
352.340	1	7
353.537	1	9
354.734	1	8
355.931	1	18
357.127	1	20
358.324	1	13
359.521	1	35
360.718	1	35
361.914	1	68
363.111	1	101
364.308	1	133
365.504	1	182
366.701	1	219
367.897	1	233
369.093	1	200
370.290	1	148
371.486	1	125
372.682	1	110
373.879	1	97
375.075	1	79
376.271	1	77
377.467	1	56
378.663	1	47
379.859	1	53
381.055	1	68
382.251	1	100
383.447	1	141
384.643	1	210
385.839	1	250
387.035	1	287
388.230	1	297
389.426	1	273
390.622	1	248
391.817	1	239
393.013	1	237
394.208	1	233
395.404	1	236
396.599	1	246
397.795	1	266
398.990	1	257
400.186	1	237
401.381	1	202
402.576	1	190
403.771	1	180
404.967	1	158
406.162	1	167
407.357	1	162
408.552	1	154
409.747	1	139
410.942	1	134
412.137	1	130
413.332	1	111
414.526	1	96
415.721	1	97
416.916	1	95
418.111	1	94
419.305	1	92
420.500	1	83
421.695	1	88
422.889	1	73
424.084	1	72
425.278	1	48
426.472	1	64
427.667	1	69
428.861	1	56
430.055	1	56
431.250	1	36
432.444	1	53
433.638	1	39
434.832	1	28
436.026	1	35
437.220	1	52
438.414	1	33
439.608	1	38
440.802	1	42
441.996	1	29
443.190	1	18
444.384	1	35
445.578	1	30
446.771	1	17
447.965	1	13
449.159	1	24
450.352	1	28
451.546	1	28
452.739	1	23
453.933	1	22
455.126	1	23
456.320	1	19
457.513	1	28
458.706	1	22
459.899	1	28
461.093	1	20
462.286	1	22
463.479	1	29
464.672	1	14
465.865	1	18
467.058	1	28
468.251	1	7
469.444	1	20
470.637	1	22
471.830	1	27
473.023	1	12
474.215	1	21
475.408	1	17
476.601	1	21
477.793	1	27
478.986	1	17
480.179	1	24
481.371	1	25
482.564	1	16
483.756	1	27
484.948	1	18
486.141	1	18
487.333	1	28
488.525	1	19
489.718	1	25
490.910	1	26
492.102	1	36
493.294	1	41
494.486	1	41
495.678	1	42
496.870	1	34
498.062	1	45
499.254	1	59
500.446	1	57
501.638	1	57
502.829	1	61
504.021	1	74
505.213	1	67
506.404	1	70
507.596	1	88
508.788	1	79
509.979	1	79
511.171	1	87
512.362	1	84
513.553	1	79
514.745	1	96
515.936	1	105
517.127	1	99
518.319	1	116
519.510	1	114
520.701	1	122
521.892	1	111
523.083	1	126
524.274	1	110
525.465	1	123
526.656	1	145
527.847	1	128
529.038	1	127
530.229	1	125
531.419	1	139
532.610	1	148
533.801	1	138
534.991	1	132
536.182	1	121
537.373	1	116
538.563	1	118
539.754	1	128
540.944	1	113
542.134	1	128
543.325	1	108
544.515	1	109
545.705	1	113
546.896	1	116
548.086	1	104
549.276	1	120
550.466	1	104
551.656	1	96
552.846	1	110
554.036	1	108
555.226	1	90
556.416	1	96
557.606	1	73
558.796	1	91
559.986	1	78
561.175	1	77
562.365	1	79
563.555	1	77
564.744	1	74
565.934	1	72
567.123	1	80
568.313	1	59
569.502	1	69
570.692	1	59
571.881	1	73
573.070	1	66
574.260	1	60
575.449	1	62
576.638	1	57
577.827	1	57
579.016	1	66
580.205	1	51
581.394	1	44
582.583	1	42
583.772	1	46
584.961	1	37
586.150	1	38
587.339	1	51
588.528	1	41
589.717	1	41
590.905	1	43
592.094	1	31
593.283	1	34
594.471	1	29
595.660	1	31
596.848	1	31
598.037	1	26
599.225	1	24
600.413	1	21
601.602	1	38
602.790	1	25
603.978	1	21
605.166	1	16
606.355	1	27
607.543	1	16
608.731	1	17
609.919	1	16
611.107	1	33
612.295	1	26
613.483	1	25
614.671	1	22
615.858	1	24
617.046	1	21
618.234	1	19
619.422	1	15
620.609	1	18
621.797	1	15
622.985	1	19
624.172	1	20
625.360	1	4
626.547	1	18
627.735	1	18
628.922	1	13
630.109	1	4
631.297	1	13
632.484	1	14
633.671	1	13
634.858	1	15
636.045	1	11
637.232	1	11
638.419	1	20
639.606	1	26
640.793	1	23
641.980	1	5
643.167	1	17
644.354	1	13
645.541	1	-9
646.728	1	16
647.914	1	12
649.101	1	14
650.288	1	14
651.474	1	14
652.661	1	14
653.847	1	9
655.034	1	8
656.220	1	17
657.406	1	10
658.593	1	-3
659.779	1	6
660.965	1	12
662.152	1	10
663.338	1	9
664.524	1	3
665.710	1	-1
666.896	1	3
668.082	1	3
669.268	1	11
670.454	1	11
671.640	1	-5
672.826	1	2
674.011	1	16
675.197	1	2
676.383	1	17
677.569	1	0
678.754	1	12
679.940	1	8
681.125	1	18
682.311	1	10
683.496	1	3
684.682	1	13
685.867	1	13
687.053	1	19
688.238	1	22
688.746	1	22