File: Analysis/GaN_68K_200ms/GaN_sample E_spot4_UVVIS_68 K_200um_200 ms 2x2mm1_804.txt
340.368	1	2
341.565	1	-9
342.763	1	-10
343.960	1	0
345.157	1	-2
346.354	1	-3
347.552	1	-2
348.749	1	-2
349.946	1	3
351.143	1	-9
352.340	1	-6
353.537	1	4
354.734	1	-8
355.931	1	-6
357.127	1	2
358.324	1	-3
359.521	1	3
360.718	1	-6
361.914	1	3
363.111	1	7
364.308	1	3
365.504	1	1
366.701	1	-2
367.897	1	3
369.093	1	2
370.290	1	-3
371.486	1	7
372.682	1	-5
373.879	1	-7
375.075	1	4
376.271	1	-5
377.467	1	7
378.663	1	2
379.859	1	-5
381.055	1	-6
382.251	1	-1
383.447	1	0
384.643	1	2
385.839	1	2
387.035	1	3
388.230	1	-3
389.426	1	5
390.622	1	-7
391.817	1	-9
393.013	1	5
394.208	1	6
395.404	1	3
396.599	1	8
397.795	1	2
398.990	1	6
400.186	1	9
401.381	1	3
402.576	1	17
403.771	1	4
404.967	1	2
406.162	1	-4
407.357	1	5
408.552	1	6
409.747	1	-2
410.942	1	-2
412.137	1	14
413.332	1	-2
414.526	1	4
415.721	1	2
416.916	1	0
418.111	1	0
419.305	1	2
420.500	1	2
421.695	1	3
422.889	1	0
424.084	1	-1
425.278	1	-13
426.472	1	2
427.667	1	7
428.861	1	0
430.055	1	2
431.250	1	-14
432.444	1	7
433.638	1	-2
434.832	1	1
436.026	1	-2
437.220	1	9
438.414	1	4
439.608	1	-7
440.802	1	-5
441.996	1	1
443.190	1	-13
444.384	1	-3
445.578	1	5
446.771	1	-12
447.965	1	-1
449.159	1	-6
450.352	1	10
451.546	1	11
452.739	1	-4
453.933	1	5
455.126	1	-1
456.320	1	3
457.513	1	8
458.706	1	-2
459.899	1	7
461.093	1	2
462.286	1	21
463.479	1	4
464.672	1	-5
465.865	1	0
467.058	1	2
468.251	1	3
469.444	1	-2
470.637	1	15
471.830	1	5
473.023	1	-8
474.215	1	-6
475.408	1	3
476.601	1	-7
477.793	1	8
478.986	1	3
480.179	1	2
481.371	1	-5
482.564	1	-8
483.756	1	6
484.948	1	-9
486.141	1	-6
487.333	1	10
488.525	1	-1
489.718	1	-8
490.910	1	-5
492.102	1	-8
493.294	1	2
494.486	1	2
495.678	1	11
496.870	1	-2
498.062	1	-3
499.254	1	4
500.446	1	3
501.638	1	-8
502.829	1	5
504.021	1	15
505.213	1	-5
506.404	1	6
507.596	1	4
508.788	1	-3
509.979	1	-4
511.171	1	10
512.362	1	2
513.553	1	-2
514.745	1	12
515.936	1	0
517.127	1	13
518.319	1	5
519.510	1	-4
520.701	1	-4
521.892	1	-10
523.083	1	-2
524.274	1	-10
525.465	1	-5
526.656	1	18
527.847	1	-3
529.038	1	9
530.229	1	0
531.419	1	3
532.610	1	5
533.801	1	-3
534.991	1	0
536.182	1	1
537.373	1	0
538.563	1	-6
539.754	1	-3
540.944	1	-9
542.134	1	11
543.325	1	-3
544.515	1	5
545.705	1	10
546.896	1	-2
548.086	1	5
549.276	1	7
550.466	1	-1
551.656	1	-6
552.846	1	-2
554.036	1	4
555.226	1	-3
556.416	1	11
557.606	1	1
558.796	1	-5
559.986	1	-7
561.175	1	-5
562.365	1	2
563.555	1	18
564.744	1	-12
565.934	1	3
567.123	1	14
568.313	1	-2
569.502	1	7
570.692	1	0
571.881	1	7
573.070	1	2
574.260	1	-3
575.449	1	3
576.638	1	-5
577.827	1	6
579.016	1	22
580.205	1	4
581.394	1	2
582.583	1	-3
583.772	1	0
584.961	1	7
586.150	1	-1
587.339	1	0
588.528	1	10
589.717	1	5
590.905	1	7
592.094	1	-1
593.283	1	4
594.471	1	-3
595.660	1	-7
596.848	1	7
598.037	1	-9
599.225	1	4
600.413	1	-3
601.602	1	1
602.790	1	-3
603.978	1	10
605.166	1	-10
606.355	1	10
607.543	1	-1
608.731	1	-9
609.919	1	-3
611.107	1	3
612.295	1	1
613.483	1	3
614.671	1	4
615.858	1	7
617.046	1	5
618.234	1	4
619.422	1	-1
620.609	1	1
621.797	1	-2
622.985	1	1
624.172	1	16
625.360	1	-10
626.547	1	6
627.735	1	8
628.922	1	6
630.109	1	-1
631.297	1	-4
632.484	1	-3
633.671	1	-1
634.858	1	5
636.045	1	-3
637.232	1	4
638.419	1	7
639.606	1	21
640.793	1	-5
641.980	1	-5
643.167	1	1
644.354	1	3
645.541	1	-2
646.728	1	2
647.914	1	-2
649.101	1	-2
650.288	1	-8
651.474	1	5
652.661	1	2
653.847	1	6
655.034	1	5
656.220	1	7
657.406	1	5
658.593	1	0
659.779	1	1
660.965	1	-1
662.152	1	2
663.338	1	-9
664.524	1	-9
665.710	1	-4
666.896	1	1
668.082	1	-1
669.268	1	-3
670.454	1	-7
671.640	1	-18
672.826	1	-16
674.011	1	2
675.197	1	-6
676.383	1	-2
677.569	1	-1
678.754	1	-11
679.940	1	-1
681.125	1	4
682.311	1	0
683.496	1	-6
684.682	1	3
685.867	1	-2
687.053	1	5
688.238	1	-1
688.746	1	7