File: Analysis/GaN_68K_200ms/GaN_sample E_spot4_UVVIS_68 K_200um_200 ms 2x2mm1_360.txt
340.368	1	3
341.565	1	-3
342.763	1	6
343.960	1	10
345.157	1	9
346.354	1	2
347.552	1	-1
348.749	1	6
349.946	1	9
351.143	1	0
352.340	1	5
353.537	1	3
354.734	1	2
355.931	1	2
357.127	1	7
358.324	1	-5
359.521	1	-2
360.718	1	-1
361.914	1	-1
363.111	1	1
364.308	1	-3
365.504	1	-5
366.701	1	-4
367.897	1	5
369.093	1	4
370.290	1	1
371.486	1	15
372.682	1	-8
373.879	1	11
375.075	1	10
376.271	1	3
377.467	1	-1
378.663	1	-13
379.859	1	-1
381.055	1	-4
382.251	1	14
383.447	1	8
384.643	1	13
385.839	1	7
387.035	1	11
388.230	1	3
389.426	1	13
390.622	1	0
391.817	1	2
393.013	1	7
394.208	1	8
395.404	1	15
396.599	1	11
397.795	1	16
398.990	1	14
400.186	1	12
401.381	1	15
402.576	1	24
403.771	1	9
404.967	1	11
406.162	1	4
407.357	1	2
408.552	1	8
409.747	1	-2
410.942	1	10
412.137	1	13
413.332	1	-1
414.526	1	3
415.721	1	-1
416.916	1	7
418.111	1	7
419.305	1	14
420.500	1	12
421.695	1	7
422.889	1	14
424.084	1	3
425.278	1	-5
426.472	1	14
427.667	1	10
428.861	1	-2
430.055	1	1
431.250	1	-3
432.444	1	3
433.638	1	4
434.832	1	-3
436.026	1	-1
437.220	1	14
438.414	1	4
439.608	1	8
440.802	1	5
441.996	1	4
443.190	1	-3
444.384	1	6
445.578	1	13
446.771	1	-1
447.965	1	-6
449.159	1	-4
450.352	1	7
451.546	1	10
452.739	1	1
453.933	1	3
455.126	1	0
456.320	1	-1
457.513	1	11
458.706	1	16
459.899	1	10
461.093	1	12
462.286	1	13
463.479	1	15
464.672	1	2
465.865	1	-6
467.058	1	13
468.251	1	1
469.444	1	-1
470.637	1	13
471.830	1	21
473.023	1	-4
474.215	1	-11
475.408	1	2
476.601	1	-11
477.793	1	5
478.986	1	16
480.179	1	3
481.371	1	2
482.564	1	-15
483.756	1	3
484.948	1	-6
486.141	1	-5
487.333	1	1
488.525	1	7
489.718	1	-1
490.910	1	6
492.102	1	5
493.294	1	5
494.486	1	4
495.678	1	16
496.870	1	5
498.062	1	3
499.254	1	1
500.446	1	8
501.638	1	4
502.829	1	5
504.021	1	25
505.213	1	4
506.404	1	6
507.596	1	0
508.788	1	-7
509.979	1	0
511.171	1	11
512.362	1	8
513.553	1	-4
514.745	1	1
515.936	1	10
517.127	1	9
518.319	1	0
519.510	1	7
520.701	1	8
521.892	1	4
523.083	1	1
524.274	1	-2
525.465	1	3
526.656	1	19
527.847	1	-1
529.038	1	10
530.229	1	4
531.419	1	6
532.610	1	6
533.801	1	7
534.991	1	12
536.182	1	9
537.373	1	1
538.563	1	9
539.754	1	-9
540.944	1	1
542.134	1	6
543.325	1	1
544.515	1	6
545.705	1	4
546.896	1	2
548.086	1	6
549.276	1	2
550.466	1	-3
551.656	1	-2
552.846	1	7
554.036	1	9
555.226	1	3
556.416	1	10
557.606	1	-5
558.796	1	-5
559.986	1	-5
561.175	1	3
562.365	1	8
563.555	1	14
564.744	1	9
565.934	1	1
567.123	1	15
568.313	1	-2
569.502	1	1
570.692	1	-1
571.881	1	10
573.070	1	9
574.260	1	1
575.449	1	11
576.638	1	3
577.827	1	9
579.016	1	16
580.205	1	9
581.394	1	-5
582.583	1	-1
583.772	1	6
584.961	1	0
586.150	1	1
587.339	1	7
588.528	1	12
589.717	1	2
590.905	1	9
592.094	1	3
593.283	1	4
594.471	1	3
595.660	1	5
596.848	1	2
598.037	1	7
599.225	1	2
600.413	1	-3
601.602	1	9
602.790	1	2
603.978	1	1
605.166	1	1
606.355	1	-3
607.543	1	-5
608.731	1	3
609.919	1	-2
611.107	1	8
612.295	1	8
613.483	1	2
614.671	1	1
615.858	1	3
617.046	1	3
618.234	1	0
619.422	1	3
620.609	1	2
621.797	1	5
622.985	1	5
624.172	1	21
625.360	1	0
626.547	1	0
627.735	1	5
628.922	1	-2
630.109	1	-2
631.297	1	3
632.484	1	4
633.671	1	4
634.858	1	7
636.045	1	6
637.232	1	2
638.419	1	10
639.606	1	14
640.793	1	8
641.980	1	3
643.167	1	12
644.354	1	-1
645.541	1	-12
646.728	1	6
647.914	1	-1
649.101	1	1
650.288	1	-3
651.474	1	12
652.661	1	2
653.847	1	6
655.034	1	12
656.220	1	6
657.406	1	-1
658.593	1	-2
659.779	1	5
660.965	1	-1
662.152	1	6
663.338	1	10
664.524	1	-8
665.710	1	-1
666.896	1	6
668.082	1	-8
669.268	1	1
670.454	1	-3
671.640	1	-9
672.826	1	-13
674.011	1	8
675.197	1	-5
676.383	1	-11
677.569	1	-1
678.754	1	3
679.940	1	3
681.125	1	6
682.311	1	5
683.496	1	-7
684.682	1	9
685.867	1	-2
687.053	1	-1
688.238	1	1
688.746	1	3