File: Analysis/GaN_68K_200ms/GaN_sample E_spot4_UVVIS_68 K_200um_200 ms 2x2mm1_768.txt
340.368	1	2
341.565	1	-14
342.763	1	0
343.960	1	-4
345.157	1	-1
346.354	1	-3
347.552	1	-1
348.749	1	-3
349.946	1	3
351.143	1	-1
352.340	1	1
353.537	1	-1
354.734	1	-4
355.931	1	9
357.127	1	4
358.324	1	4
359.521	1	-1
360.718	1	1
361.914	1	2
363.111	1	12
364.308	1	-4
365.504	1	1
366.701	1	1
367.897	1	-3
369.093	1	-3
370.290	1	-11
371.486	1	2
372.682	1	-9
373.879	1	9
375.075	1	4
376.271	1	-5
377.467	1	-5
378.663	1	-6
379.859	1	-2
381.055	1	2
382.251	1	4
383.447	1	6
384.643	1	2
385.839	1	3
387.035	1	-5
388.230	1	0
389.426	1	8
390.622	1	-4
391.817	1	-3
393.013	1	6
394.208	1	5
395.404	1	7
396.599	1	1
397.795	1	5
398.990	1	4
400.186	1	11
401.381	1	-3
402.576	1	14
403.771	1	4
404.967	1	7
406.162	1	-12
407.357	1	4
408.552	1	2
409.747	1	-4
410.942	1	2
412.137	1	2
413.332	1	-4
414.526	1	-4
415.721	1	3
416.916	1	-9
418.111	1	0
419.305	1	-3
420.500	1	-6
421.695	1	0
422.889	1	3
424.084	1	7
425.278	1	-1
426.472	1	-9
427.667	1	22
428.861	1	-3
430.055	1	-2
431.250	1	-9
432.444	1	-2
433.638	1	-4
434.832	1	-5
436.026	1	6
437.220	1	10
438.414	1	-1
439.608	1	5
440.802	1	5
441.996	1	4
443.190	1	-5
444.384	1	-4
445.578	1	12
446.771	1	0
447.965	1	-7
449.159	1	-10
450.352	1	4
451.546	1	-3
452.739	1	4
453.933	1	5
455.126	1	0
456.320	1	-5
457.513	1	16
458.706	1	-2
459.899	1	4
461.093	1	2
462.286	1	10
463.479	1	11
464.672	1	-5
465.865	1	-2
467.058	1	10
468.251	1	5
469.444	1	-10
470.637	1	8
471.830	1	10
473.023	1	-2
474.215	1	2
475.408	1	2
476.601	1	-4
477.793	1	4
478.986	1	-7
480.179	1	-4
481.371	1	2
482.564	1	-13
483.756	1	8
484.948	1	-2
486.141	1	-12
487.333	1	-2
488.525	1	-1
489.718	1	0
490.910	1	-6
492.102	1	-8
493.294	1	0
494.486	1	3
495.678	1	10
496.870	1	1
498.062	1	2
499.254	1	6
500.446	1	-2
501.638	1	2
502.829	1	4
504.021	1	13
505.213	1	-6
506.404	1	6
507.596	1	-1
508.788	1	0
509.979	1	0
511.171	1	10
512.362	1	-1
513.553	1	-8
514.745	1	-2
515.936	1	4
517.127	1	1
518.319	1	8
519.510	1	0
520.701	1	3
521.892	1	-12
523.083	1	-2
524.274	1	-7
525.465	1	1
526.656	1	6
527.847	1	-7
529.038	1	1
530.229	1	15
531.419	1	1
532.610	1	-4
533.801	1	4
534.991	1	-4
536.182	1	-3
537.373	1	-4
538.563	1	2
539.754	1	-2
540.944	1	-2
542.134	1	2
543.325	1	-10
544.515	1	-6
545.705	1	12
546.896	1	-5
548.086	1	7
549.276	1	2
550.466	1	5
551.656	1	-5
552.846	1	6
554.036	1	-8
555.226	1	-11
556.416	1	-6
557.606	1	-14
558.796	1	-2
559.986	1	-4
561.175	1	4
562.365	1	0
563.555	1	7
564.744	1	-5
565.934	1	7
567.123	1	17
568.313	1	0
569.502	1	0
570.692	1	1
571.881	1	7
573.070	1	-3
574.260	1	-1
575.449	1	4
576.638	1	11
577.827	1	4
579.016	1	2
580.205	1	-5
581.394	1	-5
582.583	1	-3
583.772	1	1
584.961	1	1
586.150	1	6
587.339	1	10
588.528	1	5
589.717	1	-4
590.905	1	8
592.094	1	-1
593.283	1	2
594.471	1	6
595.660	1	-10
596.848	1	10
598.037	1	2
599.225	1	2
600.413	1	-2
601.602	1	5
602.790	1	3
603.978	1	-5
605.166	1	-10
606.355	1	1
607.543	1	-7
608.731	1	-7
609.919	1	-16
611.107	1	5
612.295	1	-8
613.483	1	-6
614.671	1	-3
615.858	1	-3
617.046	1	0
618.234	1	6
619.422	1	-4
620.609	1	-2
621.797	1	1
622.985	1	7
624.172	1	4
625.360	1	-7
626.547	1	3
627.735	1	8
628.922	1	2
630.109	1	-7
631.297	1	2
632.484	1	-13
633.671	1	-3
634.858	1	-7
636.045	1	-5
637.232	1	-3
638.419	1	10
639.606	1	0
640.793	1	0
641.980	1	-5
643.167	1	2
644.354	1	-1
645.541	1	-5
646.728	1	12
647.914	1	1
649.101	1	-6
650.288	1	-10
651.474	1	2
652.661	1	5
653.847	1	-1
655.034	1	3
656.220	1	4
657.406	1	5
658.593	1	-7
659.779	1	-2
660.965	1	-6
662.152	1	-2
663.338	1	-2
664.524	1	-10
665.710	1	-10
666.896	1	-3
668.082	1	-6
669.268	1	-1
670.454	1	6
671.640	1	-11
672.826	1	-18
674.011	1	8
675.197	1	-6
676.383	1	-7
677.569	1	-2
678.754	1	-2
679.940	1	-2
681.125	1	-5
682.311	1	-2
683.496	1	-5
684.682	1	-1
685.867	1	9
687.053	1	5
688.238	1	-2
688.746	1	4