File: Analysis/GaN_68K_200ms/GaN_sample E_spot4_UVVIS_68 K_200um_200 ms 2x2mm1_177.txt
340.368	1	0
341.565	1	-8
342.763	1	4
343.960	1	2
345.157	1	13
346.354	1	3
347.552	1	-1
348.749	1	7
349.946	1	4
351.143	1	-4
352.340	1	-4
353.537	1	5
354.734	1	4
355.931	1	1
357.127	1	12
358.324	1	14
359.521	1	5
360.718	1	9
361.914	1	4
363.111	1	21
364.308	1	18
365.504	1	16
366.701	1	22
367.897	1	25
369.093	1	19
370.290	1	9
371.486	1	21
372.682	1	13
373.879	1	26
375.075	1	20
376.271	1	9
377.467	1	17
378.663	1	10
379.859	1	11
381.055	1	14
382.251	1	22
383.447	1	26
384.643	1	27
385.839	1	23
387.035	1	26
388.230	1	18
389.426	1	27
390.622	1	21
391.817	1	14
393.013	1	28
394.208	1	29
395.404	1	27
396.599	1	27
397.795	1	33
398.990	1	35
400.186	1	21
401.381	1	22
402.576	1	29
403.771	1	34
404.967	1	17
406.162	1	12
407.357	1	21
408.552	1	17
409.747	1	14
410.942	1	18
412.137	1	25
413.332	1	16
414.526	1	21
415.721	1	2
416.916	1	10
418.111	1	11
419.305	1	10
420.500	1	16
421.695	1	23
422.889	1	8
424.084	1	8
425.278	1	6
426.472	1	3
427.667	1	14
428.861	1	14
430.055	1	8
431.250	1	3
432.444	1	18
433.638	1	2
434.832	1	6
436.026	1	24
437.220	1	21
438.414	1	12
439.608	1	8
440.802	1	19
441.996	1	12
443.190	1	-3
444.384	1	4
445.578	1	12
446.771	1	5
447.965	1	8
449.159	1	-3
450.352	1	15
451.546	1	16
452.739	1	2
453.933	1	12
455.126	1	10
456.320	1	9
457.513	1	16
458.706	1	9
459.899	1	17
461.093	1	9
462.286	1	13
463.479	1	10
464.672	1	10
465.865	1	5
467.058	1	12
468.251	1	-4
469.444	1	10
470.637	1	16
471.830	1	15
473.023	1	3
474.215	1	-5
475.408	1	8
476.601	1	6
477.793	1	13
478.986	1	10
480.179	1	5
481.371	1	10
482.564	1	3
483.756	1	9
484.948	1	1
486.141	1	1
487.333	1	1
488.525	1	8
489.718	1	-3
490.910	1	9
492.102	1	5
493.294	1	14
494.486	1	14
495.678	1	23
496.870	1	8
498.062	1	7
499.254	1	6
500.446	1	18
501.638	1	6
502.829	1	12
504.021	1	25
505.213	1	10
506.404	1	3
507.596	1	16
508.788	1	20
509.979	1	14
511.171	1	28
512.362	1	16
513.553	1	10
514.745	1	13
515.936	1	18
517.127	1	22
518.319	1	12
519.510	1	14
520.701	1	22
521.892	1	8
523.083	1	22
524.274	1	16
525.465	1	16
526.656	1	32
527.847	1	5
529.038	1	36
530.229	1	21
531.419	1	24
532.610	1	16
533.801	1	20
534.991	1	18
536.182	1	15
537.373	1	17
538.563	1	21
539.754	1	9
540.944	1	15
542.134	1	26
543.325	1	12
544.515	1	17
545.705	1	20
546.896	1	14
548.086	1	31
549.276	1	17
550.466	1	10
551.656	1	9
552.846	1	19
554.036	1	13
555.226	1	4
556.416	1	20
557.606	1	2
558.796	1	15
559.986	1	3
561.175	1	13
562.365	1	18
563.555	1	13
564.744	1	9
565.934	1	24
567.123	1	28
568.313	1	2
569.502	1	10
570.692	1	16
571.881	1	15
573.070	1	8
574.260	1	-2
575.449	1	10
576.638	1	5
577.827	1	28
579.016	1	15
580.205	1	11
581.394	1	9
582.583	1	-2
583.772	1	9
584.961	1	9
586.150	1	8
587.339	1	16
588.528	1	9
589.717	1	6
590.905	1	6
592.094	1	13
593.283	1	6
594.471	1	5
595.660	1	2
596.848	1	7
598.037	1	3
599.225	1	6
600.413	1	1
601.602	1	13
602.790	1	-1
603.978	1	6
605.166	1	-2
606.355	1	17
607.543	1	-2
608.731	1	11
609.919	1	-2
611.107	1	13
612.295	1	11
613.483	1	18
614.671	1	4
615.858	1	14
617.046	1	9
618.234	1	9
619.422	1	-1
620.609	1	3
621.797	1	11
622.985	1	5
624.172	1	19
625.360	1	-4
626.547	1	7
627.735	1	18
628.922	1	-2
630.109	1	-3
631.297	1	3
632.484	1	-3
633.671	1	4
634.858	1	12
636.045	1	10
637.232	1	12
638.419	1	15
639.606	1	11
640.793	1	14
641.980	1	2
643.167	1	11
644.354	1	-1
645.541	1	-1
646.728	1	5
647.914	1	-3
649.101	1	6
650.288	1	0
651.474	1	11
652.661	1	1
653.847	1	6
655.034	1	4
656.220	1	10
657.406	1	7
658.593	1	-1
659.779	1	5
660.965	1	7
662.152	1	-7
663.338	1	-7
664.524	1	-5
665.710	1	0
666.896	1	0
668.082	1	7
669.268	1	4
670.454	1	12
671.640	1	-8
672.826	1	-9
674.011	1	10
675.197	1	2
676.383	1	4
677.569	1	-1
678.754	1	-1
679.940	1	-2
681.125	1	10
682.311	1	3
683.496	1	-4
684.682	1	14
685.867	1	-3
687.053	1	1
688.238	1	4
688.746	1	10