File: Analysis/GaN_68K_200ms/GaN_sample E_spot4_UVVIS_68 K_200um_200 ms 2x2mm1_815.txt
340.368	1	-4
341.565	1	-2
342.763	1	-4
343.960	1	-4
345.157	1	4
346.354	1	-2
347.552	1	1
348.749	1	-1
349.946	1	-2
351.143	1	-14
352.340	1	-3
353.537	1	2
354.734	1	-3
355.931	1	1
357.127	1	-4
358.324	1	5
359.521	1	-1
360.718	1	0
361.914	1	0
363.111	1	8
364.308	1	0
365.504	1	-8
366.701	1	-13
367.897	1	2
369.093	1	6
370.290	1	-3
371.486	1	16
372.682	1	-8
373.879	1	6
375.075	1	18
376.271	1	-4
377.467	1	-7
378.663	1	-9
379.859	1	1
381.055	1	7
382.251	1	-6
383.447	1	11
384.643	1	8
385.839	1	11
387.035	1	1
388.230	1	-2
389.426	1	12
390.622	1	-6
391.817	1	-5
393.013	1	8
394.208	1	-1
395.404	1	2
396.599	1	8
397.795	1	1
398.990	1	0
400.186	1	4
401.381	1	9
402.576	1	8
403.771	1	-2
404.967	1	0
406.162	1	-1
407.357	1	6
408.552	1	2
409.747	1	0
410.942	1	10
412.137	1	12
413.332	1	-1
414.526	1	3
415.721	1	-5
416.916	1	-1
418.111	1	-2
419.305	1	-1
420.500	1	-3
421.695	1	1
422.889	1	1
424.084	1	-3
425.278	1	-9
426.472	1	-4
427.667	1	4
428.861	1	-3
430.055	1	1
431.250	1	-2
432.444	1	4
433.638	1	-3
434.832	1	-10
436.026	1	-4
437.220	1	9
438.414	1	6
439.608	1	2
440.802	1	5
441.996	1	-6
443.190	1	-14
444.384	1	7
445.578	1	7
446.771	1	3
447.965	1	-13
449.159	1	3
450.352	1	11
451.546	1	2
452.739	1	-10
453.933	1	1
455.126	1	4
456.320	1	0
457.513	1	4
458.706	1	8
459.899	1	3
461.093	1	6
462.286	1	4
463.479	1	8
464.672	1	1
465.865	1	3
467.058	1	10
468.251	1	-12
469.444	1	-6
470.637	1	9
471.830	1	4
473.023	1	-10
474.215	1	-7
475.408	1	0
476.601	1	-5
477.793	1	-1
478.986	1	-6
480.179	1	1
481.371	1	-8
482.564	1	-10
483.756	1	6
484.948	1	-4
486.141	1	-12
487.333	1	9
488.525	1	-8
489.718	1	1
490.910	1	-7
492.102	1	0
493.294	1	3
494.486	1	2
495.678	1	8
496.870	1	0
498.062	1	-5
499.254	1	2
500.446	1	9
501.638	1	5
502.829	1	0
504.021	1	12
505.213	1	1
506.404	1	-10
507.596	1	9
508.788	1	6
509.979	1	1
511.171	1	9
512.362	1	0
513.553	1	-9
514.745	1	-7
515.936	1	-2
517.127	1	-6
518.319	1	-12
519.510	1	-4
520.701	1	0
521.892	1	-12
523.083	1	-1
524.274	1	-5
525.465	1	9
526.656	1	14
527.847	1	-12
529.038	1	8
530.229	1	-2
531.419	1	3
532.610	1	-4
533.801	1	9
534.991	1	2
536.182	1	-2
537.373	1	-5
538.563	1	3
539.754	1	-4
540.944	1	-3
542.134	1	4
543.325	1	-1
544.515	1	-6
545.705	1	2
546.896	1	-6
548.086	1	3
549.276	1	2
550.466	1	-2
551.656	1	-3
552.846	1	7
554.036	1	1
555.226	1	-5
556.416	1	1
557.606	1	-11
558.796	1	-3
559.986	1	-2
561.175	1	3
562.365	1	2
563.555	1	3
564.744	1	6
565.934	1	4
567.123	1	17
568.313	1	-7
569.502	1	7
570.692	1	-3
571.881	1	4
573.070	1	-1
574.260	1	-5
575.449	1	-6
576.638	1	13
577.827	1	6
579.016	1	10
580.205	1	7
581.394	1	-1
582.583	1	-5
583.772	1	-1
584.961	1	3
586.150	1	-2
587.339	1	1
588.528	1	11
589.717	1	1
590.905	1	-3
592.094	1	-2
593.283	1	7
594.471	1	4
595.660	1	-10
596.848	1	5
598.037	1	5
599.225	1	-1
600.413	1	-3
601.602	1	2
602.790	1	3
603.978	1	-1
605.166	1	-5
606.355	1	15
607.543	1	-14
608.731	1	-10
609.919	1	-1
611.107	1	9
612.295	1	6
613.483	1	3
614.671	1	5
615.858	1	4
617.046	1	-1
618.234	1	4
619.422	1	-1
620.609	1	-10
621.797	1	-2
622.985	1	0
624.172	1	15
625.360	1	-9
626.547	1	-3
627.735	1	0
628.922	1	-11
630.109	1	-4
631.297	1	-7
632.484	1	-5
633.671	1	-9
634.858	1	2
636.045	1	-4
637.232	1	-2
638.419	1	6
639.606	1	5
640.793	1	12
641.980	1	-8
643.167	1	9
644.354	1	-1
645.541	1	-11
646.728	1	4
647.914	1	-6
649.101	1	0
650.288	1	-11
651.474	1	9
652.661	1	-1
653.847	1	10
655.034	1	1
656.220	1	4
657.406	1	5
658.593	1	-9
659.779	1	0
660.965	1	4
662.152	1	4
663.338	1	-10
664.524	1	0
665.710	1	-9
666.896	1	-6
668.082	1	-1
669.268	1	4
670.454	1	6
671.640	1	-21
672.826	1	-13
674.011	1	3
675.197	1	-9
676.383	1	0
677.569	1	-2
678.754	1	-5
679.940	1	-8
681.125	1	9
682.311	1	-12
683.496	1	0
684.682	1	12
685.867	1	7
687.053	1	9
688.238	1	1
688.746	1	1