File: Analysis/GaN_68K_200ms/GaN_sample E_spot4_UVVIS_68 K_200um_200 ms 2x2mm1_168.txt
340.368	1	13
341.565	1	-4
342.763	1	3
343.960	1	-3
345.157	1	4
346.354	1	0
347.552	1	6
348.749	1	12
349.946	1	13
351.143	1	-2
352.340	1	-1
353.537	1	0
354.734	1	12
355.931	1	1
357.127	1	10
358.324	1	10
359.521	1	4
360.718	1	9
361.914	1	10
363.111	1	25
364.308	1	32
365.504	1	20
366.701	1	39
367.897	1	31
369.093	1	41
370.290	1	16
371.486	1	17
372.682	1	9
373.879	1	30
375.075	1	9
376.271	1	7
377.467	1	7
378.663	1	4
379.859	1	15
381.055	1	14
382.251	1	24
383.447	1	32
384.643	1	32
385.839	1	42
387.035	1	40
388.230	1	47
389.426	1	44
390.622	1	26
391.817	1	37
393.013	1	40
394.208	1	40
395.404	1	36
396.599	1	34
397.795	1	31
398.990	1	35
400.186	1	37
401.381	1	35
402.576	1	32
403.771	1	27
404.967	1	34
406.162	1	20
407.357	1	17
408.552	1	26
409.747	1	25
410.942	1	19
412.137	1	25
413.332	1	16
414.526	1	19
415.721	1	24
416.916	1	21
418.111	1	15
419.305	1	15
420.500	1	24
421.695	1	16
422.889	1	19
424.084	1	18
425.278	1	11
426.472	1	6
427.667	1	25
428.861	1	17
430.055	1	15
431.250	1	5
432.444	1	13
433.638	1	7
434.832	1	2
436.026	1	4
437.220	1	20
438.414	1	14
439.608	1	9
440.802	1	14
441.996	1	2
443.190	1	2
444.384	1	17
445.578	1	17
446.771	1	9
447.965	1	8
449.159	1	-2
450.352	1	17
451.546	1	21
452.739	1	7
453.933	1	11
455.126	1	8
456.320	1	6
457.513	1	8
458.706	1	6
459.899	1	15
461.093	1	9
462.286	1	15
463.479	1	21
464.672	1	9
465.865	1	-5
467.058	1	10
468.251	1	5
469.444	1	1
470.637	1	20
471.830	1	16
473.023	1	-2
474.215	1	0
475.408	1	11
476.601	1	6
477.793	1	13
478.986	1	3
480.179	1	10
481.371	1	8
482.564	1	-12
483.756	1	14
484.948	1	1
486.141	1	5
487.333	1	6
488.525	1	8
489.718	1	4
490.910	1	6
492.102	1	5
493.294	1	17
494.486	1	12
495.678	1	18
496.870	1	17
498.062	1	6
499.254	1	14
500.446	1	25
501.638	1	14
502.829	1	12
504.021	1	31
505.213	1	17
506.404	1	11
507.596	1	24
508.788	1	21
509.979	1	12
511.171	1	32
512.362	1	22
513.553	1	13
514.745	1	23
515.936	1	25
517.127	1	22
518.319	1	28
519.510	1	33
520.701	1	33
521.892	1	23
523.083	1	23
524.274	1	22
525.465	1	24
526.656	1	41
527.847	1	23
529.038	1	32
530.229	1	37
531.419	1	34
532.610	1	18
533.801	1	32
534.991	1	32
536.182	1	37
537.373	1	20
538.563	1	29
539.754	1	16
540.944	1	31
542.134	1	22
543.325	1	25
544.515	1	28
545.705	1	35
546.896	1	22
548.086	1	26
549.276	1	38
550.466	1	8
551.656	1	26
552.846	1	28
554.036	1	29
555.226	1	17
556.416	1	24
557.606	1	0
558.796	1	15
559.986	1	14
561.175	1	21
562.365	1	10
563.555	1	22
564.744	1	21
565.934	1	17
567.123	1	21
568.313	1	8
569.502	1	16
570.692	1	19
571.881	1	26
573.070	1	23
574.260	1	16
575.449	1	15
576.638	1	7
577.827	1	19
579.016	1	18
580.205	1	17
581.394	1	8
582.583	1	2
583.772	1	14
584.961	1	8
586.150	1	12
587.339	1	12
588.528	1	16
589.717	1	16
590.905	1	8
592.094	1	3
593.283	1	9
594.471	1	6
595.660	1	-2
596.848	1	17
598.037	1	13
599.225	1	3
600.413	1	8
601.602	1	11
602.790	1	14
603.978	1	7
605.166	1	3
606.355	1	13
607.543	1	4
608.731	1	8
609.919	1	3
611.107	1	15
612.295	1	6
613.483	1	8
614.671	1	6
615.858	1	10
617.046	1	5
618.234	1	-1
619.422	1	7
620.609	1	5
621.797	1	0
622.985	1	2
624.172	1	16
625.360	1	4
626.547	1	4
627.735	1	7
628.922	1	2
630.109	1	3
631.297	1	-3
632.484	1	5
633.671	1	4
634.858	1	3
636.045	1	9
637.232	1	2
638.419	1	13
639.606	1	18
640.793	1	8
641.980	1	8
643.167	1	19
644.354	1	4
645.541	1	7
646.728	1	14
647.914	1	2
649.101	1	-2
650.288	1	-2
651.474	1	11
652.661	1	3
653.847	1	11
655.034	1	6
656.220	1	3
657.406	1	18
658.593	1	-7
659.779	1	2
660.965	1	2
662.152	1	6
663.338	1	-4
664.524	1	-4
665.710	1	2
666.896	1	-1
668.082	1	1
669.268	1	0
670.454	1	0
671.640	1	-8
672.826	1	-10
674.011	1	3
675.197	1	2
676.383	1	6
677.569	1	-3
678.754	1	3
679.940	1	9
681.125	1	8
682.311	1	4
683.496	1	9
684.682	1	7
685.867	1	1
687.053	1	6
688.238	1	3
688.746	1	4