File: Analysis/GaN_68K_200ms/GaN_sample E_spot4_UVVIS_68 K_200um_200 ms 2x2mm1_366.txt
340.368	1	-2
341.565	1	0
342.763	1	-1
343.960	1	-10
345.157	1	6
346.354	1	0
347.552	1	-5
348.749	1	11
349.946	1	11
351.143	1	-13
352.340	1	3
353.537	1	-10
354.734	1	6
355.931	1	5
357.127	1	-2
358.324	1	-1
359.521	1	3
360.718	1	2
361.914	1	-1
363.111	1	-2
364.308	1	-5
365.504	1	2
366.701	1	6
367.897	1	4
369.093	1	-5
370.290	1	-3
371.486	1	14
372.682	1	6
373.879	1	19
375.075	1	13
376.271	1	4
377.467	1	0
378.663	1	0
379.859	1	-2
381.055	1	1
382.251	1	5
383.447	1	11
384.643	1	18
385.839	1	4
387.035	1	1
388.230	1	1
389.426	1	8
390.622	1	-5
391.817	1	2
393.013	1	6
394.208	1	6
395.404	1	21
396.599	1	4
397.795	1	4
398.990	1	9
400.186	1	15
401.381	1	13
402.576	1	19
403.771	1	17
404.967	1	6
406.162	1	4
407.357	1	8
408.552	1	10
409.747	1	3
410.942	1	11
412.137	1	10
413.332	1	1
414.526	1	5
415.721	1	2
416.916	1	1
418.111	1	7
419.305	1	4
420.500	1	15
421.695	1	6
422.889	1	6
424.084	1	10
425.278	1	2
426.472	1	-7
427.667	1	17
428.861	1	-2
430.055	1	-4
431.250	1	-3
432.444	1	2
433.638	1	3
434.832	1	-1
436.026	1	4
437.220	1	2
438.414	1	9
439.608	1	7
440.802	1	-4
441.996	1	8
443.190	1	-9
444.384	1	11
445.578	1	16
446.771	1	0
447.965	1	-13
449.159	1	2
450.352	1	6
451.546	1	3
452.739	1	4
453.933	1	9
455.126	1	-3
456.320	1	5
457.513	1	9
458.706	1	6
459.899	1	8
461.093	1	13
462.286	1	11
463.479	1	5
464.672	1	0
465.865	1	1
467.058	1	15
468.251	1	-7
469.444	1	2
470.637	1	15
471.830	1	10
473.023	1	-5
474.215	1	-3
475.408	1	6
476.601	1	-16
477.793	1	8
478.986	1	-2
480.179	1	3
481.371	1	4
482.564	1	-2
483.756	1	9
484.948	1	0
486.141	1	-12
487.333	1	-3
488.525	1	-1
489.718	1	-5
490.910	1	-6
492.102	1	3
493.294	1	8
494.486	1	-1
495.678	1	10
496.870	1	0
498.062	1	10
499.254	1	2
500.446	1	5
501.638	1	6
502.829	1	8
504.021	1	19
505.213	1	5
506.404	1	-14
507.596	1	4
508.788	1	1
509.979	1	-1
511.171	1	13
512.362	1	0
513.553	1	-2
514.745	1	-9
515.936	1	18
517.127	1	8
518.319	1	5
519.510	1	-1
520.701	1	15
521.892	1	-3
523.083	1	5
524.274	1	0
525.465	1	-2
526.656	1	17
527.847	1	-4
529.038	1	1
530.229	1	7
531.419	1	17
532.610	1	6
533.801	1	6
534.991	1	8
536.182	1	3
537.373	1	-9
538.563	1	-5
539.754	1	4
540.944	1	-2
542.134	1	10
543.325	1	10
544.515	1	10
545.705	1	9
546.896	1	5
548.086	1	8
549.276	1	9
550.466	1	-1
551.656	1	-9
552.846	1	7
554.036	1	7
555.226	1	-4
556.416	1	10
557.606	1	-7
558.796	1	6
559.986	1	1
561.175	1	-6
562.365	1	4
563.555	1	18
564.744	1	7
565.934	1	11
567.123	1	15
568.313	1	-8
569.502	1	-4
570.692	1	5
571.881	1	8
573.070	1	8
574.260	1	-5
575.449	1	-4
576.638	1	-1
577.827	1	8
579.016	1	5
580.205	1	3
581.394	1	0
582.583	1	0
583.772	1	6
584.961	1	12
586.150	1	-3
587.339	1	4
588.528	1	5
589.717	1	-5
590.905	1	8
592.094	1	-5
593.283	1	11
594.471	1	2
595.660	1	-4
596.848	1	6
598.037	1	8
599.225	1	5
600.413	1	2
601.602	1	-1
602.790	1	4
603.978	1	-3
605.166	1	3
606.355	1	7
607.543	1	12
608.731	1	-13
609.919	1	-5
611.107	1	12
612.295	1	5
613.483	1	6
614.671	1	6
615.858	1	5
617.046	1	6
618.234	1	-2
619.422	1	0
620.609	1	3
621.797	1	4
622.985	1	-1
624.172	1	13
625.360	1	-6
626.547	1	-4
627.735	1	6
628.922	1	6
630.109	1	-5
631.297	1	-4
632.484	1	3
633.671	1	-3
634.858	1	13
636.045	1	-1
637.232	1	3
638.419	1	10
639.606	1	3
640.793	1	8
641.980	1	8
643.167	1	7
644.354	1	-4
645.541	1	-2
646.728	1	3
647.914	1	2
649.101	1	-8
650.288	1	-5
651.474	1	-1
652.661	1	9
653.847	1	4
655.034	1	1
656.220	1	7
657.406	1	0
658.593	1	-6
659.779	1	-6
660.965	1	12
662.152	1	5
663.338	1	-3
664.524	1	0
665.710	1	-1
666.896	1	-2
668.082	1	-1
669.268	1	16
670.454	1	5
671.640	1	-9
672.826	1	-22
674.011	1	4
675.197	1	1
676.383	1	-4
677.569	1	-3
678.754	1	-4
679.940	1	-3
681.125	1	5
682.311	1	4
683.496	1	-2
684.682	1	10
685.867	1	-4
687.053	1	-1
688.238	1	-1
688.746	1	0