File: Analysis/GaN_68K_200ms/GaN_sample E_spot4_UVVIS_68 K_200um_200 ms 2x2mm1_587.txt
340.368	1	-1
341.565	1	-7
342.763	1	-5
343.960	1	-3
345.157	1	6
346.354	1	1
347.552	1	2
348.749	1	-1
349.946	1	6
351.143	1	-3
352.340	1	2
353.537	1	3
354.734	1	-8
355.931	1	-3
357.127	1	1
358.324	1	6
359.521	1	5
360.718	1	-1
361.914	1	3
363.111	1	10
364.308	1	-3
365.504	1	-6
366.701	1	-11
367.897	1	0
369.093	1	-2
370.290	1	-7
371.486	1	-2
372.682	1	1
373.879	1	7
375.075	1	-4
376.271	1	-5
377.467	1	-1
378.663	1	2
379.859	1	-1
381.055	1	3
382.251	1	3
383.447	1	11
384.643	1	5
385.839	1	4
387.035	1	4
388.230	1	0
389.426	1	9
390.622	1	-2
391.817	1	1
393.013	1	11
394.208	1	7
395.404	1	4
396.599	1	0
397.795	1	-2
398.990	1	3
400.186	1	-4
401.381	1	11
402.576	1	8
403.771	1	-1
404.967	1	-1
406.162	1	-7
407.357	1	6
408.552	1	2
409.747	1	-9
410.942	1	7
412.137	1	13
413.332	1	10
414.526	1	2
415.721	1	-1
416.916	1	0
418.111	1	-4
419.305	1	-5
420.500	1	5
421.695	1	1
422.889	1	1
424.084	1	-5
425.278	1	-11
426.472	1	5
427.667	1	-3
428.861	1	-2
430.055	1	6
431.250	1	-9
432.444	1	3
433.638	1	6
434.832	1	-4
436.026	1	1
437.220	1	8
438.414	1	3
439.608	1	2
440.802	1	6
441.996	1	0
443.190	1	-4
444.384	1	5
445.578	1	6
446.771	1	-6
447.965	1	-6
449.159	1	-5
450.352	1	8
451.546	1	-2
452.739	1	-1
453.933	1	0
455.126	1	5
456.320	1	-5
457.513	1	11
458.706	1	4
459.899	1	3
461.093	1	16
462.286	1	9
463.479	1	13
464.672	1	-6
465.865	1	-3
467.058	1	6
468.251	1	-3
469.444	1	3
470.637	1	16
471.830	1	17
473.023	1	-3
474.215	1	-10
475.408	1	7
476.601	1	1
477.793	1	15
478.986	1	-5
480.179	1	-5
481.371	1	2
482.564	1	-2
483.756	1	13
484.948	1	-5
486.141	1	-9
487.333	1	3
488.525	1	-4
489.718	1	0
490.910	1	-3
492.102	1	-5
493.294	1	-1
494.486	1	0
495.678	1	11
496.870	1	4
498.062	1	3
499.254	1	-4
500.446	1	8
501.638	1	7
502.829	1	-6
504.021	1	17
505.213	1	-4
506.404	1	-7
507.596	1	2
508.788	1	-1
509.979	1	-1
511.171	1	15
512.362	1	6
513.553	1	-14
514.745	1	-3
515.936	1	7
517.127	1	-1
518.319	1	-4
519.510	1	-2
520.701	1	3
521.892	1	-8
523.083	1	-7
524.274	1	-8
525.465	1	2
526.656	1	13
527.847	1	-5
529.038	1	3
530.229	1	8
531.419	1	8
532.610	1	3
533.801	1	-4
534.991	1	7
536.182	1	-3
537.373	1	1
538.563	1	5
539.754	1	0
540.944	1	-2
542.134	1	6
543.325	1	2
544.515	1	3
545.705	1	7
546.896	1	3
548.086	1	-3
549.276	1	7
550.466	1	0
551.656	1	-2
552.846	1	-7
554.036	1	3
555.226	1	-4
556.416	1	-2
557.606	1	0
558.796	1	1
559.986	1	-3
561.175	1	2
562.365	1	1
563.555	1	7
564.744	1	3
565.934	1	-1
567.123	1	4
568.313	1	0
569.502	1	2
570.692	1	9
571.881	1	-5
573.070	1	8
574.260	1	-1
575.449	1	6
576.638	1	2
577.827	1	11
579.016	1	17
580.205	1	6
581.394	1	-5
582.583	1	-6
583.772	1	2
584.961	1	6
586.150	1	-2
587.339	1	-1
588.528	1	5
589.717	1	1
590.905	1	10
592.094	1	2
593.283	1	7
594.471	1	8
595.660	1	-11
596.848	1	5
598.037	1	-6
599.225	1	-2
600.413	1	2
601.602	1	1
602.790	1	-2
603.978	1	-4
605.166	1	2
606.355	1	10
607.543	1	-7
608.731	1	-8
609.919	1	1
611.107	1	0
612.295	1	-3
613.483	1	6
614.671	1	2
615.858	1	7
617.046	1	1
618.234	1	9
619.422	1	9
620.609	1	4
621.797	1	-7
622.985	1	-5
624.172	1	12
625.360	1	-5
626.547	1	-5
627.735	1	5
628.922	1	-4
630.109	1	-6
631.297	1	-12
632.484	1	-9
633.671	1	7
634.858	1	3
636.045	1	5
637.232	1	1
638.419	1	7
639.606	1	12
640.793	1	8
641.980	1	-3
643.167	1	0
644.354	1	0
645.541	1	-12
646.728	1	6
647.914	1	-6
649.101	1	0
650.288	1	2
651.474	1	6
652.661	1	-7
653.847	1	-2
655.034	1	6
656.220	1	-4
657.406	1	0
658.593	1	-1
659.779	1	2
660.965	1	2
662.152	1	14
663.338	1	-9
664.524	1	-8
665.710	1	-2
666.896	1	-2
668.082	1	0
669.268	1	-5
670.454	1	-1
671.640	1	-10
672.826	1	-13
674.011	1	4
675.197	1	-3
676.383	1	-10
677.569	1	-6
678.754	1	-5
679.940	1	-6
681.125	1	4
682.311	1	4
683.496	1	-5
684.682	1	8
685.867	1	-2
687.053	1	-2
688.238	1	-4
688.746	1	0