File: Analysis/GaN_68K_200ms/GaN_sample E_spot4_UVVIS_68 K_200um_200 ms 2x2mm1_182.txt
340.368	1	7
341.565	1	-13
342.763	1	5
343.960	1	0
345.157	1	12
346.354	1	3
347.552	1	3
348.749	1	14
349.946	1	17
351.143	1	-8
352.340	1	5
353.537	1	8
354.734	1	0
355.931	1	4
357.127	1	12
358.324	1	5
359.521	1	6
360.718	1	4
361.914	1	15
363.111	1	23
364.308	1	15
365.504	1	12
366.701	1	26
367.897	1	28
369.093	1	20
370.290	1	19
371.486	1	30
372.682	1	7
373.879	1	19
375.075	1	15
376.271	1	17
377.467	1	4
378.663	1	3
379.859	1	9
381.055	1	10
382.251	1	19
383.447	1	26
384.643	1	34
385.839	1	29
387.035	1	22
388.230	1	28
389.426	1	40
390.622	1	30
391.817	1	32
393.013	1	29
394.208	1	36
395.404	1	22
396.599	1	32
397.795	1	29
398.990	1	33
400.186	1	40
401.381	1	21
402.576	1	31
403.771	1	26
404.967	1	27
406.162	1	18
407.357	1	24
408.552	1	21
409.747	1	15
410.942	1	12
412.137	1	22
413.332	1	3
414.526	1	21
415.721	1	5
416.916	1	19
418.111	1	14
419.305	1	12
420.500	1	18
421.695	1	18
422.889	1	14
424.084	1	21
425.278	1	0
426.472	1	11
427.667	1	21
428.861	1	15
430.055	1	20
431.250	1	8
432.444	1	9
433.638	1	3
434.832	1	-3
436.026	1	8
437.220	1	10
438.414	1	10
439.608	1	15
440.802	1	12
441.996	1	7
443.190	1	0
444.384	1	11
445.578	1	9
446.771	1	7
447.965	1	2
449.159	1	0
450.352	1	17
451.546	1	9
452.739	1	2
453.933	1	14
455.126	1	2
456.320	1	-3
457.513	1	12
458.706	1	18
459.899	1	8
461.093	1	11
462.286	1	10
463.479	1	7
464.672	1	5
465.865	1	3
467.058	1	14
468.251	1	2
469.444	1	8
470.637	1	15
471.830	1	15
473.023	1	0
474.215	1	3
475.408	1	5
476.601	1	-3
477.793	1	18
478.986	1	9
480.179	1	6
481.371	1	3
482.564	1	-2
483.756	1	14
484.948	1	1
486.141	1	-1
487.333	1	10
488.525	1	6
489.718	1	10
490.910	1	1
492.102	1	12
493.294	1	12
494.486	1	10
495.678	1	17
496.870	1	2
498.062	1	18
499.254	1	0
500.446	1	14
501.638	1	11
502.829	1	11
504.021	1	17
505.213	1	20
506.404	1	13
507.596	1	16
508.788	1	13
509.979	1	15
511.171	1	21
512.362	1	14
513.553	1	9
514.745	1	12
515.936	1	22
517.127	1	17
518.319	1	16
519.510	1	13
520.701	1	29
521.892	1	8
523.083	1	11
524.274	1	15
525.465	1	26
526.656	1	36
527.847	1	23
529.038	1	28
530.229	1	30
531.419	1	25
532.610	1	17
533.801	1	26
534.991	1	28
536.182	1	16
537.373	1	12
538.563	1	14
539.754	1	19
540.944	1	8
542.134	1	20
543.325	1	21
544.515	1	20
545.705	1	23
546.896	1	12
548.086	1	25
549.276	1	37
550.466	1	18
551.656	1	10
552.846	1	20
554.036	1	24
555.226	1	10
556.416	1	7
557.606	1	12
558.796	1	11
559.986	1	18
561.175	1	6
562.365	1	15
563.555	1	16
564.744	1	16
565.934	1	16
567.123	1	26
568.313	1	0
569.502	1	6
570.692	1	10
571.881	1	17
573.070	1	16
574.260	1	9
575.449	1	6
576.638	1	11
577.827	1	13
579.016	1	17
580.205	1	20
581.394	1	4
582.583	1	4
583.772	1	-1
584.961	1	14
586.150	1	14
587.339	1	10
588.528	1	9
589.717	1	4
590.905	1	17
592.094	1	0
593.283	1	5
594.471	1	2
595.660	1	2
596.848	1	17
598.037	1	1
599.225	1	2
600.413	1	4
601.602	1	9
602.790	1	9
603.978	1	8
605.166	1	-2
606.355	1	4
607.543	1	-10
608.731	1	5
609.919	1	-8
611.107	1	8
612.295	1	9
613.483	1	6
614.671	1	13
615.858	1	6
617.046	1	12
618.234	1	8
619.422	1	16
620.609	1	4
621.797	1	15
622.985	1	9
624.172	1	12
625.360	1	3
626.547	1	6
627.735	1	9
628.922	1	2
630.109	1	-2
631.297	1	-7
632.484	1	-3
633.671	1	4
634.858	1	-2
636.045	1	6
637.232	1	11
638.419	1	18
639.606	1	15
640.793	1	16
641.980	1	4
643.167	1	16
644.354	1	7
645.541	1	-4
646.728	1	14
647.914	1	-1
649.101	1	1
650.288	1	3
651.474	1	5
652.661	1	1
653.847	1	7
655.034	1	5
656.220	1	7
657.406	1	5
658.593	1	0
659.779	1	6
660.965	1	2
662.152	1	8
663.338	1	-5
664.524	1	1
665.710	1	-3
666.896	1	-6
668.082	1	-4
669.268	1	13
670.454	1	3
671.640	1	1
672.826	1	-12
674.011	1	0
675.197	1	7
676.383	1	4
677.569	1	5
678.754	1	3
679.940	1	-3
681.125	1	9
682.311	1	10
683.496	1	3
684.682	1	8
685.867	1	1
687.053	1	4
688.238	1	9
688.746	1	8