File: Analysis/GaN_68K_200ms/GaN_sample E_spot4_UVVIS_68 K_200um_200 ms 2x2mm1_512.txt
340.368	1	4
341.565	1	-5
342.763	1	-9
343.960	1	2
345.157	1	6
346.354	1	2
347.552	1	-5
348.749	1	8
349.946	1	6
351.143	1	-4
352.340	1	6
353.537	1	6
354.734	1	2
355.931	1	-2
357.127	1	-7
358.324	1	4
359.521	1	-6
360.718	1	0
361.914	1	-10
363.111	1	10
364.308	1	0
365.504	1	-11
366.701	1	-11
367.897	1	3
369.093	1	3
370.290	1	-6
371.486	1	7
372.682	1	1
373.879	1	10
375.075	1	7
376.271	1	6
377.467	1	-4
378.663	1	2
379.859	1	-1
381.055	1	5
382.251	1	9
383.447	1	12
384.643	1	11
385.839	1	-1
387.035	1	0
388.230	1	2
389.426	1	7
390.622	1	4
391.817	1	0
393.013	1	5
394.208	1	10
395.404	1	4
396.599	1	7
397.795	1	2
398.990	1	5
400.186	1	0
401.381	1	20
402.576	1	7
403.771	1	-1
404.967	1	3
406.162	1	3
407.357	1	3
408.552	1	8
409.747	1	-12
410.942	1	3
412.137	1	12
413.332	1	7
414.526	1	-9
415.721	1	0
416.916	1	0
418.111	1	5
419.305	1	10
420.500	1	1
421.695	1	0
422.889	1	8
424.084	1	1
425.278	1	-5
426.472	1	0
427.667	1	8
428.861	1	13
430.055	1	4
431.250	1	-11
432.444	1	15
433.638	1	-5
434.832	1	1
436.026	1	8
437.220	1	17
438.414	1	3
439.608	1	5
440.802	1	17
441.996	1	1
443.190	1	-13
444.384	1	9
445.578	1	14
446.771	1	-8
447.965	1	-14
449.159	1	-3
450.352	1	6
451.546	1	-3
452.739	1	1
453.933	1	3
455.126	1	1
456.320	1	2
457.513	1	6
458.706	1	-3
459.899	1	16
461.093	1	2
462.286	1	6
463.479	1	6
464.672	1	-9
465.865	1	-3
467.058	1	10
468.251	1	-2
469.444	1	-1
470.637	1	16
471.830	1	16
473.023	1	-10
474.215	1	-2
475.408	1	5
476.601	1	-4
477.793	1	-2
478.986	1	-1
480.179	1	4
481.371	1	-5
482.564	1	-12
483.756	1	6
484.948	1	-5
486.141	1	-3
487.333	1	-3
488.525	1	4
489.718	1	0
490.910	1	-4
492.102	1	-4
493.294	1	2
494.486	1	6
495.678	1	10
496.870	1	-3
498.062	1	3
499.254	1	3
500.446	1	4
501.638	1	1
502.829	1	7
504.021	1	14
505.213	1	-3
506.404	1	0
507.596	1	4
508.788	1	4
509.979	1	1
511.171	1	13
512.362	1	0
513.553	1	-9
514.745	1	-3
515.936	1	7
517.127	1	-3
518.319	1	-2
519.510	1	3
520.701	1	7
521.892	1	-10
523.083	1	-3
524.274	1	9
525.465	1	4
526.656	1	10
527.847	1	4
529.038	1	8
530.229	1	7
531.419	1	3
532.610	1	2
533.801	1	6
534.991	1	0
536.182	1	5
537.373	1	-8
538.563	1	-3
539.754	1	3
540.944	1	-4
542.134	1	6
543.325	1	10
544.515	1	1
545.705	1	3
546.896	1	-1
548.086	1	11
549.276	1	7
550.466	1	-9
551.656	1	2
552.846	1	8
554.036	1	9
555.226	1	-4
556.416	1	-6
557.606	1	-4
558.796	1	7
559.986	1	2
561.175	1	-1
562.365	1	1
563.555	1	7
564.744	1	12
565.934	1	3
567.123	1	16
568.313	1	-7
569.502	1	7
570.692	1	-4
571.881	1	6
573.070	1	7
574.260	1	-5
575.449	1	7
576.638	1	1
577.827	1	-1
579.016	1	12
580.205	1	5
581.394	1	4
582.583	1	-7
583.772	1	5
584.961	1	12
586.150	1	13
587.339	1	9
588.528	1	7
589.717	1	1
590.905	1	12
592.094	1	0
593.283	1	0
594.471	1	2
595.660	1	-8
596.848	1	6
598.037	1	-6
599.225	1	2
600.413	1	-2
601.602	1	7
602.790	1	5
603.978	1	3
605.166	1	-6
606.355	1	5
607.543	1	-5
608.731	1	-5
609.919	1	-11
611.107	1	14
612.295	1	4
613.483	1	15
614.671	1	12
615.858	1	2
617.046	1	2
618.234	1	5
619.422	1	5
620.609	1	2
621.797	1	1
622.985	1	-1
624.172	1	7
625.360	1	-7
626.547	1	1
627.735	1	2
628.922	1	-3
630.109	1	-11
631.297	1	-6
632.484	1	5
633.671	1	-1
634.858	1	4
636.045	1	3
637.232	1	4
638.419	1	9
639.606	1	13
640.793	1	15
641.980	1	2
643.167	1	8
644.354	1	-3
645.541	1	-10
646.728	1	-1
647.914	1	4
649.101	1	2
650.288	1	-8
651.474	1	10
652.661	1	11
653.847	1	1
655.034	1	2
656.220	1	3
657.406	1	10
658.593	1	-2
659.779	1	-2
660.965	1	-5
662.152	1	-1
663.338	1	-6
664.524	1	-18
665.710	1	-12
666.896	1	6
668.082	1	-5
669.268	1	3
670.454	1	-6
671.640	1	-7
672.826	1	-17
674.011	1	3
675.197	1	-5
676.383	1	4
677.569	1	10
678.754	1	-1
679.940	1	5
681.125	1	2
682.311	1	2
683.496	1	-10
684.682	1	14
685.867	1	-9
687.053	1	-2
688.238	1	0
688.746	1	3