File: Analysis/GaN_68K_200ms/GaN_sample E_spot4_UVVIS_68 K_200um_200 ms 2x2mm1_338.txt
340.368	1	-5
341.565	1	2
342.763	1	1
343.960	1	1
345.157	1	7
346.354	1	-9
347.552	1	9
348.749	1	-4
349.946	1	11
351.143	1	-2
352.340	1	-3
353.537	1	-4
354.734	1	3
355.931	1	8
357.127	1	5
358.324	1	-2
359.521	1	-2
360.718	1	-7
361.914	1	-3
363.111	1	5
364.308	1	5
365.504	1	3
366.701	1	-2
367.897	1	-8
369.093	1	7
370.290	1	4
371.486	1	1
372.682	1	-2
373.879	1	13
375.075	1	10
376.271	1	-1
377.467	1	7
378.663	1	-3
379.859	1	2
381.055	1	3
382.251	1	4
383.447	1	12
384.643	1	10
385.839	1	13
387.035	1	-7
388.230	1	1
389.426	1	14
390.622	1	-1
391.817	1	-1
393.013	1	14
394.208	1	11
395.404	1	12
396.599	1	15
397.795	1	10
398.990	1	11
400.186	1	17
401.381	1	12
402.576	1	16
403.771	1	7
404.967	1	3
406.162	1	1
407.357	1	4
408.552	1	7
409.747	1	6
410.942	1	9
412.137	1	13
413.332	1	2
414.526	1	-5
415.721	1	13
416.916	1	-1
418.111	1	-2
419.305	1	6
420.500	1	9
421.695	1	-8
422.889	1	8
424.084	1	2
425.278	1	-3
426.472	1	12
427.667	1	8
428.861	1	6
430.055	1	0
431.250	1	3
432.444	1	10
433.638	1	2
434.832	1	0
436.026	1	6
437.220	1	17
438.414	1	11
439.608	1	2
440.802	1	7
441.996	1	2
443.190	1	-4
444.384	1	4
445.578	1	18
446.771	1	4
447.965	1	-2
449.159	1	-5
450.352	1	6
451.546	1	0
452.739	1	9
453.933	1	13
455.126	1	11
456.320	1	4
457.513	1	9
458.706	1	6
459.899	1	7
461.093	1	3
462.286	1	5
463.479	1	10
464.672	1	-1
465.865	1	1
467.058	1	9
468.251	1	-1
469.444	1	0
470.637	1	9
471.830	1	14
473.023	1	-6
474.215	1	1
475.408	1	0
476.601	1	1
477.793	1	7
478.986	1	4
480.179	1	-1
481.371	1	6
482.564	1	1
483.756	1	9
484.948	1	-2
486.141	1	-5
487.333	1	14
488.525	1	1
489.718	1	-6
490.910	1	-2
492.102	1	-2
493.294	1	16
494.486	1	9
495.678	1	9
496.870	1	0
498.062	1	-6
499.254	1	-5
500.446	1	11
501.638	1	12
502.829	1	8
504.021	1	14
505.213	1	-4
506.404	1	4
507.596	1	14
508.788	1	1
509.979	1	6
511.171	1	15
512.362	1	11
513.553	1	2
514.745	1	6
515.936	1	10
517.127	1	-2
518.319	1	0
519.510	1	2
520.701	1	-2
521.892	1	0
523.083	1	14
524.274	1	4
525.465	1	1
526.656	1	22
527.847	1	0
529.038	1	7
530.229	1	7
531.419	1	15
532.610	1	1
533.801	1	6
534.991	1	9
536.182	1	4
537.373	1	3
538.563	1	6
539.754	1	-1
540.944	1	-7
542.134	1	14
543.325	1	2
544.515	1	8
545.705	1	10
546.896	1	3
548.086	1	6
549.276	1	14
550.466	1	10
551.656	1	-6
552.846	1	7
554.036	1	2
555.226	1	0
556.416	1	2
557.606	1	-3
558.796	1	4
559.986	1	-3
561.175	1	2
562.365	1	8
563.555	1	15
564.744	1	12
565.934	1	7
567.123	1	19
568.313	1	-3
569.502	1	11
570.692	1	2
571.881	1	12
573.070	1	17
574.260	1	7
575.449	1	8
576.638	1	6
577.827	1	7
579.016	1	15
580.205	1	5
581.394	1	1
582.583	1	-3
583.772	1	1
584.961	1	-1
586.150	1	2
587.339	1	-4
588.528	1	4
589.717	1	2
590.905	1	-8
592.094	1	10
593.283	1	4
594.471	1	0
595.660	1	3
596.848	1	3
598.037	1	-2
599.225	1	10
600.413	1	0
601.602	1	0
602.790	1	-2
603.978	1	6
605.166	1	-6
606.355	1	11
607.543	1	-4
608.731	1	-4
609.919	1	5
611.107	1	10
612.295	1	1
613.483	1	17
614.671	1	12
615.858	1	5
617.046	1	1
618.234	1	-1
619.422	1	-1
620.609	1	2
621.797	1	4
622.985	1	5
624.172	1	10
625.360	1	-4
626.547	1	-4
627.735	1	-3
628.922	1	-6
630.109	1	-2
631.297	1	-4
632.484	1	-1
633.671	1	8
634.858	1	10
636.045	1	3
637.232	1	-7
638.419	1	-1
639.606	1	15
640.793	1	6
641.980	1	1
643.167	1	3
644.354	1	1
645.541	1	-12
646.728	1	6
647.914	1	-7
649.101	1	8
650.288	1	-6
651.474	1	8
652.661	1	5
653.847	1	5
655.034	1	-1
656.220	1	8
657.406	1	11
658.593	1	-11
659.779	1	5
660.965	1	-5
662.152	1	4
663.338	1	-1
664.524	1	0
665.710	1	-7
666.896	1	-5
668.082	1	0
669.268	1	5
670.454	1	9
671.640	1	-12
672.826	1	-10
674.011	1	9
675.197	1	-4
676.383	1	-7
677.569	1	3
678.754	1	-8
679.940	1	5
681.125	1	7
682.311	1	-4
683.496	1	-10
684.682	1	9
685.867	1	1
687.053	1	5
688.238	1	2
688.746	1	1