File: Analysis/GaN_68K_200ms/GaN_sample E_spot4_UVVIS_68 K_200um_200 ms 2x2mm1_262.txt
340.368	1	2
341.565	1	-1
342.763	1	6
343.960	1	1
345.157	1	17
346.354	1	-5
347.552	1	3
348.749	1	7
349.946	1	5
351.143	1	-14
352.340	1	8
353.537	1	2
354.734	1	4
355.931	1	5
357.127	1	3
358.324	1	3
359.521	1	-1
360.718	1	1
361.914	1	-1
363.111	1	17
364.308	1	6
365.504	1	3
366.701	1	-5
367.897	1	5
369.093	1	5
370.290	1	-5
371.486	1	13
372.682	1	14
373.879	1	14
375.075	1	7
376.271	1	-8
377.467	1	6
378.663	1	2
379.859	1	3
381.055	1	14
382.251	1	8
383.447	1	15
384.643	1	9
385.839	1	17
387.035	1	0
388.230	1	2
389.426	1	26
390.622	1	11
391.817	1	11
393.013	1	17
394.208	1	16
395.404	1	10
396.599	1	12
397.795	1	16
398.990	1	17
400.186	1	15
401.381	1	16
402.576	1	15
403.771	1	14
404.967	1	16
406.162	1	12
407.357	1	6
408.552	1	14
409.747	1	7
410.942	1	13
412.137	1	11
413.332	1	8
414.526	1	5
415.721	1	7
416.916	1	7
418.111	1	11
419.305	1	8
420.500	1	9
421.695	1	4
422.889	1	12
424.084	1	7
425.278	1	0
426.472	1	2
427.667	1	11
428.861	1	1
430.055	1	4
431.250	1	0
432.444	1	14
433.638	1	11
434.832	1	1
436.026	1	11
437.220	1	12
438.414	1	1
439.608	1	0
440.802	1	5
441.996	1	6
443.190	1	-8
444.384	1	8
445.578	1	10
446.771	1	-4
447.965	1	-2
449.159	1	7
450.352	1	13
451.546	1	9
452.739	1	3
453.933	1	15
455.126	1	1
456.320	1	-1
457.513	1	6
458.706	1	5
459.899	1	12
461.093	1	8
462.286	1	6
463.479	1	13
464.672	1	10
465.865	1	1
467.058	1	9
468.251	1	0
469.444	1	6
470.637	1	7
471.830	1	12
473.023	1	-1
474.215	1	-2
475.408	1	-4
476.601	1	2
477.793	1	8
478.986	1	-7
480.179	1	1
481.371	1	5
482.564	1	-1
483.756	1	16
484.948	1	-2
486.141	1	-10
487.333	1	2
488.525	1	3
489.718	1	10
490.910	1	2
492.102	1	6
493.294	1	10
494.486	1	8
495.678	1	14
496.870	1	-1
498.062	1	5
499.254	1	5
500.446	1	9
501.638	1	5
502.829	1	6
504.021	1	22
505.213	1	-1
506.404	1	4
507.596	1	4
508.788	1	3
509.979	1	12
511.171	1	18
512.362	1	10
513.553	1	0
514.745	1	4
515.936	1	6
517.127	1	8
518.319	1	-2
519.510	1	7
520.701	1	13
521.892	1	1
523.083	1	11
524.274	1	0
525.465	1	10
526.656	1	16
527.847	1	5
529.038	1	19
530.229	1	14
531.419	1	17
532.610	1	13
533.801	1	6
534.991	1	4
536.182	1	8
537.373	1	7
538.563	1	11
539.754	1	4
540.944	1	6
542.134	1	17
543.325	1	-1
544.515	1	5
545.705	1	9
546.896	1	8
548.086	1	13
549.276	1	4
550.466	1	6
551.656	1	-1
552.846	1	2
554.036	1	9
555.226	1	-4
556.416	1	2
557.606	1	-6
558.796	1	12
559.986	1	7
561.175	1	-9
562.365	1	13
563.555	1	14
564.744	1	9
565.934	1	13
567.123	1	17
568.313	1	-3
569.502	1	9
570.692	1	7
571.881	1	14
573.070	1	11
574.260	1	1
575.449	1	8
576.638	1	9
577.827	1	11
579.016	1	14
580.205	1	2
581.394	1	-2
582.583	1	1
583.772	1	5
584.961	1	12
586.150	1	-1
587.339	1	4
588.528	1	3
589.717	1	7
590.905	1	12
592.094	1	4
593.283	1	4
594.471	1	16
595.660	1	-5
596.848	1	11
598.037	1	7
599.225	1	0
600.413	1	10
601.602	1	12
602.790	1	-3
603.978	1	4
605.166	1	-2
606.355	1	10
607.543	1	0
608.731	1	-5
609.919	1	-6
611.107	1	13
612.295	1	2
613.483	1	7
614.671	1	13
615.858	1	6
617.046	1	0
618.234	1	4
619.422	1	5
620.609	1	1
621.797	1	5
622.985	1	7
624.172	1	17
625.360	1	1
626.547	1	9
627.735	1	3
628.922	1	0
630.109	1	7
631.297	1	-1
632.484	1	-3
633.671	1	2
634.858	1	2
636.045	1	5
637.232	1	6
638.419	1	15
639.606	1	13
640.793	1	10
641.980	1	4
643.167	1	17
644.354	1	-2
645.541	1	-7
646.728	1	7
647.914	1	0
649.101	1	4
650.288	1	-4
651.474	1	5
652.661	1	0
653.847	1	1
655.034	1	-1
656.220	1	5
657.406	1	4
658.593	1	-2
659.779	1	2
660.965	1	6
662.152	1	7
663.338	1	2
664.524	1	-7
665.710	1	1
666.896	1	-3
668.082	1	1
669.268	1	2
670.454	1	-1
671.640	1	-14
672.826	1	-12
674.011	1	3
675.197	1	5
676.383	1	-9
677.569	1	-9
678.754	1	5
679.940	1	2
681.125	1	7
682.311	1	10
683.496	1	-5
684.682	1	4
685.867	1	9
687.053	1	5
688.238	1	-1
688.746	1	4