File: Analysis/GaN_68K_200ms/GaN_sample E_spot4_UVVIS_68 K_200um_200 ms 2x2mm1_748.txt
340.368	1	0
341.565	1	-4
342.763	1	-5
343.960	1	-6
345.157	1	5
346.354	1	-6
347.552	1	2
348.749	1	-3
349.946	1	7
351.143	1	-5
352.340	1	-3
353.537	1	1
354.734	1	4
355.931	1	0
357.127	1	0
358.324	1	-1
359.521	1	-4
360.718	1	-4
361.914	1	-8
363.111	1	9
364.308	1	-9
365.504	1	-2
366.701	1	-4
367.897	1	5
369.093	1	5
370.290	1	-4
371.486	1	-4
372.682	1	-3
373.879	1	6
375.075	1	8
376.271	1	3
377.467	1	-6
378.663	1	-1
379.859	1	-1
381.055	1	6
382.251	1	-8
383.447	1	4
384.643	1	2
385.839	1	4
387.035	1	-7
388.230	1	5
389.426	1	5
390.622	1	-3
391.817	1	-4
393.013	1	6
394.208	1	6
395.404	1	3
396.599	1	-4
397.795	1	0
398.990	1	6
400.186	1	4
401.381	1	8
402.576	1	6
403.771	1	-2
404.967	1	6
406.162	1	-1
407.357	1	14
408.552	1	-1
409.747	1	2
410.942	1	3
412.137	1	1
413.332	1	-2
414.526	1	5
415.721	1	-4
416.916	1	3
418.111	1	-2
419.305	1	-10
420.500	1	-2
421.695	1	-6
422.889	1	5
424.084	1	3
425.278	1	0
426.472	1	1
427.667	1	8
428.861	1	-6
430.055	1	3
431.250	1	-13
432.444	1	3
433.638	1	3
434.832	1	-8
436.026	1	7
437.220	1	8
438.414	1	-8
439.608	1	-2
440.802	1	4
441.996	1	-2
443.190	1	-7
444.384	1	5
445.578	1	9
446.771	1	-6
447.965	1	-1
449.159	1	-2
450.352	1	10
451.546	1	1
452.739	1	0
453.933	1	8
455.126	1	6
456.320	1	2
457.513	1	2
458.706	1	9
459.899	1	8
461.093	1	-2
462.286	1	5
463.479	1	2
464.672	1	2
465.865	1	-5
467.058	1	-3
468.251	1	4
469.444	1	-2
470.637	1	8
471.830	1	9
473.023	1	-7
474.215	1	-1
475.408	1	4
476.601	1	6
477.793	1	14
478.986	1	1
480.179	1	7
481.371	1	1
482.564	1	-9
483.756	1	9
484.948	1	-7
486.141	1	-5
487.333	1	9
488.525	1	-1
489.718	1	-2
490.910	1	-7
492.102	1	-1
493.294	1	6
494.486	1	2
495.678	1	12
496.870	1	0
498.062	1	-2
499.254	1	3
500.446	1	-3
501.638	1	3
502.829	1	0
504.021	1	16
505.213	1	4
506.404	1	-1
507.596	1	8
508.788	1	2
509.979	1	1
511.171	1	19
512.362	1	1
513.553	1	-1
514.745	1	-4
515.936	1	-3
517.127	1	5
518.319	1	-10
519.510	1	-3
520.701	1	0
521.892	1	-8
523.083	1	-2
524.274	1	-1
525.465	1	6
526.656	1	17
527.847	1	-14
529.038	1	4
530.229	1	-1
531.419	1	5
532.610	1	5
533.801	1	6
534.991	1	3
536.182	1	-1
537.373	1	-5
538.563	1	8
539.754	1	-5
540.944	1	-10
542.134	1	18
543.325	1	-2
544.515	1	-5
545.705	1	5
546.896	1	8
548.086	1	4
549.276	1	14
550.466	1	-4
551.656	1	-8
552.846	1	3
554.036	1	-1
555.226	1	-6
556.416	1	1
557.606	1	-9
558.796	1	-4
559.986	1	-11
561.175	1	-10
562.365	1	3
563.555	1	-1
564.744	1	1
565.934	1	9
567.123	1	21
568.313	1	-2
569.502	1	-2
570.692	1	-5
571.881	1	6
573.070	1	11
574.260	1	-2
575.449	1	3
576.638	1	-4
577.827	1	15
579.016	1	8
580.205	1	1
581.394	1	0
582.583	1	-9
583.772	1	-5
584.961	1	-3
586.150	1	-1
587.339	1	5
588.528	1	4
589.717	1	-7
590.905	1	11
592.094	1	-1
593.283	1	8
594.471	1	7
595.660	1	-5
596.848	1	8
598.037	1	2
599.225	1	0
600.413	1	-4
601.602	1	1
602.790	1	4
603.978	1	1
605.166	1	-10
606.355	1	-2
607.543	1	-12
608.731	1	2
609.919	1	-13
611.107	1	-3
612.295	1	1
613.483	1	4
614.671	1	4
615.858	1	5
617.046	1	2
618.234	1	-4
619.422	1	4
620.609	1	9
621.797	1	1
622.985	1	2
624.172	1	7
625.360	1	-3
626.547	1	8
627.735	1	-1
628.922	1	-4
630.109	1	-4
631.297	1	-10
632.484	1	-6
633.671	1	-12
634.858	1	4
636.045	1	3
637.232	1	1
638.419	1	7
639.606	1	14
640.793	1	2
641.980	1	-5
643.167	1	8
644.354	1	-2
645.541	1	-8
646.728	1	7
647.914	1	-7
649.101	1	6
650.288	1	7
651.474	1	2
652.661	1	3
653.847	1	10
655.034	1	-1
656.220	1	-5
657.406	1	9
658.593	1	-6
659.779	1	-5
660.965	1	-1
662.152	1	0
663.338	1	-1
664.524	1	-4
665.710	1	-6
666.896	1	-3
668.082	1	1
669.268	1	3
670.454	1	5
671.640	1	-13
672.826	1	-16
674.011	1	13
675.197	1	-12
676.383	1	-7
677.569	1	-14
678.754	1	-6
679.940	1	-2
681.125	1	7
682.311	1	5
683.496	1	-6
684.682	1	5
685.867	1	-4
687.053	1	0
688.238	1	-3
688.746	1	-3