File: Analysis/GaN_68K_200ms/GaN_sample E_spot4_UVVIS_68 K_200um_200 ms 2x2mm1_416.txt
340.368	1	2
341.565	1	-5
342.763	1	-4
343.960	1	1
345.157	1	7
346.354	1	-1
347.552	1	1
348.749	1	7
349.946	1	8
351.143	1	-8
352.340	1	3
353.537	1	-1
354.734	1	1
355.931	1	0
357.127	1	2
358.324	1	1
359.521	1	3
360.718	1	-5
361.914	1	1
363.111	1	4
364.308	1	-3
365.504	1	-5
366.701	1	-1
367.897	1	-1
369.093	1	6
370.290	1	-1
371.486	1	12
372.682	1	-6
373.879	1	10
375.075	1	10
376.271	1	-2
377.467	1	8
378.663	1	-4
379.859	1	-3
381.055	1	5
382.251	1	3
383.447	1	8
384.643	1	14
385.839	1	12
387.035	1	-2
388.230	1	5
389.426	1	14
390.622	1	2
391.817	1	0
393.013	1	3
394.208	1	14
395.404	1	1
396.599	1	8
397.795	1	8
398.990	1	5
400.186	1	15
401.381	1	19
402.576	1	8
403.771	1	11
404.967	1	13
406.162	1	-8
407.357	1	6
408.552	1	4
409.747	1	-1
410.942	1	10
412.137	1	7
413.332	1	-1
414.526	1	4
415.721	1	8
416.916	1	3
418.111	1	5
419.305	1	-10
420.500	1	7
421.695	1	-3
422.889	1	4
424.084	1	2
425.278	1	-1
426.472	1	-4
427.667	1	15
428.861	1	3
430.055	1	5
431.250	1	-13
432.444	1	17
433.638	1	0
434.832	1	-6
436.026	1	3
437.220	1	6
438.414	1	7
439.608	1	0
440.802	1	11
441.996	1	7
443.190	1	-5
444.384	1	-3
445.578	1	8
446.771	1	-10
447.965	1	-1
449.159	1	-8
450.352	1	10
451.546	1	9
452.739	1	-4
453.933	1	8
455.126	1	8
456.320	1	4
457.513	1	11
458.706	1	1
459.899	1	9
461.093	1	10
462.286	1	19
463.479	1	8
464.672	1	5
465.865	1	-1
467.058	1	3
468.251	1	1
469.444	1	-7
470.637	1	10
471.830	1	20
473.023	1	1
474.215	1	2
475.408	1	6
476.601	1	7
477.793	1	10
478.986	1	-2
480.179	1	7
481.371	1	-1
482.564	1	-12
483.756	1	-6
484.948	1	4
486.141	1	-4
487.333	1	4
488.525	1	6
489.718	1	-3
490.910	1	-5
492.102	1	5
493.294	1	13
494.486	1	11
495.678	1	9
496.870	1	6
498.062	1	0
499.254	1	4
500.446	1	8
501.638	1	10
502.829	1	-5
504.021	1	18
505.213	1	-2
506.404	1	2
507.596	1	3
508.788	1	-3
509.979	1	-4
511.171	1	12
512.362	1	0
513.553	1	-6
514.745	1	3
515.936	1	9
517.127	1	3
518.319	1	-2
519.510	1	8
520.701	1	8
521.892	1	-1
523.083	1	-1
524.274	1	-3
525.465	1	0
526.656	1	26
527.847	1	4
529.038	1	9
530.229	1	13
531.419	1	14
532.610	1	9
533.801	1	1
534.991	1	2
536.182	1	-3
537.373	1	-7
538.563	1	9
539.754	1	3
540.944	1	-1
542.134	1	10
543.325	1	-4
544.515	1	-1
545.705	1	13
546.896	1	9
548.086	1	8
549.276	1	7
550.466	1	1
551.656	1	-5
552.846	1	9
554.036	1	13
555.226	1	0
556.416	1	6
557.606	1	2
558.796	1	-5
559.986	1	-9
561.175	1	2
562.365	1	7
563.555	1	7
564.744	1	3
565.934	1	3
567.123	1	13
568.313	1	6
569.502	1	1
570.692	1	-5
571.881	1	8
573.070	1	8
574.260	1	6
575.449	1	8
576.638	1	-1
577.827	1	2
579.016	1	7
580.205	1	15
581.394	1	2
582.583	1	-4
583.772	1	1
584.961	1	11
586.150	1	3
587.339	1	9
588.528	1	10
589.717	1	2
590.905	1	10
592.094	1	6
593.283	1	13
594.471	1	2
595.660	1	-7
596.848	1	6
598.037	1	0
599.225	1	3
600.413	1	0
601.602	1	6
602.790	1	2
603.978	1	1
605.166	1	-2
606.355	1	16
607.543	1	-6
608.731	1	1
609.919	1	-1
611.107	1	7
612.295	1	4
613.483	1	4
614.671	1	-4
615.858	1	9
617.046	1	9
618.234	1	-6
619.422	1	14
620.609	1	-5
621.797	1	1
622.985	1	6
624.172	1	15
625.360	1	-11
626.547	1	3
627.735	1	7
628.922	1	-2
630.109	1	-5
631.297	1	-6
632.484	1	-4
633.671	1	3
634.858	1	6
636.045	1	11
637.232	1	0
638.419	1	11
639.606	1	21
640.793	1	7
641.980	1	1
643.167	1	3
644.354	1	1
645.541	1	-8
646.728	1	5
647.914	1	-4
649.101	1	2
650.288	1	-3
651.474	1	-3
652.661	1	1
653.847	1	-1
655.034	1	5
656.220	1	-2
657.406	1	7
658.593	1	-6
659.779	1	2
660.965	1	7
662.152	1	2
663.338	1	-8
664.524	1	-11
665.710	1	-2
666.896	1	-3
668.082	1	-1
669.268	1	5
670.454	1	-2
671.640	1	-14
672.826	1	-7
674.011	1	4
675.197	1	0
676.383	1	2
677.569	1	-10
678.754	1	-1
679.940	1	-2
681.125	1	1
682.311	1	-4
683.496	1	-6
684.682	1	9
685.867	1	8
687.053	1	3
688.238	1	9
688.746	1	2