File: Analysis/GaN_68K_200ms/GaN_sample E_spot4_UVVIS_68 K_200um_200 ms 2x2mm1_192.txt
340.368	1	0
341.565	1	-9
342.763	1	2
343.960	1	-3
345.157	1	12
346.354	1	6
347.552	1	3
348.749	1	10
349.946	1	3
351.143	1	-2
352.340	1	4
353.537	1	3
354.734	1	6
355.931	1	10
357.127	1	-5
358.324	1	2
359.521	1	0
360.718	1	2
361.914	1	10
363.111	1	25
364.308	1	22
365.504	1	9
366.701	1	17
367.897	1	16
369.093	1	21
370.290	1	16
371.486	1	26
372.682	1	10
373.879	1	24
375.075	1	22
376.271	1	15
377.467	1	8
378.663	1	4
379.859	1	2
381.055	1	16
382.251	1	14
383.447	1	24
384.643	1	25
385.839	1	29
387.035	1	31
388.230	1	21
389.426	1	38
390.622	1	25
391.817	1	22
393.013	1	31
394.208	1	30
395.404	1	14
396.599	1	27
397.795	1	37
398.990	1	27
400.186	1	26
401.381	1	18
402.576	1	23
403.771	1	19
404.967	1	17
406.162	1	19
407.357	1	14
408.552	1	22
409.747	1	9
410.942	1	14
412.137	1	28
413.332	1	11
414.526	1	12
415.721	1	14
416.916	1	11
418.111	1	9
419.305	1	15
420.500	1	5
421.695	1	15
422.889	1	15
424.084	1	19
425.278	1	3
426.472	1	17
427.667	1	17
428.861	1	6
430.055	1	24
431.250	1	3
432.444	1	16
433.638	1	9
434.832	1	6
436.026	1	12
437.220	1	16
438.414	1	12
439.608	1	7
440.802	1	11
441.996	1	16
443.190	1	2
444.384	1	9
445.578	1	16
446.771	1	8
447.965	1	1
449.159	1	8
450.352	1	21
451.546	1	10
452.739	1	6
453.933	1	9
455.126	1	11
456.320	1	2
457.513	1	11
458.706	1	1
459.899	1	21
461.093	1	9
462.286	1	19
463.479	1	14
464.672	1	7
465.865	1	1
467.058	1	13
468.251	1	9
469.444	1	0
470.637	1	14
471.830	1	21
473.023	1	3
474.215	1	-3
475.408	1	12
476.601	1	4
477.793	1	10
478.986	1	11
480.179	1	5
481.371	1	8
482.564	1	-7
483.756	1	17
484.948	1	6
486.141	1	-1
487.333	1	12
488.525	1	0
489.718	1	5
490.910	1	0
492.102	1	0
493.294	1	13
494.486	1	13
495.678	1	20
496.870	1	7
498.062	1	9
499.254	1	7
500.446	1	14
501.638	1	9
502.829	1	14
504.021	1	20
505.213	1	17
506.404	1	6
507.596	1	19
508.788	1	13
509.979	1	8
511.171	1	17
512.362	1	15
513.553	1	8
514.745	1	19
515.936	1	18
517.127	1	13
518.319	1	8
519.510	1	12
520.701	1	8
521.892	1	11
523.083	1	12
524.274	1	11
525.465	1	16
526.656	1	30
527.847	1	13
529.038	1	29
530.229	1	19
531.419	1	20
532.610	1	23
533.801	1	20
534.991	1	21
536.182	1	20
537.373	1	4
538.563	1	23
539.754	1	11
540.944	1	17
542.134	1	23
543.325	1	9
544.515	1	14
545.705	1	18
546.896	1	9
548.086	1	23
549.276	1	20
550.466	1	6
551.656	1	2
552.846	1	12
554.036	1	24
555.226	1	7
556.416	1	18
557.606	1	1
558.796	1	4
559.986	1	10
561.175	1	6
562.365	1	13
563.555	1	18
564.744	1	14
565.934	1	10
567.123	1	21
568.313	1	2
569.502	1	9
570.692	1	11
571.881	1	11
573.070	1	15
574.260	1	8
575.449	1	9
576.638	1	10
577.827	1	15
579.016	1	24
580.205	1	10
581.394	1	5
582.583	1	-3
583.772	1	13
584.961	1	17
586.150	1	4
587.339	1	13
588.528	1	18
589.717	1	0
590.905	1	12
592.094	1	8
593.283	1	24
594.471	1	3
595.660	1	2
596.848	1	11
598.037	1	6
599.225	1	11
600.413	1	7
601.602	1	10
602.790	1	1
603.978	1	8
605.166	1	4
606.355	1	12
607.543	1	1
608.731	1	-8
609.919	1	5
611.107	1	16
612.295	1	14
613.483	1	14
614.671	1	2
615.858	1	9
617.046	1	8
618.234	1	-2
619.422	1	6
620.609	1	4
621.797	1	7
622.985	1	9
624.172	1	5
625.360	1	-2
626.547	1	14
627.735	1	2
628.922	1	11
630.109	1	5
631.297	1	5
632.484	1	-1
633.671	1	10
634.858	1	7
636.045	1	5
637.232	1	4
638.419	1	0
639.606	1	17
640.793	1	8
641.980	1	-9
643.167	1	21
644.354	1	8
645.541	1	-9
646.728	1	5
647.914	1	5
649.101	1	8
650.288	1	0
651.474	1	11
652.661	1	2
653.847	1	14
655.034	1	3
656.220	1	4
657.406	1	1
658.593	1	-4
659.779	1	-3
660.965	1	3
662.152	1	3
663.338	1	1
664.524	1	-4
665.710	1	12
666.896	1	-3
668.082	1	4
669.268	1	-1
670.454	1	-2
671.640	1	-8
672.826	1	-13
674.011	1	3
675.197	1	3
676.383	1	7
677.569	1	2
678.754	1	-2
679.940	1	3
681.125	1	3
682.311	1	6
683.496	1	3
684.682	1	9
685.867	1	0
687.053	1	-1
688.238	1	9
688.746	1	13