File: Analysis/GaN_68K_200ms/GaN_sample E_spot4_UVVIS_68 K_200um_200 ms 2x2mm1_85.txt
340.368	1	-7
341.565	1	0
342.763	1	-6
343.960	1	3
345.157	1	2
346.354	1	-6
347.552	1	-10
348.749	1	7
349.946	1	11
351.143	1	-4
352.340	1	-2
353.537	1	-1
354.734	1	-1
355.931	1	-4
357.127	1	10
358.324	1	-2
359.521	1	-3
360.718	1	-9
361.914	1	6
363.111	1	11
364.308	1	3
365.504	1	-9
366.701	1	-4
367.897	1	7
369.093	1	-3
370.290	1	3
371.486	1	13
372.682	1	2
373.879	1	12
375.075	1	6
376.271	1	-9
377.467	1	0
378.663	1	-7
379.859	1	-5
381.055	1	2
382.251	1	7
383.447	1	7
384.643	1	3
385.839	1	-1
387.035	1	-3
388.230	1	1
389.426	1	4
390.622	1	-6
391.817	1	2
393.013	1	8
394.208	1	7
395.404	1	-3
396.599	1	-3
397.795	1	0
398.990	1	-7
400.186	1	12
401.381	1	14
402.576	1	10
403.771	1	11
404.967	1	5
406.162	1	-2
407.357	1	5
408.552	1	5
409.747	1	-3
410.942	1	3
412.137	1	10
413.332	1	8
414.526	1	-4
415.721	1	6
416.916	1	5
418.111	1	7
419.305	1	8
420.500	1	0
421.695	1	6
422.889	1	-1
424.084	1	-4
425.278	1	-6
426.472	1	-4
427.667	1	8
428.861	1	3
430.055	1	-2
431.250	1	-7
432.444	1	10
433.638	1	2
434.832	1	-1
436.026	1	6
437.220	1	10
438.414	1	2
439.608	1	-4
440.802	1	-1
441.996	1	-4
443.190	1	-14
444.384	1	-3
445.578	1	13
446.771	1	-1
447.965	1	-10
449.159	1	-9
450.352	1	3
451.546	1	7
452.739	1	7
453.933	1	12
455.126	1	1
456.320	1	1
457.513	1	11
458.706	1	2
459.899	1	5
461.093	1	8
462.286	1	4
463.479	1	17
464.672	1	4
465.865	1	-5
467.058	1	7
468.251	1	-8
469.444	1	-3
470.637	1	9
471.830	1	22
473.023	1	5
474.215	1	-9
475.408	1	6
476.601	1	1
477.793	1	12
478.986	1	4
480.179	1	6
481.371	1	4
482.564	1	-5
483.756	1	0
484.948	1	3
486.141	1	-7
487.333	1	3
488.525	1	1
489.718	1	-2
490.910	1	-2
492.102	1	-3
493.294	1	11
494.486	1	2
495.678	1	2
496.870	1	0
498.062	1	-1
499.254	1	2
500.446	1	6
501.638	1	8
502.829	1	1
504.021	1	18
505.213	1	9
506.404	1	-2
507.596	1	6
508.788	1	3
509.979	1	-1
511.171	1	7
512.362	1	-11
513.553	1	-7
514.745	1	-3
515.936	1	5
517.127	1	3
518.319	1	-6
519.510	1	3
520.701	1	10
521.892	1	-7
523.083	1	-12
524.274	1	-4
525.465	1	4
526.656	1	17
527.847	1	-7
529.038	1	4
530.229	1	-3
531.419	1	5
532.610	1	3
533.801	1	4
534.991	1	-2
536.182	1	-4
537.373	1	5
538.563	1	-1
539.754	1	-5
540.944	1	-4
542.134	1	10
543.325	1	-7
544.515	1	0
545.705	1	3
546.896	1	0
548.086	1	1
549.276	1	9
550.466	1	-6
551.656	1	-2
552.846	1	10
554.036	1	-2
555.226	1	2
556.416	1	2
557.606	1	-5
558.796	1	4
559.986	1	-9
561.175	1	-3
562.365	1	6
563.555	1	6
564.744	1	8
565.934	1	6
567.123	1	15
568.313	1	-7
569.502	1	-3
570.692	1	3
571.881	1	8
573.070	1	7
574.260	1	0
575.449	1	11
576.638	1	-3
577.827	1	4
579.016	1	10
580.205	1	7
581.394	1	1
582.583	1	-10
583.772	1	-6
584.961	1	-5
586.150	1	2
587.339	1	-2
588.528	1	10
589.717	1	2
590.905	1	0
592.094	1	-1
593.283	1	8
594.471	1	9
595.660	1	-2
596.848	1	3
598.037	1	-5
599.225	1	3
600.413	1	-2
601.602	1	5
602.790	1	4
603.978	1	8
605.166	1	-2
606.355	1	8
607.543	1	-7
608.731	1	-8
609.919	1	-4
611.107	1	9
612.295	1	2
613.483	1	12
614.671	1	9
615.858	1	10
617.046	1	10
618.234	1	10
619.422	1	0
620.609	1	0
621.797	1	7
622.985	1	3
624.172	1	6
625.360	1	-3
626.547	1	9
627.735	1	5
628.922	1	0
630.109	1	6
631.297	1	0
632.484	1	-4
633.671	1	-1
634.858	1	14
636.045	1	5
637.232	1	0
638.419	1	10
639.606	1	14
640.793	1	5
641.980	1	0
643.167	1	16
644.354	1	8
645.541	1	-6
646.728	1	-9
647.914	1	3
649.101	1	-2
650.288	1	5
651.474	1	6
652.661	1	4
653.847	1	4
655.034	1	0
656.220	1	3
657.406	1	0
658.593	1	-13
659.779	1	-3
660.965	1	-2
662.152	1	-5
663.338	1	-1
664.524	1	-2
665.710	1	-3
666.896	1	-5
668.082	1	0
669.268	1	0
670.454	1	-1
671.640	1	-15
672.826	1	-15
674.011	1	2
675.197	1	-7
676.383	1	-1
677.569	1	-8
678.754	1	1
679.940	1	-5
681.125	1	4
682.311	1	3
683.496	1	1
684.682	1	10
685.867	1	2
687.053	1	6
688.238	1	8
688.746	1	3