File: Analysis/GaN_68K_200ms/GaN_sample E_spot4_UVVIS_68 K_200um_200 ms 2x2mm1_540.txt
340.368	1	6
341.565	1	-4
342.763	1	-3
343.960	1	-3
345.157	1	8
346.354	1	-6
347.552	1	-2
348.749	1	5
349.946	1	9
351.143	1	-4
352.340	1	-4
353.537	1	-1
354.734	1	-2
355.931	1	7
357.127	1	7
358.324	1	2
359.521	1	1
360.718	1	-1
361.914	1	-6
363.111	1	9
364.308	1	3
365.504	1	-8
366.701	1	-6
367.897	1	6
369.093	1	7
370.290	1	-13
371.486	1	7
372.682	1	0
373.879	1	3
375.075	1	11
376.271	1	-5
377.467	1	-11
378.663	1	-5
379.859	1	-4
381.055	1	5
382.251	1	4
383.447	1	6
384.643	1	11
385.839	1	-1
387.035	1	3
388.230	1	6
389.426	1	-1
390.622	1	-7
391.817	1	-1
393.013	1	9
394.208	1	8
395.404	1	11
396.599	1	12
397.795	1	7
398.990	1	-3
400.186	1	7
401.381	1	-2
402.576	1	16
403.771	1	-5
404.967	1	-3
406.162	1	-6
407.357	1	-8
408.552	1	9
409.747	1	-2
410.942	1	2
412.137	1	9
413.332	1	-7
414.526	1	-1
415.721	1	0
416.916	1	1
418.111	1	-1
419.305	1	4
420.500	1	10
421.695	1	-1
422.889	1	14
424.084	1	7
425.278	1	-2
426.472	1	-9
427.667	1	8
428.861	1	-2
430.055	1	5
431.250	1	-12
432.444	1	11
433.638	1	-7
434.832	1	-10
436.026	1	9
437.220	1	5
438.414	1	-5
439.608	1	13
440.802	1	4
441.996	1	6
443.190	1	-7
444.384	1	3
445.578	1	12
446.771	1	2
447.965	1	-5
449.159	1	-4
450.352	1	11
451.546	1	1
452.739	1	-3
453.933	1	-6
455.126	1	-8
456.320	1	-8
457.513	1	14
458.706	1	3
459.899	1	7
461.093	1	4
462.286	1	13
463.479	1	3
464.672	1	-3
465.865	1	-2
467.058	1	14
468.251	1	3
469.444	1	1
470.637	1	16
471.830	1	8
473.023	1	-5
474.215	1	-7
475.408	1	3
476.601	1	5
477.793	1	5
478.986	1	-2
480.179	1	-3
481.371	1	-2
482.564	1	-1
483.756	1	12
484.948	1	-2
486.141	1	-15
487.333	1	4
488.525	1	-5
489.718	1	-3
490.910	1	-3
492.102	1	2
493.294	1	-2
494.486	1	-1
495.678	1	4
496.870	1	-8
498.062	1	-5
499.254	1	-3
500.446	1	8
501.638	1	1
502.829	1	3
504.021	1	21
505.213	1	-12
506.404	1	-12
507.596	1	-9
508.788	1	-6
509.979	1	-4
511.171	1	11
512.362	1	13
513.553	1	0
514.745	1	-5
515.936	1	7
517.127	1	0
518.319	1	-3
519.510	1	-3
520.701	1	7
521.892	1	-10
523.083	1	-1
524.274	1	4
525.465	1	9
526.656	1	12
527.847	1	-7
529.038	1	6
530.229	1	1
531.419	1	7
532.610	1	9
533.801	1	6
534.991	1	2
536.182	1	2
537.373	1	-1
538.563	1	-5
539.754	1	-5
540.944	1	0
542.134	1	15
543.325	1	-8
544.515	1	0
545.705	1	4
546.896	1	3
548.086	1	-2
549.276	1	11
550.466	1	-5
551.656	1	2
552.846	1	6
554.036	1	4
555.226	1	-10
556.416	1	-2
557.606	1	-13
558.796	1	-3
559.986	1	-2
561.175	1	-7
562.365	1	-5
563.555	1	8
564.744	1	1
565.934	1	5
567.123	1	7
568.313	1	-2
569.502	1	-2
570.692	1	-2
571.881	1	11
573.070	1	-1
574.260	1	-6
575.449	1	9
576.638	1	7
577.827	1	-2
579.016	1	14
580.205	1	-4
581.394	1	-8
582.583	1	-7
583.772	1	0
584.961	1	7
586.150	1	-4
587.339	1	6
588.528	1	0
589.717	1	-1
590.905	1	12
592.094	1	2
593.283	1	5
594.471	1	2
595.660	1	-7
596.848	1	3
598.037	1	-1
599.225	1	10
600.413	1	7
601.602	1	3
602.790	1	7
603.978	1	-2
605.166	1	-6
606.355	1	0
607.543	1	-5
608.731	1	-12
609.919	1	-14
611.107	1	8
612.295	1	-4
613.483	1	3
614.671	1	7
615.858	1	3
617.046	1	-3
618.234	1	-3
619.422	1	6
620.609	1	10
621.797	1	-1
622.985	1	0
624.172	1	15
625.360	1	-11
626.547	1	-4
627.735	1	10
628.922	1	-10
630.109	1	-1
631.297	1	-7
632.484	1	-1
633.671	1	9
634.858	1	5
636.045	1	1
637.232	1	7
638.419	1	9
639.606	1	14
640.793	1	11
641.980	1	0
643.167	1	7
644.354	1	-2
645.541	1	-18
646.728	1	2
647.914	1	-4
649.101	1	8
650.288	1	-7
651.474	1	2
652.661	1	-5
653.847	1	3
655.034	1	0
656.220	1	2
657.406	1	2
658.593	1	-10
659.779	1	0
660.965	1	0
662.152	1	-5
663.338	1	-8
664.524	1	-3
665.710	1	-1
666.896	1	3
668.082	1	-4
669.268	1	2
670.454	1	5
671.640	1	-19
672.826	1	-7
674.011	1	6
675.197	1	-7
676.383	1	-4
677.569	1	-13
678.754	1	-5
679.940	1	0
681.125	1	8
682.311	1	-4
683.496	1	-4
684.682	1	15
685.867	1	3
687.053	1	6
688.238	1	-2
688.746	1	-3