File: Analysis/GaN_68K_200ms/GaN_sample E_spot4_UVVIS_68 K_200um_200 ms 2x2mm1_172.txt
340.368	1	1
341.565	1	-3
342.763	1	13
343.960	1	1
345.157	1	11
346.354	1	-4
347.552	1	-2
348.749	1	3
349.946	1	4
351.143	1	-5
352.340	1	8
353.537	1	3
354.734	1	4
355.931	1	9
357.127	1	10
358.324	1	4
359.521	1	6
360.718	1	3
361.914	1	16
363.111	1	28
364.308	1	24
365.504	1	23
366.701	1	24
367.897	1	43
369.093	1	47
370.290	1	30
371.486	1	32
372.682	1	16
373.879	1	27
375.075	1	28
376.271	1	16
377.467	1	21
378.663	1	14
379.859	1	7
381.055	1	13
382.251	1	24
383.447	1	27
384.643	1	40
385.839	1	52
387.035	1	33
388.230	1	52
389.426	1	50
390.622	1	27
391.817	1	48
393.013	1	44
394.208	1	38
395.404	1	50
396.599	1	36
397.795	1	34
398.990	1	44
400.186	1	44
401.381	1	34
402.576	1	46
403.771	1	28
404.967	1	27
406.162	1	18
407.357	1	37
408.552	1	20
409.747	1	22
410.942	1	23
412.137	1	24
413.332	1	16
414.526	1	16
415.721	1	21
416.916	1	18
418.111	1	22
419.305	1	12
420.500	1	20
421.695	1	19
422.889	1	18
424.084	1	11
425.278	1	9
426.472	1	16
427.667	1	20
428.861	1	14
430.055	1	7
431.250	1	-5
432.444	1	29
433.638	1	12
434.832	1	-1
436.026	1	12
437.220	1	18
438.414	1	5
439.608	1	10
440.802	1	11
441.996	1	9
443.190	1	2
444.384	1	11
445.578	1	11
446.771	1	-1
447.965	1	8
449.159	1	-4
450.352	1	17
451.546	1	15
452.739	1	10
453.933	1	6
455.126	1	9
456.320	1	5
457.513	1	6
458.706	1	6
459.899	1	17
461.093	1	13
462.286	1	8
463.479	1	19
464.672	1	9
465.865	1	-3
467.058	1	10
468.251	1	3
469.444	1	3
470.637	1	13
471.830	1	18
473.023	1	-1
474.215	1	6
475.408	1	6
476.601	1	0
477.793	1	9
478.986	1	2
480.179	1	3
481.371	1	4
482.564	1	6
483.756	1	10
484.948	1	1
486.141	1	6
487.333	1	8
488.525	1	6
489.718	1	5
490.910	1	0
492.102	1	2
493.294	1	15
494.486	1	9
495.678	1	14
496.870	1	8
498.062	1	11
499.254	1	6
500.446	1	19
501.638	1	14
502.829	1	14
504.021	1	41
505.213	1	9
506.404	1	21
507.596	1	24
508.788	1	21
509.979	1	15
511.171	1	23
512.362	1	21
513.553	1	7
514.745	1	20
515.936	1	17
517.127	1	34
518.319	1	21
519.510	1	28
520.701	1	23
521.892	1	22
523.083	1	21
524.274	1	20
525.465	1	31
526.656	1	44
527.847	1	28
529.038	1	35
530.229	1	37
531.419	1	35
532.610	1	30
533.801	1	36
534.991	1	25
536.182	1	29
537.373	1	20
538.563	1	24
539.754	1	18
540.944	1	20
542.134	1	36
543.325	1	21
544.515	1	30
545.705	1	27
546.896	1	16
548.086	1	35
549.276	1	22
550.466	1	25
551.656	1	22
552.846	1	21
554.036	1	25
555.226	1	11
556.416	1	30
557.606	1	15
558.796	1	20
559.986	1	25
561.175	1	12
562.365	1	17
563.555	1	20
564.744	1	23
565.934	1	19
567.123	1	31
568.313	1	7
569.502	1	18
570.692	1	24
571.881	1	16
573.070	1	16
574.260	1	7
575.449	1	13
576.638	1	4
577.827	1	15
579.016	1	20
580.205	1	8
581.394	1	6
582.583	1	5
583.772	1	16
584.961	1	15
586.150	1	9
587.339	1	8
588.528	1	14
589.717	1	8
590.905	1	4
592.094	1	12
593.283	1	16
594.471	1	14
595.660	1	8
596.848	1	11
598.037	1	17
599.225	1	9
600.413	1	8
601.602	1	10
602.790	1	7
603.978	1	8
605.166	1	4
606.355	1	4
607.543	1	-4
608.731	1	-1
609.919	1	4
611.107	1	8
612.295	1	12
613.483	1	11
614.671	1	-1
615.858	1	11
617.046	1	1
618.234	1	4
619.422	1	0
620.609	1	3
621.797	1	-1
622.985	1	11
624.172	1	19
625.360	1	-7
626.547	1	6
627.735	1	6
628.922	1	-2
630.109	1	4
631.297	1	-3
632.484	1	5
633.671	1	3
634.858	1	12
636.045	1	6
637.232	1	0
638.419	1	15
639.606	1	16
640.793	1	12
641.980	1	-1
643.167	1	17
644.354	1	1
645.541	1	-5
646.728	1	0
647.914	1	3
649.101	1	3
650.288	1	10
651.474	1	5
652.661	1	4
653.847	1	1
655.034	1	4
656.220	1	14
657.406	1	4
658.593	1	-8
659.779	1	3
660.965	1	12
662.152	1	0
663.338	1	0
664.524	1	-6
665.710	1	-4
666.896	1	3
668.082	1	6
669.268	1	7
670.454	1	7
671.640	1	-6
672.826	1	-13
674.011	1	7
675.197	1	4
676.383	1	6
677.569	1	5
678.754	1	10
679.940	1	0
681.125	1	5
682.311	1	6
683.496	1	-5
684.682	1	7
685.867	1	-1
687.053	1	8
688.238	1	10
688.746	1	-3