File: Analysis/GaN_68K_200ms/GaN_sample E_spot4_UVVIS_68 K_200um_200 ms 2x2mm1_699.txt
340.368	1	0
341.565	1	-6
342.763	1	2
343.960	1	0
345.157	1	3
346.354	1	4
347.552	1	7
348.749	1	0
349.946	1	3
351.143	1	-8
352.340	1	-4
353.537	1	-1
354.734	1	-7
355.931	1	8
357.127	1	7
358.324	1	-9
359.521	1	-2
360.718	1	-3
361.914	1	1
363.111	1	10
364.308	1	-3
365.504	1	-6
366.701	1	-15
367.897	1	-3
369.093	1	5
370.290	1	-10
371.486	1	12
372.682	1	-3
373.879	1	5
375.075	1	6
376.271	1	-6
377.467	1	-9
378.663	1	0
379.859	1	-1
381.055	1	3
382.251	1	-1
383.447	1	7
384.643	1	-1
385.839	1	3
387.035	1	-2
388.230	1	-5
389.426	1	5
390.622	1	-7
391.817	1	-2
393.013	1	4
394.208	1	3
395.404	1	8
396.599	1	0
397.795	1	1
398.990	1	8
400.186	1	16
401.381	1	-1
402.576	1	7
403.771	1	14
404.967	1	-2
406.162	1	-8
407.357	1	-5
408.552	1	10
409.747	1	-4
410.942	1	-1
412.137	1	6
413.332	1	1
414.526	1	0
415.721	1	-1
416.916	1	3
418.111	1	1
419.305	1	2
420.500	1	11
421.695	1	-3
422.889	1	17
424.084	1	5
425.278	1	-3
426.472	1	-9
427.667	1	-2
428.861	1	-1
430.055	1	-7
431.250	1	-7
432.444	1	5
433.638	1	-3
434.832	1	-9
436.026	1	-6
437.220	1	8
438.414	1	2
439.608	1	7
440.802	1	8
441.996	1	-1
443.190	1	-13
444.384	1	5
445.578	1	-1
446.771	1	-3
447.965	1	-13
449.159	1	-5
450.352	1	6
451.546	1	2
452.739	1	-3
453.933	1	10
455.126	1	3
456.320	1	-2
457.513	1	7
458.706	1	1
459.899	1	5
461.093	1	-1
462.286	1	0
463.479	1	14
464.672	1	0
465.865	1	-1
467.058	1	15
468.251	1	-6
469.444	1	-5
470.637	1	8
471.830	1	14
473.023	1	1
474.215	1	-6
475.408	1	-5
476.601	1	-9
477.793	1	5
478.986	1	0
480.179	1	-7
481.371	1	-2
482.564	1	-6
483.756	1	6
484.948	1	-3
486.141	1	-17
487.333	1	-1
488.525	1	-5
489.718	1	0
490.910	1	3
492.102	1	-7
493.294	1	3
494.486	1	-3
495.678	1	7
496.870	1	-5
498.062	1	2
499.254	1	-3
500.446	1	10
501.638	1	1
502.829	1	-2
504.021	1	20
505.213	1	-1
506.404	1	2
507.596	1	4
508.788	1	-4
509.979	1	-11
511.171	1	3
512.362	1	2
513.553	1	-10
514.745	1	-14
515.936	1	5
517.127	1	8
518.319	1	-1
519.510	1	-2
520.701	1	-2
521.892	1	-7
523.083	1	9
524.274	1	-10
525.465	1	3
526.656	1	16
527.847	1	-6
529.038	1	-4
530.229	1	8
531.419	1	10
532.610	1	7
533.801	1	2
534.991	1	8
536.182	1	-8
537.373	1	-7
538.563	1	0
539.754	1	8
540.944	1	-5
542.134	1	3
543.325	1	-4
544.515	1	-8
545.705	1	9
546.896	1	-3
548.086	1	5
549.276	1	3
550.466	1	8
551.656	1	-3
552.846	1	-2
554.036	1	-4
555.226	1	-8
556.416	1	7
557.606	1	-5
558.796	1	-4
559.986	1	-1
561.175	1	-3
562.365	1	-1
563.555	1	4
564.744	1	6
565.934	1	2
567.123	1	16
568.313	1	-2
569.502	1	4
570.692	1	5
571.881	1	4
573.070	1	7
574.260	1	1
575.449	1	1
576.638	1	0
577.827	1	-3
579.016	1	11
580.205	1	7
581.394	1	-1
582.583	1	-8
583.772	1	-5
584.961	1	13
586.150	1	-1
587.339	1	0
588.528	1	0
589.717	1	5
590.905	1	4
592.094	1	-2
593.283	1	-1
594.471	1	3
595.660	1	-6
596.848	1	9
598.037	1	4
599.225	1	-6
600.413	1	1
601.602	1	-5
602.790	1	-2
603.978	1	5
605.166	1	4
606.355	1	9
607.543	1	-12
608.731	1	-5
609.919	1	-2
611.107	1	9
612.295	1	2
613.483	1	9
614.671	1	1
615.858	1	6
617.046	1	-2
618.234	1	-3
619.422	1	-1
620.609	1	-10
621.797	1	1
622.985	1	1
624.172	1	-3
625.360	1	-8
626.547	1	3
627.735	1	-4
628.922	1	-8
630.109	1	0
631.297	1	-4
632.484	1	-4
633.671	1	1
634.858	1	5
636.045	1	-1
637.232	1	3
638.419	1	3
639.606	1	8
640.793	1	3
641.980	1	-5
643.167	1	16
644.354	1	3
645.541	1	-4
646.728	1	6
647.914	1	-5
649.101	1	7
650.288	1	0
651.474	1	2
652.661	1	0
653.847	1	-7
655.034	1	-3
656.220	1	5
657.406	1	0
658.593	1	-9
659.779	1	1
660.965	1	-3
662.152	1	-5
663.338	1	-12
664.524	1	-8
665.710	1	-1
666.896	1	-13
668.082	1	-7
669.268	1	-1
670.454	1	-5
671.640	1	-26
672.826	1	-8
674.011	1	7
675.197	1	-2
676.383	1	-3
677.569	1	-1
678.754	1	2
679.940	1	-6
681.125	1	0
682.311	1	-2
683.496	1	-15
684.682	1	3
685.867	1	2
687.053	1	-5
688.238	1	-6
688.746	1	3