File: Analysis/GaN_68K_200ms/GaN_sample E_spot4_UVVIS_68 K_200um_200 ms 2x2mm1_673.txt
340.368	1	-5
341.565	1	-6
342.763	1	-5
343.960	1	-4
345.157	1	-1
346.354	1	-2
347.552	1	-6
348.749	1	7
349.946	1	1
351.143	1	-9
352.340	1	2
353.537	1	-7
354.734	1	1
355.931	1	1
357.127	1	0
358.324	1	-2
359.521	1	3
360.718	1	-9
361.914	1	5
363.111	1	4
364.308	1	-4
365.504	1	-5
366.701	1	-9
367.897	1	-1
369.093	1	-8
370.290	1	-5
371.486	1	7
372.682	1	-2
373.879	1	7
375.075	1	3
376.271	1	-5
377.467	1	-2
378.663	1	1
379.859	1	-8
381.055	1	-3
382.251	1	4
383.447	1	9
384.643	1	5
385.839	1	5
387.035	1	2
388.230	1	-3
389.426	1	2
390.622	1	-1
391.817	1	-4
393.013	1	9
394.208	1	6
395.404	1	8
396.599	1	5
397.795	1	3
398.990	1	3
400.186	1	1
401.381	1	2
402.576	1	10
403.771	1	3
404.967	1	-5
406.162	1	-2
407.357	1	-6
408.552	1	7
409.747	1	-3
410.942	1	-4
412.137	1	4
413.332	1	-2
414.526	1	-7
415.721	1	5
416.916	1	-1
418.111	1	-1
419.305	1	-10
420.500	1	1
421.695	1	0
422.889	1	7
424.084	1	7
425.278	1	-5
426.472	1	4
427.667	1	5
428.861	1	-7
430.055	1	-2
431.250	1	-1
432.444	1	8
433.638	1	1
434.832	1	-11
436.026	1	7
437.220	1	5
438.414	1	1
439.608	1	-8
440.802	1	5
441.996	1	-2
443.190	1	-8
444.384	1	-4
445.578	1	7
446.771	1	-5
447.965	1	-15
449.159	1	-5
450.352	1	11
451.546	1	5
452.739	1	-3
453.933	1	4
455.126	1	-2
456.320	1	-6
457.513	1	9
458.706	1	-2
459.899	1	8
461.093	1	1
462.286	1	9
463.479	1	11
464.672	1	-5
465.865	1	-7
467.058	1	10
468.251	1	-9
469.444	1	-4
470.637	1	11
471.830	1	11
473.023	1	-15
474.215	1	-1
475.408	1	3
476.601	1	2
477.793	1	3
478.986	1	-1
480.179	1	1
481.371	1	1
482.564	1	-10
483.756	1	11
484.948	1	-9
486.141	1	-6
487.333	1	8
488.525	1	2
489.718	1	-7
490.910	1	-2
492.102	1	-8
493.294	1	4
494.486	1	-14
495.678	1	2
496.870	1	4
498.062	1	-10
499.254	1	4
500.446	1	4
501.638	1	-3
502.829	1	-1
504.021	1	9
505.213	1	10
506.404	1	-1
507.596	1	1
508.788	1	-3
509.979	1	-10
511.171	1	13
512.362	1	-2
513.553	1	-1
514.745	1	-5
515.936	1	0
517.127	1	0
518.319	1	-4
519.510	1	-3
520.701	1	2
521.892	1	-9
523.083	1	-1
524.274	1	-7
525.465	1	8
526.656	1	11
527.847	1	-12
529.038	1	12
530.229	1	-3
531.419	1	1
532.610	1	6
533.801	1	-8
534.991	1	-4
536.182	1	4
537.373	1	-1
538.563	1	-3
539.754	1	-2
540.944	1	0
542.134	1	3
543.325	1	0
544.515	1	0
545.705	1	11
546.896	1	-5
548.086	1	1
549.276	1	12
550.466	1	2
551.656	1	-7
552.846	1	6
554.036	1	-3
555.226	1	-7
556.416	1	-2
557.606	1	-7
558.796	1	-3
559.986	1	-3
561.175	1	-5
562.365	1	7
563.555	1	9
564.744	1	-1
565.934	1	7
567.123	1	14
568.313	1	-7
569.502	1	-1
570.692	1	4
571.881	1	10
573.070	1	7
574.260	1	7
575.449	1	0
576.638	1	3
577.827	1	5
579.016	1	5
580.205	1	-1
581.394	1	-3
582.583	1	-6
583.772	1	-5
584.961	1	1
586.150	1	0
587.339	1	2
588.528	1	4
589.717	1	3
590.905	1	3
592.094	1	11
593.283	1	16
594.471	1	5
595.660	1	1
596.848	1	2
598.037	1	5
599.225	1	-4
600.413	1	-2
601.602	1	17
602.790	1	-4
603.978	1	5
605.166	1	-4
606.355	1	5
607.543	1	-10
608.731	1	-5
609.919	1	0
611.107	1	14
612.295	1	-3
613.483	1	7
614.671	1	2
615.858	1	9
617.046	1	7
618.234	1	3
619.422	1	-3
620.609	1	0
621.797	1	4
622.985	1	-4
624.172	1	4
625.360	1	-5
626.547	1	-7
627.735	1	8
628.922	1	-1
630.109	1	-7
631.297	1	-8
632.484	1	-8
633.671	1	0
634.858	1	2
636.045	1	-5
637.232	1	-9
638.419	1	0
639.606	1	13
640.793	1	4
641.980	1	-5
643.167	1	6
644.354	1	5
645.541	1	-11
646.728	1	0
647.914	1	6
649.101	1	-3
650.288	1	-5
651.474	1	-2
652.661	1	-1
653.847	1	7
655.034	1	-2
656.220	1	10
657.406	1	4
658.593	1	-11
659.779	1	-6
660.965	1	3
662.152	1	-5
663.338	1	-13
664.524	1	-6
665.710	1	-3
666.896	1	-5
668.082	1	-2
669.268	1	-7
670.454	1	1
671.640	1	-17
672.826	1	-8
674.011	1	6
675.197	1	5
676.383	1	-7
677.569	1	-8
678.754	1	6
679.940	1	-7
681.125	1	1
682.311	1	11
683.496	1	-11
684.682	1	7
685.867	1	-5
687.053	1	-2
688.238	1	6
688.746	1	1