File: Analysis/GaN_68K_200ms/GaN_sample E_spot4_UVVIS_68 K_200um_200 ms 2x2mm1_664.txt
340.368	1	-9
341.565	1	-8
342.763	1	-3
343.960	1	-4
345.157	1	7
346.354	1	1
347.552	1	-2
348.749	1	1
349.946	1	16
351.143	1	-2
352.340	1	3
353.537	1	0
354.734	1	-6
355.931	1	7
357.127	1	1
358.324	1	-1
359.521	1	3
360.718	1	-10
361.914	1	-8
363.111	1	3
364.308	1	-3
365.504	1	-3
366.701	1	-6
367.897	1	4
369.093	1	1
370.290	1	-9
371.486	1	12
372.682	1	-2
373.879	1	1
375.075	1	7
376.271	1	-1
377.467	1	-8
378.663	1	-2
379.859	1	-7
381.055	1	5
382.251	1	0
383.447	1	16
384.643	1	14
385.839	1	1
387.035	1	3
388.230	1	-3
389.426	1	9
390.622	1	-6
391.817	1	-5
393.013	1	3
394.208	1	3
395.404	1	15
396.599	1	1
397.795	1	9
398.990	1	13
400.186	1	11
401.381	1	1
402.576	1	9
403.771	1	-6
404.967	1	-2
406.162	1	-4
407.357	1	2
408.552	1	6
409.747	1	-1
410.942	1	5
412.137	1	5
413.332	1	3
414.526	1	4
415.721	1	-1
416.916	1	1
418.111	1	-2
419.305	1	-10
420.500	1	4
421.695	1	9
422.889	1	12
424.084	1	1
425.278	1	-12
426.472	1	-5
427.667	1	0
428.861	1	-6
430.055	1	-6
431.250	1	-13
432.444	1	4
433.638	1	5
434.832	1	-15
436.026	1	2
437.220	1	16
438.414	1	1
439.608	1	8
440.802	1	1
441.996	1	-6
443.190	1	-8
444.384	1	7
445.578	1	14
446.771	1	2
447.965	1	-5
449.159	1	-14
450.352	1	12
451.546	1	5
452.739	1	-4
453.933	1	1
455.126	1	4
456.320	1	-4
457.513	1	8
458.706	1	2
459.899	1	12
461.093	1	7
462.286	1	12
463.479	1	13
464.672	1	1
465.865	1	-6
467.058	1	6
468.251	1	7
469.444	1	3
470.637	1	13
471.830	1	14
473.023	1	-4
474.215	1	1
475.408	1	0
476.601	1	-4
477.793	1	3
478.986	1	3
480.179	1	4
481.371	1	5
482.564	1	-7
483.756	1	3
484.948	1	2
486.141	1	-6
487.333	1	7
488.525	1	0
489.718	1	-2
490.910	1	-2
492.102	1	-8
493.294	1	3
494.486	1	3
495.678	1	0
496.870	1	0
498.062	1	4
499.254	1	5
500.446	1	11
501.638	1	7
502.829	1	-1
504.021	1	20
505.213	1	-2
506.404	1	-4
507.596	1	0
508.788	1	4
509.979	1	-11
511.171	1	8
512.362	1	-5
513.553	1	-11
514.745	1	-3
515.936	1	4
517.127	1	-5
518.319	1	-4
519.510	1	-1
520.701	1	2
521.892	1	-18
523.083	1	-5
524.274	1	-7
525.465	1	-5
526.656	1	7
527.847	1	-8
529.038	1	1
530.229	1	5
531.419	1	10
532.610	1	6
533.801	1	1
534.991	1	0
536.182	1	3
537.373	1	-4
538.563	1	8
539.754	1	6
540.944	1	0
542.134	1	5
543.325	1	-4
544.515	1	-1
545.705	1	1
546.896	1	1
548.086	1	0
549.276	1	8
550.466	1	-13
551.656	1	-8
552.846	1	5
554.036	1	1
555.226	1	-11
556.416	1	-4
557.606	1	-10
558.796	1	4
559.986	1	0
561.175	1	-2
562.365	1	2
563.555	1	6
564.744	1	7
565.934	1	3
567.123	1	10
568.313	1	-5
569.502	1	5
570.692	1	5
571.881	1	-2
573.070	1	-5
574.260	1	-7
575.449	1	-6
576.638	1	-4
577.827	1	4
579.016	1	14
580.205	1	-1
581.394	1	-3
582.583	1	-2
583.772	1	10
584.961	1	1
586.150	1	-3
587.339	1	10
588.528	1	2
589.717	1	0
590.905	1	-1
592.094	1	4
593.283	1	11
594.471	1	-11
595.660	1	-4
596.848	1	3
598.037	1	1
599.225	1	8
600.413	1	-5
601.602	1	4
602.790	1	-4
603.978	1	-2
605.166	1	-9
606.355	1	11
607.543	1	-10
608.731	1	-4
609.919	1	-7
611.107	1	1
612.295	1	2
613.483	1	3
614.671	1	2
615.858	1	6
617.046	1	10
618.234	1	8
619.422	1	1
620.609	1	-3
621.797	1	-2
622.985	1	-2
624.172	1	4
625.360	1	-3
626.547	1	-2
627.735	1	8
628.922	1	-12
630.109	1	-2
631.297	1	-18
632.484	1	2
633.671	1	1
634.858	1	-1
636.045	1	2
637.232	1	4
638.419	1	2
639.606	1	13
640.793	1	4
641.980	1	-5
643.167	1	-6
644.354	1	-6
645.541	1	-11
646.728	1	2
647.914	1	-8
649.101	1	1
650.288	1	-4
651.474	1	6
652.661	1	-5
653.847	1	8
655.034	1	5
656.220	1	-1
657.406	1	-1
658.593	1	-10
659.779	1	2
660.965	1	6
662.152	1	1
663.338	1	-5
664.524	1	-11
665.710	1	-8
666.896	1	-2
668.082	1	-5
669.268	1	2
670.454	1	3
671.640	1	-6
672.826	1	-12
674.011	1	3
675.197	1	1
676.383	1	-1
677.569	1	-10
678.754	1	-2
679.940	1	-2
681.125	1	8
682.311	1	4
683.496	1	-15
684.682	1	4
685.867	1	4
687.053	1	4
688.238	1	-4
688.746	1	-4