File: Analysis/GaN_68K_200ms/GaN_sample E_spot4_UVVIS_68 K_200um_200 ms 2x2mm1_584.txt
340.368	1	0
341.565	1	-6
342.763	1	-4
343.960	1	-5
345.157	1	8
346.354	1	-3
347.552	1	1
348.749	1	2
349.946	1	6
351.143	1	-8
352.340	1	3
353.537	1	2
354.734	1	4
355.931	1	2
357.127	1	-5
358.324	1	-2
359.521	1	11
360.718	1	0
361.914	1	-4
363.111	1	10
364.308	1	6
365.504	1	-7
366.701	1	3
367.897	1	2
369.093	1	-4
370.290	1	0
371.486	1	8
372.682	1	-7
373.879	1	9
375.075	1	8
376.271	1	0
377.467	1	-2
378.663	1	-3
379.859	1	-11
381.055	1	7
382.251	1	3
383.447	1	-2
384.643	1	12
385.839	1	3
387.035	1	4
388.230	1	-4
389.426	1	2
390.622	1	-7
391.817	1	-4
393.013	1	4
394.208	1	11
395.404	1	-2
396.599	1	-2
397.795	1	-1
398.990	1	2
400.186	1	6
401.381	1	6
402.576	1	12
403.771	1	7
404.967	1	3
406.162	1	-2
407.357	1	3
408.552	1	0
409.747	1	-2
410.942	1	8
412.137	1	7
413.332	1	-1
414.526	1	-4
415.721	1	-4
416.916	1	0
418.111	1	-3
419.305	1	-4
420.500	1	5
421.695	1	9
422.889	1	16
424.084	1	-3
425.278	1	-5
426.472	1	-7
427.667	1	9
428.861	1	5
430.055	1	-5
431.250	1	-10
432.444	1	2
433.638	1	0
434.832	1	0
436.026	1	5
437.220	1	12
438.414	1	5
439.608	1	-4
440.802	1	0
441.996	1	6
443.190	1	-4
444.384	1	11
445.578	1	11
446.771	1	-3
447.965	1	0
449.159	1	-8
450.352	1	4
451.546	1	-6
452.739	1	-4
453.933	1	0
455.126	1	3
456.320	1	3
457.513	1	-2
458.706	1	6
459.899	1	3
461.093	1	-2
462.286	1	3
463.479	1	5
464.672	1	-4
465.865	1	0
467.058	1	9
468.251	1	-1
469.444	1	2
470.637	1	10
471.830	1	7
473.023	1	1
474.215	1	-2
475.408	1	1
476.601	1	2
477.793	1	2
478.986	1	5
480.179	1	3
481.371	1	1
482.564	1	-1
483.756	1	11
484.948	1	-3
486.141	1	-16
487.333	1	8
488.525	1	-5
489.718	1	-7
490.910	1	-14
492.102	1	-4
493.294	1	4
494.486	1	1
495.678	1	8
496.870	1	-8
498.062	1	5
499.254	1	4
500.446	1	14
501.638	1	-1
502.829	1	-3
504.021	1	21
505.213	1	-5
506.404	1	-1
507.596	1	2
508.788	1	4
509.979	1	4
511.171	1	8
512.362	1	-3
513.553	1	-3
514.745	1	-4
515.936	1	1
517.127	1	0
518.319	1	-1
519.510	1	-6
520.701	1	11
521.892	1	-12
523.083	1	4
524.274	1	-8
525.465	1	-5
526.656	1	10
527.847	1	-4
529.038	1	2
530.229	1	3
531.419	1	10
532.610	1	4
533.801	1	5
534.991	1	3
536.182	1	-7
537.373	1	-8
538.563	1	3
539.754	1	-1
540.944	1	0
542.134	1	6
543.325	1	-4
544.515	1	0
545.705	1	10
546.896	1	-1
548.086	1	1
549.276	1	8
550.466	1	-13
551.656	1	3
552.846	1	5
554.036	1	-1
555.226	1	-8
556.416	1	0
557.606	1	-2
558.796	1	-3
559.986	1	-3
561.175	1	-7
562.365	1	14
563.555	1	3
564.744	1	5
565.934	1	14
567.123	1	17
568.313	1	3
569.502	1	11
570.692	1	-1
571.881	1	7
573.070	1	8
574.260	1	-5
575.449	1	6
576.638	1	-3
577.827	1	15
579.016	1	12
580.205	1	2
581.394	1	-4
582.583	1	-9
583.772	1	5
584.961	1	4
586.150	1	5
587.339	1	3
588.528	1	-4
589.717	1	-2
590.905	1	-2
592.094	1	0
593.283	1	10
594.471	1	2
595.660	1	-5
596.848	1	0
598.037	1	0
599.225	1	3
600.413	1	-6
601.602	1	-4
602.790	1	7
603.978	1	3
605.166	1	-11
606.355	1	12
607.543	1	-2
608.731	1	-4
609.919	1	-8
611.107	1	5
612.295	1	2
613.483	1	7
614.671	1	9
615.858	1	0
617.046	1	9
618.234	1	-3
619.422	1	2
620.609	1	3
621.797	1	-2
622.985	1	-5
624.172	1	6
625.360	1	-14
626.547	1	2
627.735	1	14
628.922	1	-2
630.109	1	0
631.297	1	-9
632.484	1	-1
633.671	1	-5
634.858	1	12
636.045	1	7
637.232	1	-8
638.419	1	7
639.606	1	12
640.793	1	9
641.980	1	-6
643.167	1	9
644.354	1	2
645.541	1	-16
646.728	1	12
647.914	1	-4
649.101	1	-1
650.288	1	-8
651.474	1	3
652.661	1	7
653.847	1	-1
655.034	1	-2
656.220	1	-1
657.406	1	6
658.593	1	-13
659.779	1	-7
660.965	1	2
662.152	1	-3
663.338	1	-7
664.524	1	-3
665.710	1	1
666.896	1	4
668.082	1	-2
669.268	1	-3
670.454	1	-1
671.640	1	-6
672.826	1	-14
674.011	1	9
675.197	1	2
676.383	1	4
677.569	1	-11
678.754	1	-7
679.940	1	4
681.125	1	11
682.311	1	5
683.496	1	-4
684.682	1	6
685.867	1	7
687.053	1	4
688.238	1	-2
688.746	1	1