File: Analysis/GaN_68K_200ms/GaN_sample E_spot4_UVVIS_68 K_200um_200 ms 2x2mm1_403.txt
340.368	1	3
341.565	1	-2
342.763	1	0
343.960	1	-2
345.157	1	3
346.354	1	-4
347.552	1	0
348.749	1	0
349.946	1	5
351.143	1	-6
352.340	1	1
353.537	1	0
354.734	1	-7
355.931	1	1
357.127	1	7
358.324	1	-1
359.521	1	-3
360.718	1	3
361.914	1	-1
363.111	1	14
364.308	1	3
365.504	1	11
366.701	1	7
367.897	1	9
369.093	1	-3
370.290	1	-6
371.486	1	8
372.682	1	-3
373.879	1	2
375.075	1	14
376.271	1	-7
377.467	1	3
378.663	1	-7
379.859	1	-7
381.055	1	0
382.251	1	7
383.447	1	5
384.643	1	8
385.839	1	8
387.035	1	1
388.230	1	-2
389.426	1	21
390.622	1	2
391.817	1	-1
393.013	1	15
394.208	1	9
395.404	1	5
396.599	1	8
397.795	1	12
398.990	1	12
400.186	1	8
401.381	1	2
402.576	1	9
403.771	1	3
404.967	1	6
406.162	1	4
407.357	1	3
408.552	1	7
409.747	1	-3
410.942	1	4
412.137	1	17
413.332	1	1
414.526	1	6
415.721	1	6
416.916	1	5
418.111	1	3
419.305	1	-3
420.500	1	6
421.695	1	2
422.889	1	5
424.084	1	7
425.278	1	-7
426.472	1	-6
427.667	1	14
428.861	1	4
430.055	1	6
431.250	1	-6
432.444	1	14
433.638	1	2
434.832	1	-7
436.026	1	-1
437.220	1	12
438.414	1	0
439.608	1	-3
440.802	1	6
441.996	1	-2
443.190	1	-7
444.384	1	8
445.578	1	7
446.771	1	4
447.965	1	-10
449.159	1	10
450.352	1	6
451.546	1	3
452.739	1	-3
453.933	1	-2
455.126	1	4
456.320	1	0
457.513	1	14
458.706	1	-3
459.899	1	9
461.093	1	8
462.286	1	15
463.479	1	11
464.672	1	1
465.865	1	-7
467.058	1	9
468.251	1	-9
469.444	1	-1
470.637	1	15
471.830	1	24
473.023	1	-13
474.215	1	-5
475.408	1	4
476.601	1	4
477.793	1	13
478.986	1	-3
480.179	1	9
481.371	1	2
482.564	1	-7
483.756	1	8
484.948	1	1
486.141	1	-2
487.333	1	4
488.525	1	-1
489.718	1	-7
490.910	1	4
492.102	1	-7
493.294	1	2
494.486	1	4
495.678	1	6
496.870	1	4
498.062	1	1
499.254	1	-3
500.446	1	3
501.638	1	-4
502.829	1	-6
504.021	1	14
505.213	1	3
506.404	1	-7
507.596	1	7
508.788	1	5
509.979	1	-1
511.171	1	5
512.362	1	4
513.553	1	-3
514.745	1	-3
515.936	1	4
517.127	1	7
518.319	1	2
519.510	1	3
520.701	1	5
521.892	1	-7
523.083	1	-2
524.274	1	6
525.465	1	9
526.656	1	20
527.847	1	-2
529.038	1	-5
530.229	1	11
531.419	1	11
532.610	1	7
533.801	1	14
534.991	1	-1
536.182	1	-3
537.373	1	-2
538.563	1	-1
539.754	1	5
540.944	1	3
542.134	1	3
543.325	1	1
544.515	1	10
545.705	1	12
546.896	1	1
548.086	1	2
549.276	1	9
550.466	1	1
551.656	1	-4
552.846	1	11
554.036	1	5
555.226	1	-2
556.416	1	5
557.606	1	-2
558.796	1	6
559.986	1	-8
561.175	1	2
562.365	1	7
563.555	1	9
564.744	1	8
565.934	1	13
567.123	1	15
568.313	1	4
569.502	1	1
570.692	1	7
571.881	1	3
573.070	1	9
574.260	1	-7
575.449	1	7
576.638	1	3
577.827	1	11
579.016	1	11
580.205	1	13
581.394	1	-5
582.583	1	-5
583.772	1	0
584.961	1	8
586.150	1	-3
587.339	1	6
588.528	1	6
589.717	1	4
590.905	1	12
592.094	1	-2
593.283	1	2
594.471	1	8
595.660	1	-5
596.848	1	5
598.037	1	-4
599.225	1	3
600.413	1	3
601.602	1	9
602.790	1	-6
603.978	1	-2
605.166	1	-8
606.355	1	5
607.543	1	-5
608.731	1	-6
609.919	1	5
611.107	1	10
612.295	1	-1
613.483	1	-1
614.671	1	2
615.858	1	3
617.046	1	2
618.234	1	2
619.422	1	4
620.609	1	-3
621.797	1	0
622.985	1	10
624.172	1	14
625.360	1	0
626.547	1	4
627.735	1	8
628.922	1	3
630.109	1	0
631.297	1	-7
632.484	1	1
633.671	1	0
634.858	1	4
636.045	1	8
637.232	1	9
638.419	1	2
639.606	1	25
640.793	1	10
641.980	1	-7
643.167	1	8
644.354	1	-2
645.541	1	-11
646.728	1	11
647.914	1	1
649.101	1	-6
650.288	1	-9
651.474	1	2
652.661	1	4
653.847	1	5
655.034	1	2
656.220	1	4
657.406	1	4
658.593	1	-6
659.779	1	-4
660.965	1	7
662.152	1	0
663.338	1	1
664.524	1	-10
665.710	1	-1
666.896	1	-7
668.082	1	1
669.268	1	8
670.454	1	2
671.640	1	-13
672.826	1	-8
674.011	1	9
675.197	1	-8
676.383	1	2
677.569	1	-11
678.754	1	-9
679.940	1	1
681.125	1	7
682.311	1	0
683.496	1	-9
684.682	1	0
685.867	1	5
687.053	1	4
688.238	1	0
688.746	1	7