File: Analysis/GaN_68K_200ms/GaN_sample E_spot4_UVVIS_68 K_200um_200 ms 2x2mm1_288.txt
340.368	1	3
341.565	1	-7
342.763	1	-1
343.960	1	-3
345.157	1	5
346.354	1	1
347.552	1	3
348.749	1	5
349.946	1	2
351.143	1	0
352.340	1	7
353.537	1	7
354.734	1	0
355.931	1	11
357.127	1	4
358.324	1	2
359.521	1	0
360.718	1	2
361.914	1	1
363.111	1	13
364.308	1	3
365.504	1	12
366.701	1	7
367.897	1	4
369.093	1	8
370.290	1	5
371.486	1	14
372.682	1	-1
373.879	1	14
375.075	1	15
376.271	1	-2
377.467	1	-1
378.663	1	8
379.859	1	-1
381.055	1	11
382.251	1	-2
383.447	1	15
384.643	1	15
385.839	1	15
387.035	1	9
388.230	1	16
389.426	1	15
390.622	1	10
391.817	1	1
393.013	1	19
394.208	1	17
395.404	1	11
396.599	1	16
397.795	1	16
398.990	1	12
400.186	1	16
401.381	1	8
402.576	1	9
403.771	1	12
404.967	1	0
406.162	1	-5
407.357	1	6
408.552	1	5
409.747	1	-6
410.942	1	9
412.137	1	11
413.332	1	9
414.526	1	7
415.721	1	6
416.916	1	0
418.111	1	10
419.305	1	10
420.500	1	3
421.695	1	11
422.889	1	1
424.084	1	10
425.278	1	-2
426.472	1	-5
427.667	1	11
428.861	1	0
430.055	1	-2
431.250	1	-5
432.444	1	14
433.638	1	4
434.832	1	-8
436.026	1	5
437.220	1	9
438.414	1	0
439.608	1	0
440.802	1	6
441.996	1	3
443.190	1	-1
444.384	1	7
445.578	1	18
446.771	1	-6
447.965	1	1
449.159	1	1
450.352	1	12
451.546	1	5
452.739	1	4
453.933	1	5
455.126	1	-1
456.320	1	5
457.513	1	6
458.706	1	0
459.899	1	17
461.093	1	-2
462.286	1	6
463.479	1	9
464.672	1	3
465.865	1	2
467.058	1	17
468.251	1	-6
469.444	1	3
470.637	1	3
471.830	1	17
473.023	1	-6
474.215	1	0
475.408	1	-1
476.601	1	-4
477.793	1	15
478.986	1	-2
480.179	1	-1
481.371	1	4
482.564	1	-9
483.756	1	13
484.948	1	-13
486.141	1	-4
487.333	1	10
488.525	1	3
489.718	1	-6
490.910	1	6
492.102	1	-6
493.294	1	14
494.486	1	10
495.678	1	12
496.870	1	2
498.062	1	4
499.254	1	9
500.446	1	5
501.638	1	9
502.829	1	17
504.021	1	18
505.213	1	-4
506.404	1	3
507.596	1	11
508.788	1	1
509.979	1	2
511.171	1	13
512.362	1	14
513.553	1	-11
514.745	1	9
515.936	1	3
517.127	1	7
518.319	1	1
519.510	1	7
520.701	1	6
521.892	1	-4
523.083	1	3
524.274	1	-6
525.465	1	8
526.656	1	24
527.847	1	-2
529.038	1	16
530.229	1	7
531.419	1	16
532.610	1	7
533.801	1	12
534.991	1	9
536.182	1	-1
537.373	1	2
538.563	1	5
539.754	1	-2
540.944	1	0
542.134	1	3
543.325	1	7
544.515	1	5
545.705	1	11
546.896	1	-2
548.086	1	20
549.276	1	19
550.466	1	-6
551.656	1	-2
552.846	1	10
554.036	1	10
555.226	1	-4
556.416	1	6
557.606	1	-9
558.796	1	4
559.986	1	11
561.175	1	4
562.365	1	10
563.555	1	18
564.744	1	7
565.934	1	10
567.123	1	14
568.313	1	12
569.502	1	0
570.692	1	3
571.881	1	7
573.070	1	15
574.260	1	-9
575.449	1	5
576.638	1	9
577.827	1	14
579.016	1	8
580.205	1	7
581.394	1	0
582.583	1	3
583.772	1	4
584.961	1	3
586.150	1	11
587.339	1	11
588.528	1	8
589.717	1	4
590.905	1	4
592.094	1	1
593.283	1	4
594.471	1	10
595.660	1	-3
596.848	1	11
598.037	1	8
599.225	1	8
600.413	1	-4
601.602	1	6
602.790	1	4
603.978	1	-5
605.166	1	5
606.355	1	6
607.543	1	-9
608.731	1	-7
609.919	1	5
611.107	1	7
612.295	1	-2
613.483	1	5
614.671	1	10
615.858	1	6
617.046	1	7
618.234	1	5
619.422	1	4
620.609	1	9
621.797	1	3
622.985	1	8
624.172	1	7
625.360	1	-1
626.547	1	6
627.735	1	6
628.922	1	3
630.109	1	-1
631.297	1	2
632.484	1	-6
633.671	1	4
634.858	1	11
636.045	1	7
637.232	1	0
638.419	1	6
639.606	1	19
640.793	1	9
641.980	1	-1
643.167	1	10
644.354	1	-1
645.541	1	-15
646.728	1	10
647.914	1	-10
649.101	1	8
650.288	1	6
651.474	1	10
652.661	1	1
653.847	1	8
655.034	1	12
656.220	1	11
657.406	1	-3
658.593	1	-3
659.779	1	-2
660.965	1	-2
662.152	1	4
663.338	1	-4
664.524	1	-4
665.710	1	-2
666.896	1	-1
668.082	1	-3
669.268	1	7
670.454	1	4
671.640	1	-7
672.826	1	-8
674.011	1	6
675.197	1	8
676.383	1	1
677.569	1	4
678.754	1	-3
679.940	1	0
681.125	1	2
682.311	1	3
683.496	1	0
684.682	1	9
685.867	1	-4
687.053	1	5
688.238	1	-1
688.746	1	1