File: Analysis/GaN_68K_200ms/GaN_sample E_spot4_UVVIS_68 K_200um_200 ms 2x2mm1_198.txt
340.368	1	3
341.565	1	-6
342.763	1	7
343.960	1	1
345.157	1	7
346.354	1	6
347.552	1	3
348.749	1	2
349.946	1	11
351.143	1	-2
352.340	1	1
353.537	1	-4
354.734	1	0
355.931	1	6
357.127	1	5
358.324	1	13
359.521	1	6
360.718	1	9
361.914	1	8
363.111	1	18
364.308	1	12
365.504	1	4
366.701	1	17
367.897	1	19
369.093	1	20
370.290	1	14
371.486	1	25
372.682	1	6
373.879	1	15
375.075	1	25
376.271	1	11
377.467	1	4
378.663	1	2
379.859	1	6
381.055	1	17
382.251	1	16
383.447	1	19
384.643	1	28
385.839	1	24
387.035	1	16
388.230	1	26
389.426	1	29
390.622	1	24
391.817	1	18
393.013	1	24
394.208	1	26
395.404	1	29
396.599	1	27
397.795	1	27
398.990	1	28
400.186	1	30
401.381	1	21
402.576	1	27
403.771	1	19
404.967	1	19
406.162	1	11
407.357	1	19
408.552	1	20
409.747	1	12
410.942	1	16
412.137	1	21
413.332	1	10
414.526	1	15
415.721	1	13
416.916	1	13
418.111	1	8
419.305	1	4
420.500	1	10
421.695	1	13
422.889	1	25
424.084	1	15
425.278	1	-5
426.472	1	-1
427.667	1	21
428.861	1	4
430.055	1	16
431.250	1	-4
432.444	1	19
433.638	1	11
434.832	1	5
436.026	1	9
437.220	1	9
438.414	1	1
439.608	1	1
440.802	1	11
441.996	1	9
443.190	1	-2
444.384	1	9
445.578	1	21
446.771	1	7
447.965	1	-2
449.159	1	1
450.352	1	10
451.546	1	3
452.739	1	0
453.933	1	13
455.126	1	7
456.320	1	8
457.513	1	13
458.706	1	8
459.899	1	10
461.093	1	11
462.286	1	15
463.479	1	19
464.672	1	3
465.865	1	-1
467.058	1	4
468.251	1	8
469.444	1	4
470.637	1	18
471.830	1	10
473.023	1	-1
474.215	1	1
475.408	1	2
476.601	1	0
477.793	1	13
478.986	1	6
480.179	1	11
481.371	1	3
482.564	1	-7
483.756	1	4
484.948	1	5
486.141	1	-2
487.333	1	7
488.525	1	9
489.718	1	10
490.910	1	2
492.102	1	3
493.294	1	14
494.486	1	15
495.678	1	10
496.870	1	9
498.062	1	3
499.254	1	8
500.446	1	13
501.638	1	13
502.829	1	15
504.021	1	26
505.213	1	12
506.404	1	10
507.596	1	10
508.788	1	6
509.979	1	18
511.171	1	14
512.362	1	15
513.553	1	8
514.745	1	10
515.936	1	6
517.127	1	17
518.319	1	13
519.510	1	11
520.701	1	13
521.892	1	9
523.083	1	18
524.274	1	11
525.465	1	16
526.656	1	35
527.847	1	9
529.038	1	22
530.229	1	11
531.419	1	25
532.610	1	14
533.801	1	16
534.991	1	13
536.182	1	17
537.373	1	10
538.563	1	20
539.754	1	6
540.944	1	13
542.134	1	17
543.325	1	22
544.515	1	15
545.705	1	20
546.896	1	9
548.086	1	17
549.276	1	15
550.466	1	9
551.656	1	5
552.846	1	7
554.036	1	25
555.226	1	-1
556.416	1	13
557.606	1	10
558.796	1	7
559.986	1	5
561.175	1	7
562.365	1	9
563.555	1	17
564.744	1	20
565.934	1	19
567.123	1	26
568.313	1	8
569.502	1	6
570.692	1	10
571.881	1	14
573.070	1	9
574.260	1	6
575.449	1	4
576.638	1	6
577.827	1	9
579.016	1	21
580.205	1	12
581.394	1	1
582.583	1	-5
583.772	1	9
584.961	1	14
586.150	1	9
587.339	1	10
588.528	1	7
589.717	1	7
590.905	1	6
592.094	1	8
593.283	1	10
594.471	1	-1
595.660	1	7
596.848	1	3
598.037	1	10
599.225	1	9
600.413	1	4
601.602	1	7
602.790	1	1
603.978	1	4
605.166	1	3
606.355	1	13
607.543	1	-3
608.731	1	-1
609.919	1	-5
611.107	1	12
612.295	1	11
613.483	1	6
614.671	1	6
615.858	1	8
617.046	1	11
618.234	1	0
619.422	1	-4
620.609	1	2
621.797	1	12
622.985	1	9
624.172	1	14
625.360	1	0
626.547	1	-2
627.735	1	8
628.922	1	0
630.109	1	-5
631.297	1	-2
632.484	1	5
633.671	1	9
634.858	1	16
636.045	1	7
637.232	1	8
638.419	1	18
639.606	1	7
640.793	1	12
641.980	1	-4
643.167	1	17
644.354	1	-6
645.541	1	-5
646.728	1	2
647.914	1	4
649.101	1	2
650.288	1	5
651.474	1	2
652.661	1	5
653.847	1	6
655.034	1	2
656.220	1	6
657.406	1	13
658.593	1	-2
659.779	1	3
660.965	1	5
662.152	1	11
663.338	1	5
664.524	1	-8
665.710	1	-7
666.896	1	7
668.082	1	-2
669.268	1	4
670.454	1	9
671.640	1	-14
672.826	1	-12
674.011	1	11
675.197	1	-1
676.383	1	2
677.569	1	5
678.754	1	2
679.940	1	-1
681.125	1	13
682.311	1	-3
683.496	1	0
684.682	1	8
685.867	1	0
687.053	1	5
688.238	1	0
688.746	1	2