File: Analysis/GaN_68K_200ms/GaN_sample E_spot4_UVVIS_68 K_200um_200 ms 2x2mm1_41.txt
340.368	1	6
341.565	1	-6
342.763	1	-1
343.960	1	2
345.157	1	5
346.354	1	-5
347.552	1	7
348.749	1	5
349.946	1	9
351.143	1	-13
352.340	1	1
353.537	1	-5
354.734	1	-1
355.931	1	3
357.127	1	0
358.324	1	-2
359.521	1	0
360.718	1	1
361.914	1	7
363.111	1	7
364.308	1	8
365.504	1	1
366.701	1	-3
367.897	1	1
369.093	1	7
370.290	1	1
371.486	1	1
372.682	1	-3
373.879	1	6
375.075	1	9
376.271	1	-2
377.467	1	0
378.663	1	-7
379.859	1	1
381.055	1	10
382.251	1	0
383.447	1	-1
384.643	1	1
385.839	1	-4
387.035	1	-3
388.230	1	-2
389.426	1	7
390.622	1	-3
391.817	1	2
393.013	1	16
394.208	1	8
395.404	1	6
396.599	1	4
397.795	1	2
398.990	1	3
400.186	1	8
401.381	1	0
402.576	1	8
403.771	1	0
404.967	1	7
406.162	1	-9
407.357	1	-2
408.552	1	13
409.747	1	-3
410.942	1	1
412.137	1	8
413.332	1	5
414.526	1	4
415.721	1	4
416.916	1	4
418.111	1	-2
419.305	1	-4
420.500	1	6
421.695	1	4
422.889	1	11
424.084	1	0
425.278	1	-1
426.472	1	-6
427.667	1	6
428.861	1	-2
430.055	1	-3
431.250	1	-8
432.444	1	10
433.638	1	-8
434.832	1	2
436.026	1	2
437.220	1	4
438.414	1	1
439.608	1	7
440.802	1	2
441.996	1	3
443.190	1	-5
444.384	1	2
445.578	1	7
446.771	1	-2
447.965	1	-6
449.159	1	-14
450.352	1	13
451.546	1	5
452.739	1	-1
453.933	1	3
455.126	1	8
456.320	1	3
457.513	1	6
458.706	1	-1
459.899	1	16
461.093	1	9
462.286	1	5
463.479	1	7
464.672	1	3
465.865	1	3
467.058	1	1
468.251	1	-3
469.444	1	4
470.637	1	12
471.830	1	6
473.023	1	2
474.215	1	-4
475.408	1	-2
476.601	1	4
477.793	1	5
478.986	1	-4
480.179	1	3
481.371	1	2
482.564	1	-3
483.756	1	6
484.948	1	-6
486.141	1	-12
487.333	1	6
488.525	1	5
489.718	1	-8
490.910	1	-3
492.102	1	-2
493.294	1	4
494.486	1	3
495.678	1	12
496.870	1	2
498.062	1	5
499.254	1	0
500.446	1	15
501.638	1	-2
502.829	1	7
504.021	1	16
505.213	1	2
506.404	1	-1
507.596	1	11
508.788	1	-6
509.979	1	-2
511.171	1	10
512.362	1	-2
513.553	1	-2
514.745	1	5
515.936	1	7
517.127	1	3
518.319	1	2
519.510	1	-11
520.701	1	5
521.892	1	-7
523.083	1	3
524.274	1	-9
525.465	1	-5
526.656	1	10
527.847	1	-3
529.038	1	2
530.229	1	6
531.419	1	12
532.610	1	0
533.801	1	5
534.991	1	7
536.182	1	-2
537.373	1	-9
538.563	1	9
539.754	1	4
540.944	1	-4
542.134	1	6
543.325	1	4
544.515	1	-1
545.705	1	5
546.896	1	-3
548.086	1	2
549.276	1	7
550.466	1	-4
551.656	1	-9
552.846	1	5
554.036	1	7
555.226	1	-12
556.416	1	0
557.606	1	-13
558.796	1	6
559.986	1	-3
561.175	1	1
562.365	1	0
563.555	1	16
564.744	1	5
565.934	1	0
567.123	1	14
568.313	1	-5
569.502	1	3
570.692	1	2
571.881	1	11
573.070	1	10
574.260	1	3
575.449	1	3
576.638	1	8
577.827	1	8
579.016	1	18
580.205	1	2
581.394	1	-7
582.583	1	-7
583.772	1	1
584.961	1	-1
586.150	1	-5
587.339	1	2
588.528	1	-1
589.717	1	5
590.905	1	-2
592.094	1	2
593.283	1	9
594.471	1	0
595.660	1	-1
596.848	1	11
598.037	1	12
599.225	1	0
600.413	1	5
601.602	1	13
602.790	1	2
603.978	1	2
605.166	1	-1
606.355	1	3
607.543	1	1
608.731	1	-1
609.919	1	-8
611.107	1	3
612.295	1	-4
613.483	1	8
614.671	1	8
615.858	1	5
617.046	1	2
618.234	1	6
619.422	1	1
620.609	1	0
621.797	1	2
622.985	1	1
624.172	1	12
625.360	1	-6
626.547	1	3
627.735	1	8
628.922	1	-9
630.109	1	1
631.297	1	-2
632.484	1	-2
633.671	1	-4
634.858	1	1
636.045	1	1
637.232	1	-7
638.419	1	8
639.606	1	18
640.793	1	3
641.980	1	0
643.167	1	14
644.354	1	6
645.541	1	-6
646.728	1	8
647.914	1	0
649.101	1	6
650.288	1	-3
651.474	1	8
652.661	1	1
653.847	1	3
655.034	1	11
656.220	1	7
657.406	1	3
658.593	1	-10
659.779	1	-7
660.965	1	0
662.152	1	8
663.338	1	-3
664.524	1	-4
665.710	1	4
666.896	1	4
668.082	1	-4
669.268	1	-4
670.454	1	15
671.640	1	-7
672.826	1	-22
674.011	1	2
675.197	1	1
676.383	1	-3
677.569	1	-5
678.754	1	6
679.940	1	-6
681.125	1	1
682.311	1	7
683.496	1	-5
684.682	1	10
685.867	1	7
687.053	1	3
688.238	1	-8
688.746	1	2