File: Analysis/GaN_68K_200ms/GaN_sample E_spot4_UVVIS_68 K_200um_200 ms 2x2mm1_390.txt
340.368	1	-1
341.565	1	-5
342.763	1	0
343.960	1	-4
345.157	1	13
346.354	1	4
347.552	1	-1
348.749	1	7
349.946	1	5
351.143	1	-8
352.340	1	-4
353.537	1	-11
354.734	1	2
355.931	1	-7
357.127	1	9
358.324	1	-2
359.521	1	-1
360.718	1	-4
361.914	1	-3
363.111	1	8
364.308	1	-5
365.504	1	-2
366.701	1	-3
367.897	1	4
369.093	1	5
370.290	1	10
371.486	1	14
372.682	1	2
373.879	1	10
375.075	1	5
376.271	1	4
377.467	1	3
378.663	1	-6
379.859	1	3
381.055	1	1
382.251	1	13
383.447	1	14
384.643	1	12
385.839	1	8
387.035	1	1
388.230	1	10
389.426	1	17
390.622	1	-7
391.817	1	9
393.013	1	16
394.208	1	7
395.404	1	11
396.599	1	9
397.795	1	10
398.990	1	9
400.186	1	10
401.381	1	14
402.576	1	14
403.771	1	2
404.967	1	11
406.162	1	-5
407.357	1	3
408.552	1	8
409.747	1	12
410.942	1	2
412.137	1	8
413.332	1	5
414.526	1	5
415.721	1	-4
416.916	1	7
418.111	1	-1
419.305	1	-6
420.500	1	12
421.695	1	4
422.889	1	5
424.084	1	3
425.278	1	4
426.472	1	-1
427.667	1	22
428.861	1	3
430.055	1	-4
431.250	1	-5
432.444	1	5
433.638	1	-1
434.832	1	1
436.026	1	5
437.220	1	8
438.414	1	11
439.608	1	8
440.802	1	2
441.996	1	5
443.190	1	-10
444.384	1	8
445.578	1	8
446.771	1	-4
447.965	1	-7
449.159	1	2
450.352	1	9
451.546	1	1
452.739	1	-3
453.933	1	13
455.126	1	7
456.320	1	8
457.513	1	14
458.706	1	-2
459.899	1	15
461.093	1	-3
462.286	1	6
463.479	1	8
464.672	1	7
465.865	1	-2
467.058	1	10
468.251	1	-10
469.444	1	-2
470.637	1	13
471.830	1	8
473.023	1	-1
474.215	1	-3
475.408	1	3
476.601	1	-3
477.793	1	9
478.986	1	7
480.179	1	10
481.371	1	-1
482.564	1	-5
483.756	1	4
484.948	1	-1
486.141	1	-5
487.333	1	8
488.525	1	2
489.718	1	-5
490.910	1	-3
492.102	1	-4
493.294	1	11
494.486	1	9
495.678	1	16
496.870	1	2
498.062	1	-4
499.254	1	8
500.446	1	8
501.638	1	6
502.829	1	1
504.021	1	25
505.213	1	0
506.404	1	-2
507.596	1	13
508.788	1	10
509.979	1	6
511.171	1	9
512.362	1	5
513.553	1	-4
514.745	1	6
515.936	1	8
517.127	1	0
518.319	1	2
519.510	1	4
520.701	1	7
521.892	1	1
523.083	1	5
524.274	1	-2
525.465	1	9
526.656	1	5
527.847	1	0
529.038	1	8
530.229	1	2
531.419	1	13
532.610	1	11
533.801	1	4
534.991	1	-1
536.182	1	3
537.373	1	-1
538.563	1	4
539.754	1	0
540.944	1	-10
542.134	1	10
543.325	1	3
544.515	1	0
545.705	1	0
546.896	1	5
548.086	1	6
549.276	1	4
550.466	1	0
551.656	1	-2
552.846	1	6
554.036	1	0
555.226	1	-2
556.416	1	11
557.606	1	-7
558.796	1	-1
559.986	1	-3
561.175	1	2
562.365	1	16
563.555	1	16
564.744	1	5
565.934	1	12
567.123	1	18
568.313	1	-4
569.502	1	6
570.692	1	5
571.881	1	12
573.070	1	9
574.260	1	6
575.449	1	4
576.638	1	9
577.827	1	13
579.016	1	9
580.205	1	4
581.394	1	-2
582.583	1	3
583.772	1	6
584.961	1	0
586.150	1	-2
587.339	1	-2
588.528	1	3
589.717	1	11
590.905	1	8
592.094	1	-6
593.283	1	5
594.471	1	-2
595.660	1	0
596.848	1	4
598.037	1	7
599.225	1	0
600.413	1	0
601.602	1	6
602.790	1	-4
603.978	1	-5
605.166	1	-10
606.355	1	6
607.543	1	-4
608.731	1	-3
609.919	1	5
611.107	1	9
612.295	1	6
613.483	1	4
614.671	1	12
615.858	1	2
617.046	1	5
618.234	1	0
619.422	1	6
620.609	1	-1
621.797	1	4
622.985	1	1
624.172	1	4
625.360	1	-14
626.547	1	0
627.735	1	7
628.922	1	-3
630.109	1	7
631.297	1	0
632.484	1	-7
633.671	1	-6
634.858	1	10
636.045	1	2
637.232	1	2
638.419	1	7
639.606	1	14
640.793	1	8
641.980	1	-3
643.167	1	4
644.354	1	-1
645.541	1	-3
646.728	1	4
647.914	1	0
649.101	1	4
650.288	1	-4
651.474	1	-5
652.661	1	2
653.847	1	8
655.034	1	-1
656.220	1	8
657.406	1	4
658.593	1	-7
659.779	1	-4
660.965	1	-1
662.152	1	5
663.338	1	-4
664.524	1	5
665.710	1	2
666.896	1	-3
668.082	1	0
669.268	1	4
670.454	1	1
671.640	1	-11
672.826	1	-7
674.011	1	9
675.197	1	-1
676.383	1	6
677.569	1	4
678.754	1	-3
679.940	1	-2
681.125	1	15
682.311	1	1
683.496	1	0
684.682	1	17
685.867	1	1
687.053	1	5
688.238	1	-1
688.746	1	2