File: Analysis/GaN_68K_200ms/GaN_sample E_spot4_UVVIS_68 K_200um_200 ms 2x2mm1_797.txt
340.368	1	4
341.565	1	-8
342.763	1	2
343.960	1	6
345.157	1	-1
346.354	1	-3
347.552	1	-1
348.749	1	-4
349.946	1	3
351.143	1	-20
352.340	1	1
353.537	1	-6
354.734	1	-8
355.931	1	1
357.127	1	2
358.324	1	-2
359.521	1	-3
360.718	1	1
361.914	1	-4
363.111	1	-1
364.308	1	-7
365.504	1	-9
366.701	1	-5
367.897	1	0
369.093	1	-1
370.290	1	-1
371.486	1	7
372.682	1	-4
373.879	1	10
375.075	1	4
376.271	1	-3
377.467	1	-1
378.663	1	-9
379.859	1	-3
381.055	1	-7
382.251	1	-4
383.447	1	-2
384.643	1	10
385.839	1	4
387.035	1	4
388.230	1	-4
389.426	1	0
390.622	1	0
391.817	1	-3
393.013	1	7
394.208	1	6
395.404	1	3
396.599	1	2
397.795	1	12
398.990	1	7
400.186	1	12
401.381	1	2
402.576	1	8
403.771	1	0
404.967	1	1
406.162	1	-1
407.357	1	-1
408.552	1	1
409.747	1	-2
410.942	1	3
412.137	1	-9
413.332	1	4
414.526	1	3
415.721	1	0
416.916	1	3
418.111	1	4
419.305	1	-1
420.500	1	12
421.695	1	3
422.889	1	4
424.084	1	1
425.278	1	-11
426.472	1	-8
427.667	1	8
428.861	1	6
430.055	1	-7
431.250	1	-6
432.444	1	4
433.638	1	-5
434.832	1	-6
436.026	1	2
437.220	1	6
438.414	1	8
439.608	1	0
440.802	1	5
441.996	1	1
443.190	1	0
444.384	1	4
445.578	1	4
446.771	1	-6
447.965	1	-4
449.159	1	-13
450.352	1	8
451.546	1	8
452.739	1	-4
453.933	1	12
455.126	1	0
456.320	1	8
457.513	1	8
458.706	1	-1
459.899	1	8
461.093	1	7
462.286	1	7
463.479	1	10
464.672	1	-5
465.865	1	-5
467.058	1	6
468.251	1	-7
469.444	1	6
470.637	1	13
471.830	1	17
473.023	1	-3
474.215	1	1
475.408	1	2
476.601	1	0
477.793	1	11
478.986	1	1
480.179	1	-1
481.371	1	11
482.564	1	-13
483.756	1	11
484.948	1	-2
486.141	1	-11
487.333	1	0
488.525	1	0
489.718	1	0
490.910	1	0
492.102	1	-5
493.294	1	7
494.486	1	10
495.678	1	5
496.870	1	4
498.062	1	-5
499.254	1	0
500.446	1	0
501.638	1	6
502.829	1	-3
504.021	1	10
505.213	1	-3
506.404	1	-15
507.596	1	-2
508.788	1	0
509.979	1	0
511.171	1	16
512.362	1	-4
513.553	1	3
514.745	1	-2
515.936	1	0
517.127	1	0
518.319	1	6
519.510	1	-1
520.701	1	4
521.892	1	-15
523.083	1	-1
524.274	1	-4
525.465	1	8
526.656	1	18
527.847	1	-8
529.038	1	11
530.229	1	6
531.419	1	1
532.610	1	2
533.801	1	2
534.991	1	2
536.182	1	3
537.373	1	1
538.563	1	7
539.754	1	-2
540.944	1	-18
542.134	1	8
543.325	1	-14
544.515	1	-10
545.705	1	4
546.896	1	3
548.086	1	0
549.276	1	5
550.466	1	0
551.656	1	-6
552.846	1	-9
554.036	1	1
555.226	1	-9
556.416	1	-4
557.606	1	-11
558.796	1	-3
559.986	1	-4
561.175	1	2
562.365	1	14
563.555	1	18
564.744	1	2
565.934	1	3
567.123	1	12
568.313	1	-10
569.502	1	5
570.692	1	2
571.881	1	4
573.070	1	4
574.260	1	0
575.449	1	4
576.638	1	-4
577.827	1	6
579.016	1	3
580.205	1	-3
581.394	1	-1
582.583	1	-18
583.772	1	5
584.961	1	0
586.150	1	-2
587.339	1	1
588.528	1	5
589.717	1	9
590.905	1	6
592.094	1	-3
593.283	1	7
594.471	1	7
595.660	1	0
596.848	1	10
598.037	1	2
599.225	1	1
600.413	1	-9
601.602	1	-1
602.790	1	-5
603.978	1	9
605.166	1	-6
606.355	1	4
607.543	1	-3
608.731	1	-16
609.919	1	-2
611.107	1	5
612.295	1	-3
613.483	1	10
614.671	1	8
615.858	1	9
617.046	1	8
618.234	1	-3
619.422	1	6
620.609	1	4
621.797	1	-3
622.985	1	3
624.172	1	13
625.360	1	-4
626.547	1	-1
627.735	1	11
628.922	1	0
630.109	1	-4
631.297	1	-5
632.484	1	-3
633.671	1	-1
634.858	1	6
636.045	1	-4
637.232	1	7
638.419	1	7
639.606	1	11
640.793	1	9
641.980	1	1
643.167	1	-3
644.354	1	1
645.541	1	-4
646.728	1	0
647.914	1	-7
649.101	1	6
650.288	1	-1
651.474	1	5
652.661	1	0
653.847	1	2
655.034	1	-1
656.220	1	6
657.406	1	4
658.593	1	-5
659.779	1	-7
660.965	1	-4
662.152	1	-2
663.338	1	8
664.524	1	-8
665.710	1	-7
666.896	1	1
668.082	1	-3
669.268	1	8
670.454	1	-7
671.640	1	-11
672.826	1	-12
674.011	1	9
675.197	1	-1
676.383	1	-3
677.569	1	-3
678.754	1	-2
679.940	1	-6
681.125	1	10
682.311	1	-2
683.496	1	1
684.682	1	8
685.867	1	-3
687.053	1	3
688.238	1	2
688.746	1	-3