File: Analysis/GaN_68K_200ms/GaN_sample E_spot4_UVVIS_68 K_200um_200 ms 2x2mm1_843.txt
340.368	1	-1
341.565	1	-4
342.763	1	-6
343.960	1	-8
345.157	1	7
346.354	1	-9
347.552	1	-6
348.749	1	-1
349.946	1	7
351.143	1	-10
352.340	1	-9
353.537	1	-5
354.734	1	-2
355.931	1	0
357.127	1	-1
358.324	1	-6
359.521	1	-2
360.718	1	-5
361.914	1	-4
363.111	1	9
364.308	1	-2
365.504	1	-9
366.701	1	-6
367.897	1	3
369.093	1	-4
370.290	1	-6
371.486	1	3
372.682	1	-10
373.879	1	3
375.075	1	8
376.271	1	0
377.467	1	-6
378.663	1	-9
379.859	1	-7
381.055	1	-1
382.251	1	0
383.447	1	11
384.643	1	7
385.839	1	3
387.035	1	-5
388.230	1	-2
389.426	1	4
390.622	1	1
391.817	1	-1
393.013	1	10
394.208	1	-4
395.404	1	5
396.599	1	0
397.795	1	1
398.990	1	3
400.186	1	6
401.381	1	5
402.576	1	3
403.771	1	2
404.967	1	4
406.162	1	-6
407.357	1	-4
408.552	1	-2
409.747	1	-9
410.942	1	1
412.137	1	3
413.332	1	-8
414.526	1	4
415.721	1	1
416.916	1	-12
418.111	1	-9
419.305	1	-1
420.500	1	6
421.695	1	8
422.889	1	3
424.084	1	-2
425.278	1	-6
426.472	1	-10
427.667	1	5
428.861	1	-5
430.055	1	4
431.250	1	-8
432.444	1	2
433.638	1	-6
434.832	1	2
436.026	1	2
437.220	1	9
438.414	1	5
439.608	1	-5
440.802	1	2
441.996	1	-1
443.190	1	-9
444.384	1	4
445.578	1	7
446.771	1	-4
447.965	1	-9
449.159	1	-12
450.352	1	7
451.546	1	3
452.739	1	-6
453.933	1	-2
455.126	1	0
456.320	1	-11
457.513	1	5
458.706	1	0
459.899	1	7
461.093	1	-3
462.286	1	12
463.479	1	8
464.672	1	-9
465.865	1	0
467.058	1	17
468.251	1	-10
469.444	1	-10
470.637	1	12
471.830	1	3
473.023	1	-4
474.215	1	-9
475.408	1	-2
476.601	1	6
477.793	1	0
478.986	1	-5
480.179	1	-1
481.371	1	0
482.564	1	-14
483.756	1	1
484.948	1	1
486.141	1	-16
487.333	1	5
488.525	1	-6
489.718	1	1
490.910	1	-6
492.102	1	-11
493.294	1	5
494.486	1	4
495.678	1	8
496.870	1	6
498.062	1	-10
499.254	1	-2
500.446	1	12
501.638	1	-1
502.829	1	-1
504.021	1	14
505.213	1	2
506.404	1	-6
507.596	1	-3
508.788	1	3
509.979	1	3
511.171	1	11
512.362	1	-5
513.553	1	-11
514.745	1	-2
515.936	1	-1
517.127	1	5
518.319	1	-4
519.510	1	2
520.701	1	4
521.892	1	-11
523.083	1	1
524.274	1	-9
525.465	1	3
526.656	1	8
527.847	1	-5
529.038	1	4
530.229	1	8
531.419	1	4
532.610	1	-8
533.801	1	9
534.991	1	3
536.182	1	-5
537.373	1	-1
538.563	1	-4
539.754	1	-10
540.944	1	1
542.134	1	4
543.325	1	2
544.515	1	8
545.705	1	4
546.896	1	-9
548.086	1	-2
549.276	1	7
550.466	1	-8
551.656	1	-10
552.846	1	2
554.036	1	2
555.226	1	-9
556.416	1	3
557.606	1	-7
558.796	1	4
559.986	1	-13
561.175	1	-8
562.365	1	2
563.555	1	9
564.744	1	3
565.934	1	-1
567.123	1	12
568.313	1	1
569.502	1	-8
570.692	1	2
571.881	1	2
573.070	1	3
574.260	1	-1
575.449	1	11
576.638	1	0
577.827	1	3
579.016	1	13
580.205	1	-5
581.394	1	-4
582.583	1	-10
583.772	1	0
584.961	1	8
586.150	1	-1
587.339	1	1
588.528	1	9
589.717	1	-2
590.905	1	2
592.094	1	2
593.283	1	9
594.471	1	0
595.660	1	-2
596.848	1	-3
598.037	1	8
599.225	1	-3
600.413	1	-1
601.602	1	2
602.790	1	-3
603.978	1	-2
605.166	1	-6
606.355	1	14
607.543	1	-2
608.731	1	0
609.919	1	0
611.107	1	-2
612.295	1	-4
613.483	1	5
614.671	1	1
615.858	1	-2
617.046	1	-4
618.234	1	-1
619.422	1	-3
620.609	1	8
621.797	1	3
622.985	1	7
624.172	1	17
625.360	1	-10
626.547	1	0
627.735	1	6
628.922	1	0
630.109	1	-5
631.297	1	-4
632.484	1	-3
633.671	1	3
634.858	1	9
636.045	1	-1
637.232	1	-5
638.419	1	4
639.606	1	3
640.793	1	7
641.980	1	-1
643.167	1	5
644.354	1	-1
645.541	1	-7
646.728	1	2
647.914	1	-9
649.101	1	6
650.288	1	-2
651.474	1	8
652.661	1	1
653.847	1	6
655.034	1	2
656.220	1	7
657.406	1	14
658.593	1	-10
659.779	1	-5
660.965	1	5
662.152	1	-3
663.338	1	-4
664.524	1	-9
665.710	1	-3
666.896	1	-6
668.082	1	0
669.268	1	-2
670.454	1	6
671.640	1	-17
672.826	1	-20
674.011	1	3
675.197	1	-7
676.383	1	-6
677.569	1	2
678.754	1	1
679.940	1	-3
681.125	1	-5
682.311	1	2
683.496	1	-2
684.682	1	8
685.867	1	-4
687.053	1	6
688.238	1	-1
688.746	1	2