File: Analysis/GaN_68K_200ms/GaN_sample E_spot4_UVVIS_68 K_200um_200 ms 2x2mm1_685.txt
340.368	1	-7
341.565	1	0
342.763	1	6
343.960	1	-5
345.157	1	7
346.354	1	-1
347.552	1	-1
348.749	1	0
349.946	1	13
351.143	1	-14
352.340	1	-10
353.537	1	5
354.734	1	-2
355.931	1	5
357.127	1	-2
358.324	1	-1
359.521	1	1
360.718	1	3
361.914	1	-7
363.111	1	8
364.308	1	-8
365.504	1	-7
366.701	1	-12
367.897	1	-3
369.093	1	-8
370.290	1	-4
371.486	1	3
372.682	1	-6
373.879	1	2
375.075	1	7
376.271	1	1
377.467	1	0
378.663	1	0
379.859	1	-2
381.055	1	-6
382.251	1	-3
383.447	1	6
384.643	1	-3
385.839	1	10
387.035	1	-7
388.230	1	0
389.426	1	9
390.622	1	0
391.817	1	-2
393.013	1	5
394.208	1	15
395.404	1	3
396.599	1	-2
397.795	1	4
398.990	1	1
400.186	1	4
401.381	1	14
402.576	1	10
403.771	1	4
404.967	1	-3
406.162	1	-9
407.357	1	2
408.552	1	3
409.747	1	0
410.942	1	-1
412.137	1	15
413.332	1	-5
414.526	1	5
415.721	1	-4
416.916	1	-2
418.111	1	5
419.305	1	1
420.500	1	1
421.695	1	1
422.889	1	8
424.084	1	2
425.278	1	-5
426.472	1	-5
427.667	1	1
428.861	1	-6
430.055	1	-6
431.250	1	-13
432.444	1	10
433.638	1	-2
434.832	1	-8
436.026	1	2
437.220	1	8
438.414	1	-7
439.608	1	-3
440.802	1	-9
441.996	1	-10
443.190	1	-11
444.384	1	3
445.578	1	2
446.771	1	1
447.965	1	-18
449.159	1	-8
450.352	1	14
451.546	1	4
452.739	1	-3
453.933	1	11
455.126	1	4
456.320	1	8
457.513	1	3
458.706	1	5
459.899	1	7
461.093	1	13
462.286	1	14
463.479	1	-1
464.672	1	4
465.865	1	1
467.058	1	7
468.251	1	-6
469.444	1	-6
470.637	1	10
471.830	1	8
473.023	1	-1
474.215	1	1
475.408	1	3
476.601	1	-1
477.793	1	1
478.986	1	-5
480.179	1	-3
481.371	1	2
482.564	1	-12
483.756	1	2
484.948	1	2
486.141	1	-6
487.333	1	-4
488.525	1	-6
489.718	1	-8
490.910	1	-9
492.102	1	0
493.294	1	8
494.486	1	7
495.678	1	4
496.870	1	-1
498.062	1	-7
499.254	1	1
500.446	1	6
501.638	1	3
502.829	1	4
504.021	1	15
505.213	1	-10
506.404	1	-2
507.596	1	-1
508.788	1	2
509.979	1	1
511.171	1	20
512.362	1	-6
513.553	1	-1
514.745	1	5
515.936	1	1
517.127	1	2
518.319	1	-12
519.510	1	-3
520.701	1	2
521.892	1	-14
523.083	1	4
524.274	1	-7
525.465	1	0
526.656	1	16
527.847	1	2
529.038	1	3
530.229	1	5
531.419	1	4
532.610	1	11
533.801	1	5
534.991	1	1
536.182	1	1
537.373	1	-3
538.563	1	1
539.754	1	1
540.944	1	4
542.134	1	5
543.325	1	-11
544.515	1	1
545.705	1	2
546.896	1	4
548.086	1	9
549.276	1	2
550.466	1	-6
551.656	1	-1
552.846	1	4
554.036	1	4
555.226	1	2
556.416	1	7
557.606	1	-14
558.796	1	-3
559.986	1	-3
561.175	1	-3
562.365	1	0
563.555	1	13
564.744	1	3
565.934	1	-1
567.123	1	8
568.313	1	-4
569.502	1	0
570.692	1	4
571.881	1	-2
573.070	1	11
574.260	1	-2
575.449	1	14
576.638	1	2
577.827	1	10
579.016	1	6
580.205	1	-4
581.394	1	-2
582.583	1	-6
583.772	1	1
584.961	1	0
586.150	1	-3
587.339	1	5
588.528	1	1
589.717	1	-6
590.905	1	0
592.094	1	2
593.283	1	-1
594.471	1	-3
595.660	1	0
596.848	1	5
598.037	1	-4
599.225	1	4
600.413	1	-4
601.602	1	4
602.790	1	4
603.978	1	-2
605.166	1	-6
606.355	1	1
607.543	1	-6
608.731	1	-6
609.919	1	-4
611.107	1	11
612.295	1	3
613.483	1	2
614.671	1	0
615.858	1	2
617.046	1	8
618.234	1	3
619.422	1	4
620.609	1	-14
621.797	1	-4
622.985	1	4
624.172	1	2
625.360	1	-8
626.547	1	4
627.735	1	6
628.922	1	-3
630.109	1	1
631.297	1	-7
632.484	1	3
633.671	1	8
634.858	1	13
636.045	1	-1
637.232	1	-3
638.419	1	5
639.606	1	12
640.793	1	3
641.980	1	6
643.167	1	10
644.354	1	-2
645.541	1	-12
646.728	1	5
647.914	1	-1
649.101	1	-2
650.288	1	-3
651.474	1	2
652.661	1	0
653.847	1	-9
655.034	1	5
656.220	1	-2
657.406	1	4
658.593	1	-5
659.779	1	2
660.965	1	0
662.152	1	0
663.338	1	-3
664.524	1	-8
665.710	1	-4
666.896	1	-3
668.082	1	-6
669.268	1	4
670.454	1	3
671.640	1	-17
672.826	1	-6
674.011	1	5
675.197	1	-7
676.383	1	-1
677.569	1	-2
678.754	1	-10
679.940	1	0
681.125	1	5
682.311	1	-4
683.496	1	-11
684.682	1	7
685.867	1	-4
687.053	1	-1
688.238	1	1
688.746	1	1