File: Analysis/GaN_68K_200ms/GaN_sample E_spot4_UVVIS_68 K_200um_200 ms 2x2mm1_571.txt
340.368	1	7
341.565	1	-7
342.763	1	-3
343.960	1	-4
345.157	1	4
346.354	1	3
347.552	1	3
348.749	1	-6
349.946	1	7
351.143	1	-15
352.340	1	-2
353.537	1	2
354.734	1	-8
355.931	1	-1
357.127	1	-1
358.324	1	-2
359.521	1	-6
360.718	1	0
361.914	1	5
363.111	1	5
364.308	1	6
365.504	1	-6
366.701	1	-2
367.897	1	4
369.093	1	3
370.290	1	-6
371.486	1	17
372.682	1	-3
373.879	1	8
375.075	1	11
376.271	1	2
377.467	1	-6
378.663	1	-1
379.859	1	-3
381.055	1	4
382.251	1	-2
383.447	1	5
384.643	1	14
385.839	1	-1
387.035	1	0
388.230	1	4
389.426	1	3
390.622	1	-1
391.817	1	3
393.013	1	2
394.208	1	12
395.404	1	4
396.599	1	5
397.795	1	-1
398.990	1	7
400.186	1	7
401.381	1	0
402.576	1	7
403.771	1	4
404.967	1	0
406.162	1	6
407.357	1	1
408.552	1	10
409.747	1	-4
410.942	1	8
412.137	1	10
413.332	1	4
414.526	1	12
415.721	1	5
416.916	1	-6
418.111	1	-4
419.305	1	-1
420.500	1	12
421.695	1	1
422.889	1	2
424.084	1	1
425.278	1	-7
426.472	1	4
427.667	1	4
428.861	1	0
430.055	1	-7
431.250	1	-5
432.444	1	0
433.638	1	1
434.832	1	-7
436.026	1	3
437.220	1	5
438.414	1	6
439.608	1	-7
440.802	1	-2
441.996	1	2
443.190	1	-9
444.384	1	6
445.578	1	5
446.771	1	1
447.965	1	-3
449.159	1	-4
450.352	1	2
451.546	1	13
452.739	1	4
453.933	1	6
455.126	1	-8
456.320	1	4
457.513	1	2
458.706	1	1
459.899	1	7
461.093	1	0
462.286	1	5
463.479	1	6
464.672	1	-2
465.865	1	4
467.058	1	6
468.251	1	0
469.444	1	-7
470.637	1	7
471.830	1	14
473.023	1	-15
474.215	1	-3
475.408	1	1
476.601	1	3
477.793	1	15
478.986	1	-2
480.179	1	3
481.371	1	1
482.564	1	-21
483.756	1	10
484.948	1	-2
486.141	1	-11
487.333	1	-1
488.525	1	-5
489.718	1	-9
490.910	1	6
492.102	1	-9
493.294	1	1
494.486	1	5
495.678	1	0
496.870	1	0
498.062	1	1
499.254	1	3
500.446	1	6
501.638	1	4
502.829	1	0
504.021	1	9
505.213	1	0
506.404	1	-6
507.596	1	6
508.788	1	0
509.979	1	-1
511.171	1	14
512.362	1	-5
513.553	1	0
514.745	1	-4
515.936	1	5
517.127	1	0
518.319	1	1
519.510	1	9
520.701	1	2
521.892	1	-9
523.083	1	0
524.274	1	-5
525.465	1	-1
526.656	1	19
527.847	1	-6
529.038	1	5
530.229	1	2
531.419	1	3
532.610	1	-1
533.801	1	2
534.991	1	3
536.182	1	5
537.373	1	1
538.563	1	2
539.754	1	-1
540.944	1	8
542.134	1	4
543.325	1	-3
544.515	1	1
545.705	1	-2
546.896	1	-1
548.086	1	2
549.276	1	6
550.466	1	-4
551.656	1	-17
552.846	1	11
554.036	1	-6
555.226	1	-13
556.416	1	-1
557.606	1	-19
558.796	1	2
559.986	1	-17
561.175	1	-6
562.365	1	4
563.555	1	7
564.744	1	8
565.934	1	4
567.123	1	15
568.313	1	-4
569.502	1	4
570.692	1	4
571.881	1	10
573.070	1	6
574.260	1	-7
575.449	1	11
576.638	1	-3
577.827	1	1
579.016	1	3
580.205	1	3
581.394	1	1
582.583	1	-6
583.772	1	-2
584.961	1	11
586.150	1	-1
587.339	1	-5
588.528	1	3
589.717	1	-5
590.905	1	-1
592.094	1	6
593.283	1	12
594.471	1	-2
595.660	1	0
596.848	1	7
598.037	1	-7
599.225	1	5
600.413	1	3
601.602	1	11
602.790	1	-1
603.978	1	0
605.166	1	2
606.355	1	1
607.543	1	-12
608.731	1	-9
609.919	1	-10
611.107	1	11
612.295	1	-2
613.483	1	3
614.671	1	-2
615.858	1	10
617.046	1	3
618.234	1	5
619.422	1	6
620.609	1	-3
621.797	1	1
622.985	1	5
624.172	1	5
625.360	1	5
626.547	1	3
627.735	1	2
628.922	1	4
630.109	1	-5
631.297	1	-4
632.484	1	-2
633.671	1	-3
634.858	1	-1
636.045	1	-5
637.232	1	-1
638.419	1	2
639.606	1	11
640.793	1	9
641.980	1	-6
643.167	1	14
644.354	1	-2
645.541	1	-7
646.728	1	7
647.914	1	-8
649.101	1	6
650.288	1	1
651.474	1	4
652.661	1	3
653.847	1	7
655.034	1	-4
656.220	1	4
657.406	1	9
658.593	1	-10
659.779	1	2
660.965	1	6
662.152	1	0
663.338	1	-4
664.524	1	-11
665.710	1	-7
666.896	1	-5
668.082	1	5
669.268	1	3
670.454	1	-6
671.640	1	-12
672.826	1	-16
674.011	1	4
675.197	1	-2
676.383	1	3
677.569	1	-4
678.754	1	-7
679.940	1	3
681.125	1	1
682.311	1	3
683.496	1	1
684.682	1	3
685.867	1	5
687.053	1	1
688.238	1	-5
688.746	1	2