File: Analysis/GaN_68K_200ms/GaN_sample E_spot4_UVVIS_68 K_200um_200 ms 2x2mm1_595.txt
340.368	1	4
341.565	1	-8
342.763	1	-1
343.960	1	4
345.157	1	4
346.354	1	-8
347.552	1	4
348.749	1	4
349.946	1	8
351.143	1	-12
352.340	1	-3
353.537	1	4
354.734	1	3
355.931	1	2
357.127	1	-1
358.324	1	-3
359.521	1	0
360.718	1	-7
361.914	1	-1
363.111	1	16
364.308	1	-11
365.504	1	-6
366.701	1	-11
367.897	1	4
369.093	1	12
370.290	1	-3
371.486	1	5
372.682	1	-2
373.879	1	11
375.075	1	4
376.271	1	-4
377.467	1	-10
378.663	1	-4
379.859	1	-4
381.055	1	7
382.251	1	1
383.447	1	18
384.643	1	2
385.839	1	6
387.035	1	-6
388.230	1	-2
389.426	1	8
390.622	1	-6
391.817	1	1
393.013	1	-3
394.208	1	6
395.404	1	7
396.599	1	4
397.795	1	7
398.990	1	-1
400.186	1	5
401.381	1	3
402.576	1	3
403.771	1	2
404.967	1	5
406.162	1	-1
407.357	1	6
408.552	1	8
409.747	1	2
410.942	1	4
412.137	1	9
413.332	1	-3
414.526	1	-1
415.721	1	-1
416.916	1	-1
418.111	1	1
419.305	1	-1
420.500	1	6
421.695	1	0
422.889	1	6
424.084	1	-12
425.278	1	-4
426.472	1	-8
427.667	1	5
428.861	1	-3
430.055	1	-2
431.250	1	0
432.444	1	2
433.638	1	6
434.832	1	-3
436.026	1	-3
437.220	1	9
438.414	1	4
439.608	1	-6
440.802	1	7
441.996	1	4
443.190	1	-3
444.384	1	3
445.578	1	4
446.771	1	2
447.965	1	-13
449.159	1	-4
450.352	1	11
451.546	1	-1
452.739	1	-1
453.933	1	-1
455.126	1	-4
456.320	1	0
457.513	1	10
458.706	1	3
459.899	1	10
461.093	1	10
462.286	1	5
463.479	1	9
464.672	1	2
465.865	1	-3
467.058	1	0
468.251	1	-2
469.444	1	1
470.637	1	5
471.830	1	15
473.023	1	-10
474.215	1	-11
475.408	1	-2
476.601	1	3
477.793	1	5
478.986	1	-7
480.179	1	1
481.371	1	8
482.564	1	-8
483.756	1	6
484.948	1	-8
486.141	1	-4
487.333	1	3
488.525	1	4
489.718	1	-1
490.910	1	-10
492.102	1	-13
493.294	1	1
494.486	1	5
495.678	1	7
496.870	1	-6
498.062	1	-2
499.254	1	5
500.446	1	4
501.638	1	5
502.829	1	1
504.021	1	16
505.213	1	-3
506.404	1	-14
507.596	1	6
508.788	1	2
509.979	1	-1
511.171	1	-1
512.362	1	-4
513.553	1	-7
514.745	1	0
515.936	1	-5
517.127	1	1
518.319	1	-1
519.510	1	-3
520.701	1	7
521.892	1	-3
523.083	1	-1
524.274	1	0
525.465	1	10
526.656	1	11
527.847	1	-3
529.038	1	10
530.229	1	-6
531.419	1	3
532.610	1	8
533.801	1	0
534.991	1	-3
536.182	1	2
537.373	1	-12
538.563	1	1
539.754	1	2
540.944	1	-2
542.134	1	3
543.325	1	2
544.515	1	1
545.705	1	8
546.896	1	0
548.086	1	9
549.276	1	1
550.466	1	-3
551.656	1	-7
552.846	1	5
554.036	1	-4
555.226	1	-12
556.416	1	-1
557.606	1	-5
558.796	1	-4
559.986	1	-5
561.175	1	-2
562.365	1	6
563.555	1	11
564.744	1	6
565.934	1	6
567.123	1	14
568.313	1	4
569.502	1	0
570.692	1	-2
571.881	1	11
573.070	1	-2
574.260	1	1
575.449	1	2
576.638	1	-7
577.827	1	6
579.016	1	7
580.205	1	3
581.394	1	-5
582.583	1	-7
583.772	1	-6
584.961	1	2
586.150	1	5
587.339	1	-4
588.528	1	7
589.717	1	6
590.905	1	7
592.094	1	-2
593.283	1	-3
594.471	1	0
595.660	1	-1
596.848	1	5
598.037	1	0
599.225	1	1
600.413	1	0
601.602	1	2
602.790	1	1
603.978	1	-8
605.166	1	-2
606.355	1	7
607.543	1	-8
608.731	1	-9
609.919	1	-5
611.107	1	4
612.295	1	3
613.483	1	1
614.671	1	2
615.858	1	6
617.046	1	2
618.234	1	-3
619.422	1	6
620.609	1	-8
621.797	1	5
622.985	1	-2
624.172	1	4
625.360	1	-2
626.547	1	-5
627.735	1	9
628.922	1	-10
630.109	1	0
631.297	1	-3
632.484	1	6
633.671	1	-2
634.858	1	-2
636.045	1	5
637.232	1	3
638.419	1	-1
639.606	1	12
640.793	1	10
641.980	1	0
643.167	1	5
644.354	1	-3
645.541	1	-3
646.728	1	1
647.914	1	-1
649.101	1	11
650.288	1	-6
651.474	1	10
652.661	1	6
653.847	1	-4
655.034	1	6
656.220	1	5
657.406	1	1
658.593	1	-15
659.779	1	-1
660.965	1	3
662.152	1	-1
663.338	1	-11
664.524	1	-9
665.710	1	-2
666.896	1	0
668.082	1	-4
669.268	1	0
670.454	1	-4
671.640	1	-12
672.826	1	-8
674.011	1	1
675.197	1	0
676.383	1	1
677.569	1	2
678.754	1	-7
679.940	1	-3
681.125	1	9
682.311	1	2
683.496	1	-9
684.682	1	5
685.867	1	5
687.053	1	6
688.238	1	-3
688.746	1	-2