File: Analysis/GaN_68K_200ms/GaN_sample E_spot4_UVVIS_68 K_200um_200 ms 2x2mm1_19.txt
340.368	1	-2
341.565	1	4
342.763	1	4
343.960	1	-2
345.157	1	9
346.354	1	-3
347.552	1	3
348.749	1	6
349.946	1	7
351.143	1	-8
352.340	1	-8
353.537	1	2
354.734	1	-1
355.931	1	1
357.127	1	12
358.324	1	-3
359.521	1	1
360.718	1	4
361.914	1	6
363.111	1	9
364.308	1	3
365.504	1	-2
366.701	1	-5
367.897	1	-3
369.093	1	-3
370.290	1	0
371.486	1	7
372.682	1	-5
373.879	1	9
375.075	1	13
376.271	1	-3
377.467	1	-1
378.663	1	-7
379.859	1	4
381.055	1	5
382.251	1	-2
383.447	1	7
384.643	1	13
385.839	1	2
387.035	1	3
388.230	1	7
389.426	1	7
390.622	1	-8
391.817	1	-6
393.013	1	5
394.208	1	10
395.404	1	6
396.599	1	9
397.795	1	8
398.990	1	7
400.186	1	-2
401.381	1	9
402.576	1	3
403.771	1	2
404.967	1	6
406.162	1	-9
407.357	1	1
408.552	1	3
409.747	1	-3
410.942	1	-6
412.137	1	14
413.332	1	-4
414.526	1	6
415.721	1	5
416.916	1	-1
418.111	1	1
419.305	1	-3
420.500	1	4
421.695	1	-10
422.889	1	5
424.084	1	6
425.278	1	-19
426.472	1	-2
427.667	1	7
428.861	1	0
430.055	1	-2
431.250	1	-3
432.444	1	9
433.638	1	-4
434.832	1	1
436.026	1	9
437.220	1	6
438.414	1	-5
439.608	1	4
440.802	1	4
441.996	1	-2
443.190	1	-7
444.384	1	10
445.578	1	3
446.771	1	10
447.965	1	-11
449.159	1	-3
450.352	1	2
451.546	1	4
452.739	1	6
453.933	1	9
455.126	1	-1
456.320	1	1
457.513	1	5
458.706	1	4
459.899	1	8
461.093	1	5
462.286	1	7
463.479	1	8
464.672	1	5
465.865	1	-3
467.058	1	7
468.251	1	-9
469.444	1	5
470.637	1	21
471.830	1	16
473.023	1	-5
474.215	1	3
475.408	1	-2
476.601	1	2
477.793	1	9
478.986	1	3
480.179	1	0
481.371	1	-4
482.564	1	-7
483.756	1	20
484.948	1	-10
486.141	1	1
487.333	1	1
488.525	1	-5
489.718	1	3
490.910	1	4
492.102	1	-5
493.294	1	6
494.486	1	6
495.678	1	12
496.870	1	4
498.062	1	6
499.254	1	4
500.446	1	5
501.638	1	-2
502.829	1	1
504.021	1	10
505.213	1	-2
506.404	1	-3
507.596	1	0
508.788	1	-3
509.979	1	2
511.171	1	9
512.362	1	0
513.553	1	0
514.745	1	4
515.936	1	11
517.127	1	4
518.319	1	4
519.510	1	-4
520.701	1	2
521.892	1	-8
523.083	1	-9
524.274	1	-9
525.465	1	-7
526.656	1	13
527.847	1	-1
529.038	1	3
530.229	1	8
531.419	1	11
532.610	1	8
533.801	1	-2
534.991	1	1
536.182	1	-9
537.373	1	-4
538.563	1	2
539.754	1	-10
540.944	1	0
542.134	1	1
543.325	1	-7
544.515	1	2
545.705	1	2
546.896	1	-2
548.086	1	7
549.276	1	5
550.466	1	-9
551.656	1	-10
552.846	1	-2
554.036	1	-7
555.226	1	-7
556.416	1	2
557.606	1	-7
558.796	1	2
559.986	1	-7
561.175	1	0
562.365	1	5
563.555	1	7
564.744	1	6
565.934	1	8
567.123	1	14
568.313	1	-3
569.502	1	6
570.692	1	4
571.881	1	7
573.070	1	6
574.260	1	2
575.449	1	4
576.638	1	-3
577.827	1	7
579.016	1	6
580.205	1	1
581.394	1	4
582.583	1	-3
583.772	1	4
584.961	1	9
586.150	1	6
587.339	1	8
588.528	1	1
589.717	1	4
590.905	1	1
592.094	1	6
593.283	1	13
594.471	1	-1
595.660	1	-6
596.848	1	8
598.037	1	4
599.225	1	2
600.413	1	5
601.602	1	16
602.790	1	-6
603.978	1	-2
605.166	1	-10
606.355	1	2
607.543	1	-8
608.731	1	-12
609.919	1	-3
611.107	1	0
612.295	1	-1
613.483	1	10
614.671	1	5
615.858	1	2
617.046	1	4
618.234	1	4
619.422	1	-6
620.609	1	-1
621.797	1	2
622.985	1	-2
624.172	1	7
625.360	1	-7
626.547	1	-4
627.735	1	6
628.922	1	6
630.109	1	-1
631.297	1	-4
632.484	1	-3
633.671	1	-1
634.858	1	11
636.045	1	2
637.232	1	-5
638.419	1	3
639.606	1	11
640.793	1	1
641.980	1	-4
643.167	1	9
644.354	1	4
645.541	1	2
646.728	1	8
647.914	1	5
649.101	1	-1
650.288	1	-2
651.474	1	2
652.661	1	7
653.847	1	0
655.034	1	2
656.220	1	3
657.406	1	4
658.593	1	-12
659.779	1	-4
660.965	1	4
662.152	1	0
663.338	1	-3
664.524	1	-14
665.710	1	-4
666.896	1	-3
668.082	1	-1
669.268	1	3
670.454	1	3
671.640	1	-10
672.826	1	-15
674.011	1	5
675.197	1	-5
676.383	1	-4
677.569	1	-5
678.754	1	-3
679.940	1	1
681.125	1	5
682.311	1	-8
683.496	1	-1
684.682	1	10
685.867	1	-10
687.053	1	9
688.238	1	4
688.746	1	5