File: Analysis/GaN_68K_200ms/GaN_sample E_spot4_UVVIS_68 K_200um_200 ms 2x2mm1_840.txt
340.368	1	2
341.565	1	-8
342.763	1	-1
343.960	1	-1
345.157	1	3
346.354	1	-1
347.552	1	7
348.749	1	-4
349.946	1	-2
351.143	1	-13
352.340	1	-6
353.537	1	-2
354.734	1	-7
355.931	1	9
357.127	1	-1
358.324	1	-1
359.521	1	-2
360.718	1	3
361.914	1	-3
363.111	1	9
364.308	1	-8
365.504	1	-4
366.701	1	-12
367.897	1	6
369.093	1	1
370.290	1	4
371.486	1	7
372.682	1	-2
373.879	1	9
375.075	1	8
376.271	1	5
377.467	1	-4
378.663	1	-8
379.859	1	-6
381.055	1	0
382.251	1	-6
383.447	1	1
384.643	1	1
385.839	1	6
387.035	1	0
388.230	1	-8
389.426	1	11
390.622	1	-5
391.817	1	-4
393.013	1	9
394.208	1	2
395.404	1	6
396.599	1	6
397.795	1	4
398.990	1	1
400.186	1	11
401.381	1	0
402.576	1	15
403.771	1	-5
404.967	1	10
406.162	1	-5
407.357	1	-3
408.552	1	9
409.747	1	-1
410.942	1	0
412.137	1	7
413.332	1	-7
414.526	1	11
415.721	1	-1
416.916	1	-5
418.111	1	-2
419.305	1	-4
420.500	1	-5
421.695	1	1
422.889	1	3
424.084	1	-2
425.278	1	-9
426.472	1	-3
427.667	1	-1
428.861	1	1
430.055	1	2
431.250	1	-9
432.444	1	8
433.638	1	-4
434.832	1	-5
436.026	1	1
437.220	1	2
438.414	1	1
439.608	1	-3
440.802	1	3
441.996	1	6
443.190	1	-20
444.384	1	-2
445.578	1	6
446.771	1	-4
447.965	1	-5
449.159	1	-2
450.352	1	9
451.546	1	1
452.739	1	9
453.933	1	5
455.126	1	-1
456.320	1	2
457.513	1	5
458.706	1	0
459.899	1	12
461.093	1	-1
462.286	1	13
463.479	1	9
464.672	1	-1
465.865	1	-4
467.058	1	16
468.251	1	0
469.444	1	-2
470.637	1	9
471.830	1	16
473.023	1	-10
474.215	1	-6
475.408	1	-1
476.601	1	-4
477.793	1	7
478.986	1	-2
480.179	1	10
481.371	1	5
482.564	1	-8
483.756	1	3
484.948	1	-1
486.141	1	-3
487.333	1	8
488.525	1	2
489.718	1	-14
490.910	1	-5
492.102	1	-8
493.294	1	7
494.486	1	8
495.678	1	5
496.870	1	3
498.062	1	3
499.254	1	5
500.446	1	3
501.638	1	4
502.829	1	7
504.021	1	14
505.213	1	1
506.404	1	-15
507.596	1	14
508.788	1	-1
509.979	1	1
511.171	1	14
512.362	1	2
513.553	1	-10
514.745	1	1
515.936	1	1
517.127	1	7
518.319	1	7
519.510	1	6
520.701	1	5
521.892	1	-17
523.083	1	-4
524.274	1	-18
525.465	1	1
526.656	1	9
527.847	1	-8
529.038	1	6
530.229	1	2
531.419	1	-2
532.610	1	5
533.801	1	-3
534.991	1	-3
536.182	1	5
537.373	1	-10
538.563	1	0
539.754	1	-5
540.944	1	-3
542.134	1	8
543.325	1	-3
544.515	1	0
545.705	1	8
546.896	1	-2
548.086	1	7
549.276	1	7
550.466	1	-8
551.656	1	-4
552.846	1	8
554.036	1	-2
555.226	1	1
556.416	1	1
557.606	1	-8
558.796	1	-4
559.986	1	-9
561.175	1	1
562.365	1	-1
563.555	1	-1
564.744	1	-1
565.934	1	10
567.123	1	7
568.313	1	-4
569.502	1	0
570.692	1	1
571.881	1	-3
573.070	1	4
574.260	1	1
575.449	1	0
576.638	1	2
577.827	1	3
579.016	1	10
580.205	1	-5
581.394	1	-1
582.583	1	-5
583.772	1	-10
584.961	1	2
586.150	1	-6
587.339	1	-1
588.528	1	-1
589.717	1	-1
590.905	1	1
592.094	1	-1
593.283	1	4
594.471	1	0
595.660	1	-8
596.848	1	-6
598.037	1	1
599.225	1	-7
600.413	1	-4
601.602	1	2
602.790	1	-4
603.978	1	1
605.166	1	-6
606.355	1	1
607.543	1	-3
608.731	1	-9
609.919	1	-4
611.107	1	4
612.295	1	0
613.483	1	2
614.671	1	-2
615.858	1	4
617.046	1	2
618.234	1	-1
619.422	1	-10
620.609	1	5
621.797	1	-1
622.985	1	2
624.172	1	14
625.360	1	-10
626.547	1	1
627.735	1	0
628.922	1	-6
630.109	1	-6
631.297	1	-1
632.484	1	-2
633.671	1	13
634.858	1	1
636.045	1	5
637.232	1	-3
638.419	1	9
639.606	1	7
640.793	1	0
641.980	1	-1
643.167	1	0
644.354	1	0
645.541	1	-8
646.728	1	12
647.914	1	-2
649.101	1	-2
650.288	1	-13
651.474	1	1
652.661	1	-6
653.847	1	1
655.034	1	3
656.220	1	6
657.406	1	3
658.593	1	-10
659.779	1	-13
660.965	1	-3
662.152	1	-5
663.338	1	-4
664.524	1	-6
665.710	1	0
666.896	1	-5
668.082	1	1
669.268	1	-3
670.454	1	0
671.640	1	-20
672.826	1	-20
674.011	1	4
675.197	1	-10
676.383	1	0
677.569	1	-6
678.754	1	2
679.940	1	-11
681.125	1	10
682.311	1	4
683.496	1	-3
684.682	1	6
685.867	1	0
687.053	1	1
688.238	1	7
688.746	1	-2