File: Analysis/GaN_68K_200ms/GaN_sample E_spot4_UVVIS_68 K_200um_200 ms 2x2mm1_630.txt
340.368	1	1
341.565	1	-7
342.763	1	2
343.960	1	-1
345.157	1	4
346.354	1	1
347.552	1	2
348.749	1	0
349.946	1	2
351.143	1	-10
352.340	1	-5
353.537	1	-6
354.734	1	-3
355.931	1	4
357.127	1	2
358.324	1	-1
359.521	1	0
360.718	1	1
361.914	1	6
363.111	1	5
364.308	1	-5
365.504	1	-9
366.701	1	-5
367.897	1	3
369.093	1	1
370.290	1	-9
371.486	1	5
372.682	1	2
373.879	1	12
375.075	1	5
376.271	1	-6
377.467	1	-6
378.663	1	-19
379.859	1	4
381.055	1	-2
382.251	1	2
383.447	1	7
384.643	1	8
385.839	1	7
387.035	1	0
388.230	1	5
389.426	1	4
390.622	1	0
391.817	1	-1
393.013	1	10
394.208	1	6
395.404	1	7
396.599	1	0
397.795	1	10
398.990	1	12
400.186	1	2
401.381	1	2
402.576	1	12
403.771	1	-3
404.967	1	-1
406.162	1	-6
407.357	1	4
408.552	1	10
409.747	1	-2
410.942	1	0
412.137	1	9
413.332	1	3
414.526	1	-3
415.721	1	4
416.916	1	4
418.111	1	-7
419.305	1	-4
420.500	1	1
421.695	1	8
422.889	1	0
424.084	1	2
425.278	1	-8
426.472	1	-13
427.667	1	3
428.861	1	-4
430.055	1	3
431.250	1	-8
432.444	1	10
433.638	1	2
434.832	1	0
436.026	1	4
437.220	1	15
438.414	1	4
439.608	1	-3
440.802	1	2
441.996	1	0
443.190	1	-7
444.384	1	3
445.578	1	10
446.771	1	-9
447.965	1	-14
449.159	1	-8
450.352	1	0
451.546	1	-2
452.739	1	1
453.933	1	5
455.126	1	-2
456.320	1	1
457.513	1	10
458.706	1	-6
459.899	1	7
461.093	1	18
462.286	1	1
463.479	1	8
464.672	1	6
465.865	1	-8
467.058	1	14
468.251	1	-4
469.444	1	-1
470.637	1	11
471.830	1	10
473.023	1	-7
474.215	1	0
475.408	1	2
476.601	1	-6
477.793	1	6
478.986	1	1
480.179	1	8
481.371	1	-1
482.564	1	-6
483.756	1	10
484.948	1	0
486.141	1	-10
487.333	1	2
488.525	1	-5
489.718	1	0
490.910	1	-2
492.102	1	-7
493.294	1	4
494.486	1	1
495.678	1	8
496.870	1	4
498.062	1	2
499.254	1	-6
500.446	1	3
501.638	1	0
502.829	1	11
504.021	1	15
505.213	1	0
506.404	1	0
507.596	1	2
508.788	1	-4
509.979	1	3
511.171	1	6
512.362	1	7
513.553	1	-5
514.745	1	-6
515.936	1	4
517.127	1	2
518.319	1	-6
519.510	1	0
520.701	1	-1
521.892	1	-11
523.083	1	-2
524.274	1	-4
525.465	1	-1
526.656	1	21
527.847	1	-9
529.038	1	3
530.229	1	4
531.419	1	10
532.610	1	2
533.801	1	8
534.991	1	1
536.182	1	-7
537.373	1	-3
538.563	1	4
539.754	1	-1
540.944	1	1
542.134	1	8
543.325	1	-1
544.515	1	-9
545.705	1	8
546.896	1	5
548.086	1	3
549.276	1	9
550.466	1	2
551.656	1	-6
552.846	1	5
554.036	1	-2
555.226	1	-4
556.416	1	-1
557.606	1	-1
558.796	1	-1
559.986	1	-3
561.175	1	6
562.365	1	4
563.555	1	10
564.744	1	-2
565.934	1	1
567.123	1	12
568.313	1	-11
569.502	1	1
570.692	1	-9
571.881	1	4
573.070	1	6
574.260	1	-6
575.449	1	5
576.638	1	5
577.827	1	15
579.016	1	13
580.205	1	1
581.394	1	6
582.583	1	-10
583.772	1	1
584.961	1	10
586.150	1	1
587.339	1	3
588.528	1	0
589.717	1	-4
590.905	1	-2
592.094	1	-1
593.283	1	5
594.471	1	-4
595.660	1	-6
596.848	1	2
598.037	1	-5
599.225	1	-2
600.413	1	-3
601.602	1	3
602.790	1	1
603.978	1	-2
605.166	1	2
606.355	1	7
607.543	1	-9
608.731	1	-10
609.919	1	-10
611.107	1	5
612.295	1	3
613.483	1	1
614.671	1	1
615.858	1	-3
617.046	1	2
618.234	1	-4
619.422	1	-1
620.609	1	7
621.797	1	2
622.985	1	7
624.172	1	8
625.360	1	-2
626.547	1	9
627.735	1	5
628.922	1	-7
630.109	1	2
631.297	1	-3
632.484	1	-7
633.671	1	-3
634.858	1	5
636.045	1	-1
637.232	1	0
638.419	1	7
639.606	1	11
640.793	1	7
641.980	1	4
643.167	1	6
644.354	1	-3
645.541	1	-6
646.728	1	9
647.914	1	-10
649.101	1	0
650.288	1	-4
651.474	1	4
652.661	1	0
653.847	1	4
655.034	1	-5
656.220	1	9
657.406	1	7
658.593	1	-13
659.779	1	0
660.965	1	6
662.152	1	2
663.338	1	-7
664.524	1	-11
665.710	1	-11
666.896	1	-6
668.082	1	4
669.268	1	1
670.454	1	0
671.640	1	-16
672.826	1	-5
674.011	1	9
675.197	1	-5
676.383	1	0
677.569	1	4
678.754	1	-4
679.940	1	10
681.125	1	6
682.311	1	-1
683.496	1	-7
684.682	1	5
685.867	1	4
687.053	1	4
688.238	1	-2
688.746	1	1