File: Analysis/GaN_68K_200ms/GaN_sample E_spot4_UVVIS_68 K_200um_200 ms 2x2mm1_116.txt
340.368	1	3
341.565	1	3
342.763	1	7
343.960	1	4
345.157	1	14
346.354	1	2
347.552	1	-3
348.749	1	9
349.946	1	15
351.143	1	0
352.340	1	14
353.537	1	9
354.734	1	5
355.931	1	17
357.127	1	12
358.324	1	23
359.521	1	14
360.718	1	19
361.914	1	30
363.111	1	68
364.308	1	115
365.504	1	222
366.701	1	316
367.897	1	325
369.093	1	197
370.290	1	139
371.486	1	102
372.682	1	89
373.879	1	95
375.075	1	89
376.271	1	79
377.467	1	77
378.663	1	88
379.859	1	124
381.055	1	204
382.251	1	361
383.447	1	706
384.643	1	1276
385.839	1	1862
387.035	1	2244
388.230	1	2274
389.426	1	2136
390.622	1	1954
391.817	1	1781
393.013	1	1587
394.208	1	1501
395.404	1	1604
396.599	1	1828
397.795	1	2016
398.990	1	1988
400.186	1	1792
401.381	1	1529
402.576	1	1377
403.771	1	1260
404.967	1	1185
406.162	1	1155
407.357	1	1119
408.552	1	1098
409.747	1	1049
410.942	1	1017
412.137	1	915
413.332	1	822
414.526	1	731
415.721	1	654
416.916	1	625
418.111	1	630
419.305	1	620
420.500	1	548
421.695	1	513
422.889	1	455
424.084	1	422
425.278	1	387
426.472	1	360
427.667	1	362
428.861	1	343
430.055	1	309
431.250	1	281
432.444	1	261
433.638	1	222
434.832	1	220
436.026	1	200
437.220	1	199
438.414	1	174
439.608	1	164
440.802	1	145
441.996	1	138
443.190	1	122
444.384	1	128
445.578	1	121
446.771	1	100
447.965	1	90
449.159	1	95
450.352	1	102
451.546	1	84
452.739	1	88
453.933	1	69
455.126	1	69
456.320	1	72
457.513	1	72
458.706	1	59
459.899	1	66
461.093	1	60
462.286	1	51
463.479	1	60
464.672	1	41
465.865	1	39
467.058	1	44
468.251	1	32
469.444	1	37
470.637	1	35
471.830	1	51
473.023	1	21
474.215	1	27
475.408	1	25
476.601	1	23
477.793	1	36
478.986	1	30
480.179	1	27
481.371	1	31
482.564	1	15
483.756	1	28
484.948	1	25
486.141	1	16
487.333	1	22
488.525	1	25
489.718	1	20
490.910	1	25
492.102	1	14
493.294	1	27
494.486	1	14
495.678	1	27
496.870	1	17
498.062	1	24
499.254	1	25
500.446	1	29
501.638	1	24
502.829	1	33
504.021	1	49
505.213	1	27
506.404	1	34
507.596	1	34
508.788	1	49
509.979	1	32
511.171	1	54
512.362	1	42
513.553	1	36
514.745	1	37
515.936	1	51
517.127	1	57
518.319	1	60
519.510	1	50
520.701	1	59
521.892	1	52
523.083	1	62
524.274	1	47
525.465	1	59
526.656	1	71
527.847	1	55
529.038	1	80
530.229	1	76
531.419	1	78
532.610	1	80
533.801	1	73
534.991	1	70
536.182	1	75
537.373	1	68
538.563	1	70
539.754	1	71
540.944	1	73
542.134	1	86
543.325	1	70
544.515	1	84
545.705	1	86
546.896	1	75
548.086	1	78
549.276	1	92
550.466	1	73
551.656	1	84
552.846	1	88
554.036	1	91
555.226	1	77
556.416	1	85
557.606	1	83
558.796	1	78
559.986	1	82
561.175	1	90
562.365	1	81
563.555	1	102
564.744	1	87
565.934	1	86
567.123	1	95
568.313	1	80
569.502	1	85
570.692	1	78
571.881	1	77
573.070	1	79
574.260	1	81
575.449	1	90
576.638	1	74
577.827	1	90
579.016	1	90
580.205	1	80
581.394	1	78
582.583	1	71
583.772	1	77
584.961	1	75
586.150	1	86
587.339	1	85
588.528	1	88
589.717	1	80
590.905	1	77
592.094	1	72
593.283	1	77
594.471	1	64
595.660	1	52
596.848	1	67
598.037	1	71
599.225	1	71
600.413	1	67
601.602	1	63
602.790	1	63
603.978	1	68
605.166	1	65
606.355	1	70
607.543	1	54
608.731	1	51
609.919	1	60
611.107	1	60
612.295	1	64
613.483	1	68
614.671	1	53
615.858	1	53
617.046	1	58
618.234	1	56
619.422	1	52
620.609	1	58
621.797	1	49
622.985	1	56
624.172	1	62
625.360	1	38
626.547	1	42
627.735	1	40
628.922	1	49
630.109	1	44
631.297	1	41
632.484	1	42
633.671	1	40
634.858	1	46
636.045	1	40
637.232	1	40
638.419	1	44
639.606	1	48
640.793	1	46
641.980	1	42
643.167	1	49
644.354	1	31
645.541	1	30
646.728	1	28
647.914	1	15
649.101	1	28
650.288	1	31
651.474	1	29
652.661	1	31
653.847	1	29
655.034	1	22
656.220	1	38
657.406	1	24
658.593	1	15
659.779	1	18
660.965	1	33
662.152	1	19
663.338	1	21
664.524	1	10
665.710	1	19
666.896	1	14
668.082	1	19
669.268	1	24
670.454	1	22
671.640	1	13
672.826	1	4
674.011	1	29
675.197	1	13
676.383	1	16
677.569	1	11
678.754	1	18
679.940	1	11
681.125	1	18
682.311	1	17
683.496	1	19
684.682	1	18
685.867	1	23
687.053	1	24
688.238	1	11
688.746	1	29