File: Analysis/GaN_68K_200ms/GaN_sample E_spot4_UVVIS_68 K_200um_200 ms 2x2mm1_771.txt
340.368	1	-1
341.565	1	-8
342.763	1	-6
343.960	1	-10
345.157	1	4
346.354	1	0
347.552	1	-4
348.749	1	5
349.946	1	4
351.143	1	-7
352.340	1	-8
353.537	1	0
354.734	1	1
355.931	1	-1
357.127	1	-3
358.324	1	-5
359.521	1	-2
360.718	1	-11
361.914	1	-1
363.111	1	7
364.308	1	-5
365.504	1	-10
366.701	1	-3
367.897	1	0
369.093	1	6
370.290	1	-4
371.486	1	13
372.682	1	-3
373.879	1	2
375.075	1	6
376.271	1	-4
377.467	1	0
378.663	1	-8
379.859	1	-5
381.055	1	-5
382.251	1	-4
383.447	1	10
384.643	1	-1
385.839	1	3
387.035	1	-6
388.230	1	5
389.426	1	-1
390.622	1	-11
391.817	1	-6
393.013	1	9
394.208	1	0
395.404	1	10
396.599	1	4
397.795	1	3
398.990	1	10
400.186	1	11
401.381	1	-2
402.576	1	9
403.771	1	0
404.967	1	1
406.162	1	-3
407.357	1	7
408.552	1	11
409.747	1	-3
410.942	1	3
412.137	1	8
413.332	1	-5
414.526	1	-3
415.721	1	-2
416.916	1	-4
418.111	1	7
419.305	1	6
420.500	1	-2
421.695	1	-2
422.889	1	7
424.084	1	5
425.278	1	-14
426.472	1	4
427.667	1	5
428.861	1	1
430.055	1	-5
431.250	1	-9
432.444	1	13
433.638	1	-2
434.832	1	-2
436.026	1	0
437.220	1	1
438.414	1	3
439.608	1	5
440.802	1	-1
441.996	1	5
443.190	1	-18
444.384	1	5
445.578	1	14
446.771	1	0
447.965	1	-8
449.159	1	-1
450.352	1	5
451.546	1	-4
452.739	1	-5
453.933	1	3
455.126	1	-2
456.320	1	9
457.513	1	6
458.706	1	8
459.899	1	17
461.093	1	3
462.286	1	9
463.479	1	3
464.672	1	-1
465.865	1	-4
467.058	1	10
468.251	1	-2
469.444	1	-4
470.637	1	18
471.830	1	4
473.023	1	-12
474.215	1	-8
475.408	1	3
476.601	1	-9
477.793	1	6
478.986	1	-8
480.179	1	2
481.371	1	15
482.564	1	-9
483.756	1	10
484.948	1	-9
486.141	1	-6
487.333	1	0
488.525	1	-8
489.718	1	-1
490.910	1	-5
492.102	1	2
493.294	1	-3
494.486	1	4
495.678	1	10
496.870	1	2
498.062	1	-5
499.254	1	7
500.446	1	6
501.638	1	2
502.829	1	0
504.021	1	15
505.213	1	4
506.404	1	-7
507.596	1	7
508.788	1	0
509.979	1	-2
511.171	1	2
512.362	1	4
513.553	1	-4
514.745	1	6
515.936	1	11
517.127	1	6
518.319	1	1
519.510	1	-1
520.701	1	3
521.892	1	-5
523.083	1	6
524.274	1	-3
525.465	1	3
526.656	1	15
527.847	1	0
529.038	1	6
530.229	1	10
531.419	1	10
532.610	1	13
533.801	1	-5
534.991	1	1
536.182	1	-2
537.373	1	-10
538.563	1	-1
539.754	1	-6
540.944	1	-1
542.134	1	-3
543.325	1	-9
544.515	1	-1
545.705	1	0
546.896	1	5
548.086	1	0
549.276	1	6
550.466	1	-9
551.656	1	-14
552.846	1	2
554.036	1	1
555.226	1	-7
556.416	1	2
557.606	1	-6
558.796	1	5
559.986	1	-16
561.175	1	-5
562.365	1	8
563.555	1	9
564.744	1	6
565.934	1	5
567.123	1	10
568.313	1	-1
569.502	1	-2
570.692	1	6
571.881	1	-1
573.070	1	7
574.260	1	-3
575.449	1	4
576.638	1	1
577.827	1	3
579.016	1	8
580.205	1	-4
581.394	1	-4
582.583	1	-9
583.772	1	4
584.961	1	0
586.150	1	7
587.339	1	2
588.528	1	5
589.717	1	0
590.905	1	2
592.094	1	2
593.283	1	0
594.471	1	3
595.660	1	-9
596.848	1	10
598.037	1	-4
599.225	1	2
600.413	1	-2
601.602	1	4
602.790	1	1
603.978	1	-4
605.166	1	-1
606.355	1	6
607.543	1	-6
608.731	1	-6
609.919	1	-10
611.107	1	8
612.295	1	-3
613.483	1	3
614.671	1	10
615.858	1	3
617.046	1	-1
618.234	1	6
619.422	1	5
620.609	1	2
621.797	1	2
622.985	1	6
624.172	1	10
625.360	1	-7
626.547	1	-3
627.735	1	9
628.922	1	-1
630.109	1	-2
631.297	1	5
632.484	1	-7
633.671	1	-7
634.858	1	11
636.045	1	1
637.232	1	-4
638.419	1	8
639.606	1	9
640.793	1	6
641.980	1	-11
643.167	1	-2
644.354	1	-5
645.541	1	-7
646.728	1	5
647.914	1	-9
649.101	1	-1
650.288	1	-6
651.474	1	6
652.661	1	-2
653.847	1	0
655.034	1	-5
656.220	1	-3
657.406	1	6
658.593	1	-2
659.779	1	-8
660.965	1	-4
662.152	1	-7
663.338	1	4
664.524	1	-4
665.710	1	-6
666.896	1	-7
668.082	1	-8
669.268	1	8
670.454	1	-4
671.640	1	-16
672.826	1	-11
674.011	1	0
675.197	1	0
676.383	1	1
677.569	1	-4
678.754	1	8
679.940	1	2
681.125	1	9
682.311	1	-7
683.496	1	-10
684.682	1	6
685.867	1	-12
687.053	1	-2
688.238	1	-7
688.746	1	-2