File: Analysis/GaN_68K_200ms/GaN_sample E_spot4_UVVIS_68 K_200um_200 ms 2x2mm1_646.txt
340.368	1	2
341.565	1	-8
342.763	1	0
343.960	1	-6
345.157	1	-2
346.354	1	1
347.552	1	0
348.749	1	2
349.946	1	3
351.143	1	-4
352.340	1	0
353.537	1	-10
354.734	1	-2
355.931	1	-4
357.127	1	1
358.324	1	-3
359.521	1	6
360.718	1	-3
361.914	1	-1
363.111	1	5
364.308	1	-5
365.504	1	-3
366.701	1	-1
367.897	1	-1
369.093	1	-4
370.290	1	-3
371.486	1	17
372.682	1	1
373.879	1	4
375.075	1	9
376.271	1	1
377.467	1	0
378.663	1	4
379.859	1	-10
381.055	1	-6
382.251	1	8
383.447	1	2
384.643	1	11
385.839	1	0
387.035	1	-3
388.230	1	-3
389.426	1	7
390.622	1	-4
391.817	1	-9
393.013	1	13
394.208	1	10
395.404	1	1
396.599	1	3
397.795	1	16
398.990	1	4
400.186	1	10
401.381	1	8
402.576	1	11
403.771	1	4
404.967	1	-1
406.162	1	2
407.357	1	1
408.552	1	9
409.747	1	-6
410.942	1	1
412.137	1	7
413.332	1	-7
414.526	1	3
415.721	1	2
416.916	1	-1
418.111	1	2
419.305	1	-7
420.500	1	9
421.695	1	0
422.889	1	8
424.084	1	1
425.278	1	-2
426.472	1	-4
427.667	1	3
428.861	1	-9
430.055	1	-9
431.250	1	-4
432.444	1	7
433.638	1	1
434.832	1	-14
436.026	1	-4
437.220	1	8
438.414	1	1
439.608	1	3
440.802	1	6
441.996	1	-3
443.190	1	-9
444.384	1	4
445.578	1	7
446.771	1	-4
447.965	1	-6
449.159	1	-1
450.352	1	1
451.546	1	-3
452.739	1	-1
453.933	1	9
455.126	1	-4
456.320	1	2
457.513	1	0
458.706	1	-3
459.899	1	5
461.093	1	12
462.286	1	2
463.479	1	4
464.672	1	-7
465.865	1	-2
467.058	1	9
468.251	1	-6
469.444	1	-3
470.637	1	7
471.830	1	17
473.023	1	-4
474.215	1	-6
475.408	1	3
476.601	1	4
477.793	1	9
478.986	1	10
480.179	1	-2
481.371	1	3
482.564	1	-12
483.756	1	9
484.948	1	-11
486.141	1	-9
487.333	1	-2
488.525	1	-2
489.718	1	-5
490.910	1	-4
492.102	1	-3
493.294	1	7
494.486	1	3
495.678	1	14
496.870	1	4
498.062	1	-4
499.254	1	-5
500.446	1	9
501.638	1	-2
502.829	1	1
504.021	1	15
505.213	1	-1
506.404	1	-6
507.596	1	6
508.788	1	-8
509.979	1	-9
511.171	1	3
512.362	1	2
513.553	1	-7
514.745	1	-1
515.936	1	-10
517.127	1	2
518.319	1	-13
519.510	1	0
520.701	1	1
521.892	1	-3
523.083	1	-9
524.274	1	-5
525.465	1	-2
526.656	1	21
527.847	1	-7
529.038	1	2
530.229	1	6
531.419	1	12
532.610	1	-7
533.801	1	3
534.991	1	4
536.182	1	-4
537.373	1	-7
538.563	1	1
539.754	1	5
540.944	1	-4
542.134	1	4
543.325	1	0
544.515	1	7
545.705	1	9
546.896	1	8
548.086	1	3
549.276	1	10
550.466	1	-5
551.656	1	-5
552.846	1	4
554.036	1	1
555.226	1	-7
556.416	1	0
557.606	1	-8
558.796	1	-9
559.986	1	3
561.175	1	-9
562.365	1	1
563.555	1	9
564.744	1	-1
565.934	1	-1
567.123	1	13
568.313	1	-3
569.502	1	-3
570.692	1	1
571.881	1	0
573.070	1	-1
574.260	1	-10
575.449	1	1
576.638	1	-6
577.827	1	2
579.016	1	7
580.205	1	-8
581.394	1	-6
582.583	1	-3
583.772	1	0
584.961	1	8
586.150	1	-8
587.339	1	-2
588.528	1	6
589.717	1	-1
590.905	1	4
592.094	1	5
593.283	1	-4
594.471	1	5
595.660	1	-4
596.848	1	3
598.037	1	-1
599.225	1	4
600.413	1	5
601.602	1	1
602.790	1	-3
603.978	1	3
605.166	1	-2
606.355	1	10
607.543	1	-6
608.731	1	-5
609.919	1	-5
611.107	1	-1
612.295	1	2
613.483	1	3
614.671	1	3
615.858	1	0
617.046	1	0
618.234	1	1
619.422	1	-5
620.609	1	-1
621.797	1	-6
622.985	1	-6
624.172	1	9
625.360	1	-7
626.547	1	4
627.735	1	0
628.922	1	-4
630.109	1	-2
631.297	1	-9
632.484	1	-4
633.671	1	-1
634.858	1	1
636.045	1	4
637.232	1	-6
638.419	1	0
639.606	1	3
640.793	1	4
641.980	1	-4
643.167	1	8
644.354	1	2
645.541	1	-8
646.728	1	-4
647.914	1	-6
649.101	1	9
650.288	1	-6
651.474	1	2
652.661	1	1
653.847	1	0
655.034	1	3
656.220	1	8
657.406	1	-1
658.593	1	-6
659.779	1	3
660.965	1	3
662.152	1	1
663.338	1	-3
664.524	1	-8
665.710	1	-8
666.896	1	3
668.082	1	7
669.268	1	-3
670.454	1	8
671.640	1	-15
672.826	1	-17
674.011	1	9
675.197	1	3
676.383	1	-1
677.569	1	4
678.754	1	2
679.940	1	1
681.125	1	3
682.311	1	9
683.496	1	0
684.682	1	-2
685.867	1	2
687.053	1	0
688.238	1	-13
688.746	1	2