File: Analysis/GaN_68K_200ms/GaN_sample E_spot4_UVVIS_68 K_200um_200 ms 2x2mm1_382.txt
340.368	1	2
341.565	1	-4
342.763	1	-6
343.960	1	-2
345.157	1	1
346.354	1	0
347.552	1	1
348.749	1	-1
349.946	1	5
351.143	1	-5
352.340	1	7
353.537	1	-4
354.734	1	3
355.931	1	-2
357.127	1	-2
358.324	1	0
359.521	1	0
360.718	1	-1
361.914	1	3
363.111	1	11
364.308	1	1
365.504	1	-6
366.701	1	3
367.897	1	-1
369.093	1	5
370.290	1	3
371.486	1	8
372.682	1	2
373.879	1	-1
375.075	1	-1
376.271	1	8
377.467	1	-4
378.663	1	2
379.859	1	7
381.055	1	6
382.251	1	8
383.447	1	6
384.643	1	9
385.839	1	12
387.035	1	5
388.230	1	-3
389.426	1	12
390.622	1	10
391.817	1	-6
393.013	1	13
394.208	1	6
395.404	1	9
396.599	1	2
397.795	1	12
398.990	1	13
400.186	1	14
401.381	1	2
402.576	1	12
403.771	1	8
404.967	1	11
406.162	1	-5
407.357	1	3
408.552	1	3
409.747	1	2
410.942	1	-1
412.137	1	10
413.332	1	-4
414.526	1	7
415.721	1	4
416.916	1	-5
418.111	1	4
419.305	1	1
420.500	1	-4
421.695	1	1
422.889	1	15
424.084	1	0
425.278	1	-2
426.472	1	0
427.667	1	6
428.861	1	1
430.055	1	1
431.250	1	-13
432.444	1	3
433.638	1	5
434.832	1	1
436.026	1	4
437.220	1	15
438.414	1	2
439.608	1	2
440.802	1	11
441.996	1	7
443.190	1	-4
444.384	1	5
445.578	1	14
446.771	1	8
447.965	1	-1
449.159	1	-1
450.352	1	8
451.546	1	2
452.739	1	0
453.933	1	9
455.126	1	-3
456.320	1	-6
457.513	1	3
458.706	1	0
459.899	1	4
461.093	1	12
462.286	1	8
463.479	1	13
464.672	1	4
465.865	1	-4
467.058	1	5
468.251	1	1
469.444	1	11
470.637	1	7
471.830	1	11
473.023	1	-9
474.215	1	-2
475.408	1	4
476.601	1	1
477.793	1	15
478.986	1	8
480.179	1	-1
481.371	1	1
482.564	1	-9
483.756	1	12
484.948	1	1
486.141	1	-3
487.333	1	17
488.525	1	-2
489.718	1	-4
490.910	1	-9
492.102	1	1
493.294	1	8
494.486	1	8
495.678	1	11
496.870	1	-1
498.062	1	4
499.254	1	1
500.446	1	8
501.638	1	3
502.829	1	4
504.021	1	22
505.213	1	7
506.404	1	1
507.596	1	5
508.788	1	0
509.979	1	1
511.171	1	11
512.362	1	6
513.553	1	-1
514.745	1	-4
515.936	1	12
517.127	1	14
518.319	1	-5
519.510	1	-7
520.701	1	11
521.892	1	3
523.083	1	-3
524.274	1	0
525.465	1	7
526.656	1	14
527.847	1	0
529.038	1	5
530.229	1	3
531.419	1	13
532.610	1	7
533.801	1	1
534.991	1	4
536.182	1	8
537.373	1	0
538.563	1	4
539.754	1	1
540.944	1	6
542.134	1	5
543.325	1	-4
544.515	1	6
545.705	1	8
546.896	1	5
548.086	1	10
549.276	1	9
550.466	1	1
551.656	1	-2
552.846	1	0
554.036	1	-4
555.226	1	-15
556.416	1	1
557.606	1	-5
558.796	1	-6
559.986	1	0
561.175	1	3
562.365	1	10
563.555	1	2
564.744	1	13
565.934	1	12
567.123	1	10
568.313	1	-6
569.502	1	4
570.692	1	7
571.881	1	11
573.070	1	1
574.260	1	3
575.449	1	1
576.638	1	12
577.827	1	19
579.016	1	17
580.205	1	5
581.394	1	-7
582.583	1	2
583.772	1	9
584.961	1	-2
586.150	1	6
587.339	1	-6
588.528	1	5
589.717	1	-4
590.905	1	-1
592.094	1	8
593.283	1	4
594.471	1	7
595.660	1	6
596.848	1	6
598.037	1	4
599.225	1	6
600.413	1	-4
601.602	1	6
602.790	1	4
603.978	1	-2
605.166	1	-6
606.355	1	7
607.543	1	-2
608.731	1	-2
609.919	1	-6
611.107	1	5
612.295	1	-1
613.483	1	3
614.671	1	4
615.858	1	11
617.046	1	2
618.234	1	4
619.422	1	10
620.609	1	1
621.797	1	1
622.985	1	2
624.172	1	17
625.360	1	-5
626.547	1	-2
627.735	1	12
628.922	1	5
630.109	1	0
631.297	1	0
632.484	1	-3
633.671	1	0
634.858	1	8
636.045	1	3
637.232	1	3
638.419	1	1
639.606	1	3
640.793	1	8
641.980	1	-2
643.167	1	19
644.354	1	0
645.541	1	-6
646.728	1	5
647.914	1	-4
649.101	1	0
650.288	1	-8
651.474	1	8
652.661	1	-1
653.847	1	4
655.034	1	6
656.220	1	7
657.406	1	5
658.593	1	-7
659.779	1	-4
660.965	1	2
662.152	1	-2
663.338	1	0
664.524	1	-5
665.710	1	-6
666.896	1	2
668.082	1	-5
669.268	1	5
670.454	1	10
671.640	1	-7
672.826	1	-14
674.011	1	2
675.197	1	-4
676.383	1	-5
677.569	1	-6
678.754	1	5
679.940	1	-1
681.125	1	7
682.311	1	4
683.496	1	-3
684.682	1	9
685.867	1	1
687.053	1	11
688.238	1	-1
688.746	1	9