File: Analysis/GaN_68K_200ms/GaN_sample E_spot4_UVVIS_68 K_200um_200 ms 2x2mm1_448.txt
340.368	1	6
341.565	1	-2
342.763	1	2
343.960	1	-4
345.157	1	5
346.354	1	-2
347.552	1	-1
348.749	1	-3
349.946	1	10
351.143	1	-5
352.340	1	2
353.537	1	0
354.734	1	4
355.931	1	-3
357.127	1	7
358.324	1	3
359.521	1	3
360.718	1	-5
361.914	1	-2
363.111	1	9
364.308	1	-2
365.504	1	-8
366.701	1	-11
367.897	1	0
369.093	1	-3
370.290	1	-2
371.486	1	6
372.682	1	-3
373.879	1	14
375.075	1	15
376.271	1	1
377.467	1	-5
378.663	1	0
379.859	1	-1
381.055	1	-3
382.251	1	6
383.447	1	5
384.643	1	8
385.839	1	-4
387.035	1	-1
388.230	1	14
389.426	1	7
390.622	1	-3
391.817	1	-2
393.013	1	6
394.208	1	8
395.404	1	8
396.599	1	0
397.795	1	7
398.990	1	4
400.186	1	14
401.381	1	10
402.576	1	10
403.771	1	9
404.967	1	7
406.162	1	1
407.357	1	5
408.552	1	9
409.747	1	-3
410.942	1	7
412.137	1	13
413.332	1	2
414.526	1	6
415.721	1	0
416.916	1	-3
418.111	1	0
419.305	1	6
420.500	1	9
421.695	1	14
422.889	1	1
424.084	1	-2
425.278	1	-1
426.472	1	-2
427.667	1	7
428.861	1	-4
430.055	1	1
431.250	1	-10
432.444	1	14
433.638	1	1
434.832	1	-4
436.026	1	4
437.220	1	1
438.414	1	6
439.608	1	-4
440.802	1	5
441.996	1	8
443.190	1	-7
444.384	1	5
445.578	1	10
446.771	1	1
447.965	1	-13
449.159	1	-9
450.352	1	10
451.546	1	8
452.739	1	2
453.933	1	7
455.126	1	5
456.320	1	5
457.513	1	7
458.706	1	-3
459.899	1	12
461.093	1	3
462.286	1	15
463.479	1	18
464.672	1	-1
465.865	1	-3
467.058	1	14
468.251	1	-1
469.444	1	-2
470.637	1	14
471.830	1	9
473.023	1	-4
474.215	1	-4
475.408	1	3
476.601	1	1
477.793	1	10
478.986	1	0
480.179	1	-1
481.371	1	6
482.564	1	-14
483.756	1	3
484.948	1	-3
486.141	1	-3
487.333	1	0
488.525	1	-2
489.718	1	5
490.910	1	-1
492.102	1	6
493.294	1	8
494.486	1	4
495.678	1	14
496.870	1	4
498.062	1	11
499.254	1	-4
500.446	1	4
501.638	1	-7
502.829	1	8
504.021	1	20
505.213	1	-1
506.404	1	-11
507.596	1	8
508.788	1	5
509.979	1	4
511.171	1	8
512.362	1	1
513.553	1	-14
514.745	1	-9
515.936	1	9
517.127	1	2
518.319	1	3
519.510	1	6
520.701	1	0
521.892	1	-6
523.083	1	-6
524.274	1	5
525.465	1	8
526.656	1	22
527.847	1	-6
529.038	1	4
530.229	1	3
531.419	1	9
532.610	1	1
533.801	1	7
534.991	1	3
536.182	1	-2
537.373	1	5
538.563	1	5
539.754	1	2
540.944	1	-2
542.134	1	9
543.325	1	-4
544.515	1	0
545.705	1	-1
546.896	1	4
548.086	1	3
549.276	1	17
550.466	1	-3
551.656	1	-4
552.846	1	5
554.036	1	3
555.226	1	-2
556.416	1	4
557.606	1	-5
558.796	1	-5
559.986	1	-1
561.175	1	-2
562.365	1	7
563.555	1	6
564.744	1	5
565.934	1	3
567.123	1	10
568.313	1	1
569.502	1	3
570.692	1	2
571.881	1	2
573.070	1	-3
574.260	1	5
575.449	1	11
576.638	1	7
577.827	1	6
579.016	1	19
580.205	1	3
581.394	1	-12
582.583	1	2
583.772	1	4
584.961	1	5
586.150	1	-3
587.339	1	3
588.528	1	5
589.717	1	7
590.905	1	5
592.094	1	-8
593.283	1	4
594.471	1	8
595.660	1	-2
596.848	1	3
598.037	1	2
599.225	1	4
600.413	1	2
601.602	1	13
602.790	1	-1
603.978	1	4
605.166	1	-2
606.355	1	12
607.543	1	-12
608.731	1	-12
609.919	1	-12
611.107	1	7
612.295	1	0
613.483	1	5
614.671	1	1
615.858	1	5
617.046	1	5
618.234	1	2
619.422	1	3
620.609	1	3
621.797	1	-3
622.985	1	-2
624.172	1	16
625.360	1	-5
626.547	1	4
627.735	1	7
628.922	1	2
630.109	1	-1
631.297	1	0
632.484	1	4
633.671	1	-6
634.858	1	11
636.045	1	4
637.232	1	-1
638.419	1	-2
639.606	1	13
640.793	1	4
641.980	1	-7
643.167	1	5
644.354	1	3
645.541	1	-6
646.728	1	-3
647.914	1	1
649.101	1	4
650.288	1	-2
651.474	1	5
652.661	1	9
653.847	1	1
655.034	1	1
656.220	1	3
657.406	1	4
658.593	1	-4
659.779	1	-10
660.965	1	-1
662.152	1	2
663.338	1	-18
664.524	1	-5
665.710	1	-5
666.896	1	-4
668.082	1	3
669.268	1	0
670.454	1	1
671.640	1	-19
672.826	1	-18
674.011	1	8
675.197	1	-4
676.383	1	0
677.569	1	-4
678.754	1	-3
679.940	1	-5
681.125	1	2
682.311	1	-3
683.496	1	-10
684.682	1	14
685.867	1	7
687.053	1	-3
688.238	1	6
688.746	1	2