File: Analysis/GaN_68K_200ms/GaN_sample E_spot4_UVVIS_68 K_200um_200 ms 2x2mm1_117.txt
340.368	1	26
341.565	1	16
342.763	1	34
343.960	1	35
345.157	1	39
346.354	1	39
347.552	1	39
348.749	1	38
349.946	1	45
351.143	1	36
352.340	1	49
353.537	1	50
354.734	1	41
355.931	1	51
357.127	1	70
358.324	1	81
359.521	1	100
360.718	1	136
361.914	1	218
363.111	1	414
364.308	1	810
365.504	1	1440
366.701	1	1896
367.897	1	1663
369.093	1	1166
370.290	1	777
371.486	1	614
372.682	1	528
373.879	1	498
375.075	1	446
376.271	1	419
377.467	1	453
378.663	1	505
379.859	1	634
381.055	1	968
382.251	1	1682
383.447	1	3137
384.643	1	5268
385.839	1	7762
387.035	1	9279
388.230	1	9357
389.426	1	8875
390.622	1	8211
391.817	1	7499
393.013	1	6634
394.208	1	6369
395.404	1	6809
396.599	1	7627
397.795	1	8358
398.990	1	8249
400.186	1	7489
401.381	1	6494
402.576	1	5772
403.771	1	5282
404.967	1	4949
406.162	1	4804
407.357	1	4713
408.552	1	4617
409.747	1	4445
410.942	1	4160
412.137	1	3814
413.332	1	3443
414.526	1	3056
415.721	1	2849
416.916	1	2668
418.111	1	2625
419.305	1	2508
420.500	1	2397
421.695	1	2172
422.889	1	1988
424.084	1	1777
425.278	1	1654
426.472	1	1554
427.667	1	1524
428.861	1	1378
430.055	1	1315
431.250	1	1171
432.444	1	1090
433.638	1	1002
434.832	1	907
436.026	1	846
437.220	1	807
438.414	1	754
439.608	1	706
440.802	1	643
441.996	1	592
443.190	1	560
444.384	1	540
445.578	1	530
446.771	1	479
447.965	1	435
449.159	1	418
450.352	1	407
451.546	1	368
452.739	1	335
453.933	1	331
455.126	1	307
456.320	1	307
457.513	1	272
458.706	1	270
459.899	1	256
461.093	1	242
462.286	1	231
463.479	1	224
464.672	1	198
465.865	1	177
467.058	1	192
468.251	1	176
469.444	1	172
470.637	1	161
471.830	1	165
473.023	1	148
474.215	1	140
475.408	1	142
476.601	1	131
477.793	1	152
478.986	1	135
480.179	1	128
481.371	1	123
482.564	1	112
483.756	1	122
484.948	1	124
486.141	1	108
487.333	1	124
488.525	1	131
489.718	1	117
490.910	1	124
492.102	1	134
493.294	1	140
494.486	1	143
495.678	1	153
496.870	1	140
498.062	1	154
499.254	1	166
500.446	1	175
501.638	1	184
502.829	1	201
504.021	1	225
505.213	1	220
506.404	1	229
507.596	1	234
508.788	1	237
509.979	1	235
511.171	1	270
512.362	1	268
513.553	1	268
514.745	1	274
515.936	1	311
517.127	1	347
518.319	1	327
519.510	1	363
520.701	1	367
521.892	1	364
523.083	1	375
524.274	1	384
525.465	1	381
526.656	1	406
527.847	1	396
529.038	1	423
530.229	1	430
531.419	1	445
532.610	1	453
533.801	1	459
534.991	1	444
536.182	1	459
537.373	1	460
538.563	1	431
539.754	1	449
540.944	1	453
542.134	1	444
543.325	1	451
544.515	1	452
545.705	1	448
546.896	1	461
548.086	1	471
549.276	1	477
550.466	1	467
551.656	1	480
552.846	1	479
554.036	1	480
555.226	1	451
556.416	1	445
557.606	1	444
558.796	1	462
559.986	1	433
561.175	1	432
562.365	1	431
563.555	1	450
564.744	1	439
565.934	1	437
567.123	1	443
568.313	1	435
569.502	1	419
570.692	1	416
571.881	1	433
573.070	1	402
574.260	1	399
575.449	1	392
576.638	1	384
577.827	1	405
579.016	1	409
580.205	1	404
581.394	1	380
582.583	1	396
583.772	1	370
584.961	1	380
586.150	1	383
587.339	1	374
588.528	1	362
589.717	1	365
590.905	1	357
592.094	1	347
593.283	1	341
594.471	1	318
595.660	1	313
596.848	1	311
598.037	1	315
599.225	1	320
600.413	1	308
601.602	1	313
602.790	1	297
603.978	1	306
605.166	1	300
606.355	1	311
607.543	1	306
608.731	1	287
609.919	1	301
611.107	1	302
612.295	1	273
613.483	1	281
614.671	1	268
615.858	1	272
617.046	1	242
618.234	1	244
619.422	1	229
620.609	1	224
621.797	1	239
622.985	1	220
624.172	1	219
625.360	1	207
626.547	1	203
627.735	1	220
628.922	1	208
630.109	1	201
631.297	1	189
632.484	1	191
633.671	1	191
634.858	1	193
636.045	1	191
637.232	1	183
638.419	1	168
639.606	1	186
640.793	1	185
641.980	1	176
643.167	1	165
644.354	1	151
645.541	1	145
646.728	1	153
647.914	1	139
649.101	1	148
650.288	1	135
651.474	1	158
652.661	1	136
653.847	1	134
655.034	1	143
656.220	1	142
657.406	1	136
658.593	1	115
659.779	1	118
660.965	1	121
662.152	1	110
663.338	1	108
664.524	1	85
665.710	1	104
666.896	1	107
668.082	1	94
669.268	1	96
670.454	1	90
671.640	1	82
672.826	1	86
674.011	1	104
675.197	1	86
676.383	1	95
677.569	1	95
678.754	1	97
679.940	1	100
681.125	1	97
682.311	1	89
683.496	1	86
684.682	1	99
685.867	1	81
687.053	1	98
688.238	1	90
688.746	1	98