File: Analysis/GaN_68K_200ms/GaN_sample E_spot4_UVVIS_68 K_200um_200 ms 2x2mm1_284.txt
340.368	1	4
341.565	1	0
342.763	1	2
343.960	1	-9
345.157	1	11
346.354	1	6
347.552	1	-2
348.749	1	12
349.946	1	5
351.143	1	-3
352.340	1	-3
353.537	1	3
354.734	1	-2
355.931	1	-1
357.127	1	6
358.324	1	4
359.521	1	5
360.718	1	-6
361.914	1	-5
363.111	1	17
364.308	1	-4
365.504	1	3
366.701	1	3
367.897	1	12
369.093	1	11
370.290	1	-7
371.486	1	9
372.682	1	4
373.879	1	9
375.075	1	4
376.271	1	-2
377.467	1	9
378.663	1	3
379.859	1	-6
381.055	1	4
382.251	1	9
383.447	1	14
384.643	1	15
385.839	1	17
387.035	1	13
388.230	1	15
389.426	1	4
390.622	1	15
391.817	1	5
393.013	1	13
394.208	1	24
395.404	1	14
396.599	1	23
397.795	1	6
398.990	1	6
400.186	1	14
401.381	1	15
402.576	1	18
403.771	1	2
404.967	1	5
406.162	1	5
407.357	1	6
408.552	1	7
409.747	1	5
410.942	1	5
412.137	1	14
413.332	1	1
414.526	1	12
415.721	1	12
416.916	1	5
418.111	1	5
419.305	1	3
420.500	1	5
421.695	1	5
422.889	1	13
424.084	1	20
425.278	1	-4
426.472	1	3
427.667	1	1
428.861	1	2
430.055	1	-1
431.250	1	-4
432.444	1	17
433.638	1	-3
434.832	1	-6
436.026	1	9
437.220	1	3
438.414	1	-2
439.608	1	11
440.802	1	10
441.996	1	7
443.190	1	-1
444.384	1	5
445.578	1	13
446.771	1	-3
447.965	1	0
449.159	1	3
450.352	1	16
451.546	1	1
452.739	1	1
453.933	1	11
455.126	1	11
456.320	1	9
457.513	1	10
458.706	1	6
459.899	1	3
461.093	1	6
462.286	1	11
463.479	1	11
464.672	1	5
465.865	1	5
467.058	1	13
468.251	1	0
469.444	1	10
470.637	1	14
471.830	1	14
473.023	1	-1
474.215	1	-3
475.408	1	8
476.601	1	1
477.793	1	13
478.986	1	7
480.179	1	0
481.371	1	8
482.564	1	-6
483.756	1	16
484.948	1	-12
486.141	1	-6
487.333	1	8
488.525	1	-2
489.718	1	5
490.910	1	-6
492.102	1	-10
493.294	1	6
494.486	1	0
495.678	1	8
496.870	1	0
498.062	1	2
499.254	1	10
500.446	1	15
501.638	1	5
502.829	1	6
504.021	1	20
505.213	1	7
506.404	1	4
507.596	1	10
508.788	1	7
509.979	1	15
511.171	1	9
512.362	1	6
513.553	1	-6
514.745	1	4
515.936	1	14
517.127	1	-8
518.319	1	1
519.510	1	9
520.701	1	14
521.892	1	-4
523.083	1	12
524.274	1	-5
525.465	1	16
526.656	1	22
527.847	1	0
529.038	1	11
530.229	1	-3
531.419	1	19
532.610	1	10
533.801	1	13
534.991	1	9
536.182	1	8
537.373	1	-6
538.563	1	12
539.754	1	2
540.944	1	3
542.134	1	11
543.325	1	-2
544.515	1	8
545.705	1	12
546.896	1	7
548.086	1	14
549.276	1	9
550.466	1	-2
551.656	1	-5
552.846	1	11
554.036	1	7
555.226	1	-1
556.416	1	4
557.606	1	-4
558.796	1	5
559.986	1	-3
561.175	1	-4
562.365	1	2
563.555	1	11
564.744	1	9
565.934	1	9
567.123	1	19
568.313	1	-4
569.502	1	2
570.692	1	11
571.881	1	12
573.070	1	-2
574.260	1	-3
575.449	1	12
576.638	1	-6
577.827	1	2
579.016	1	10
580.205	1	-2
581.394	1	1
582.583	1	-1
583.772	1	2
584.961	1	4
586.150	1	14
587.339	1	9
588.528	1	0
589.717	1	8
590.905	1	4
592.094	1	-2
593.283	1	11
594.471	1	4
595.660	1	-1
596.848	1	9
598.037	1	8
599.225	1	7
600.413	1	2
601.602	1	9
602.790	1	0
603.978	1	6
605.166	1	-3
606.355	1	16
607.543	1	-11
608.731	1	-5
609.919	1	-13
611.107	1	7
612.295	1	-2
613.483	1	18
614.671	1	8
615.858	1	7
617.046	1	0
618.234	1	-1
619.422	1	-8
620.609	1	5
621.797	1	-4
622.985	1	6
624.172	1	12
625.360	1	8
626.547	1	-2
627.735	1	6
628.922	1	-5
630.109	1	-3
631.297	1	0
632.484	1	-6
633.671	1	6
634.858	1	3
636.045	1	5
637.232	1	6
638.419	1	5
639.606	1	14
640.793	1	10
641.980	1	-4
643.167	1	11
644.354	1	1
645.541	1	-3
646.728	1	3
647.914	1	-6
649.101	1	-2
650.288	1	-3
651.474	1	9
652.661	1	0
653.847	1	5
655.034	1	4
656.220	1	9
657.406	1	9
658.593	1	-3
659.779	1	8
660.965	1	-4
662.152	1	5
663.338	1	5
664.524	1	-9
665.710	1	7
666.896	1	-2
668.082	1	0
669.268	1	2
670.454	1	0
671.640	1	-9
672.826	1	-18
674.011	1	1
675.197	1	-7
676.383	1	-1
677.569	1	-1
678.754	1	1
679.940	1	-4
681.125	1	15
682.311	1	-9
683.496	1	-7
684.682	1	3
685.867	1	-6
687.053	1	8
688.238	1	2
688.746	1	1