File: Analysis/GaN_68K_200ms/GaN_sample E_spot4_UVVIS_68 K_200um_200 ms 2x2mm1_560.txt
340.368	1	3
341.565	1	-7
342.763	1	-1
343.960	1	-2
345.157	1	-1
346.354	1	3
347.552	1	3
348.749	1	8
349.946	1	2
351.143	1	-6
352.340	1	1
353.537	1	4
354.734	1	-3
355.931	1	-8
357.127	1	1
358.324	1	7
359.521	1	-1
360.718	1	-4
361.914	1	-3
363.111	1	14
364.308	1	-7
365.504	1	-11
366.701	1	-12
367.897	1	1
369.093	1	12
370.290	1	-1
371.486	1	10
372.682	1	2
373.879	1	7
375.075	1	2
376.271	1	-1
377.467	1	-5
378.663	1	0
379.859	1	-6
381.055	1	10
382.251	1	-3
383.447	1	14
384.643	1	5
385.839	1	0
387.035	1	-6
388.230	1	8
389.426	1	8
390.622	1	1
391.817	1	-1
393.013	1	7
394.208	1	-5
395.404	1	8
396.599	1	0
397.795	1	0
398.990	1	5
400.186	1	11
401.381	1	5
402.576	1	9
403.771	1	6
404.967	1	7
406.162	1	-3
407.357	1	-3
408.552	1	-2
409.747	1	1
410.942	1	-2
412.137	1	18
413.332	1	-2
414.526	1	13
415.721	1	2
416.916	1	-2
418.111	1	5
419.305	1	1
420.500	1	-2
421.695	1	1
422.889	1	8
424.084	1	3
425.278	1	-10
426.472	1	-8
427.667	1	13
428.861	1	2
430.055	1	-1
431.250	1	-6
432.444	1	4
433.638	1	-9
434.832	1	-5
436.026	1	6
437.220	1	5
438.414	1	1
439.608	1	-5
440.802	1	5
441.996	1	-3
443.190	1	-20
444.384	1	-1
445.578	1	1
446.771	1	7
447.965	1	-11
449.159	1	-6
450.352	1	10
451.546	1	5
452.739	1	1
453.933	1	8
455.126	1	-3
456.320	1	0
457.513	1	8
458.706	1	-2
459.899	1	13
461.093	1	1
462.286	1	1
463.479	1	8
464.672	1	7
465.865	1	-2
467.058	1	10
468.251	1	-4
469.444	1	7
470.637	1	16
471.830	1	17
473.023	1	-3
474.215	1	-2
475.408	1	2
476.601	1	2
477.793	1	4
478.986	1	-8
480.179	1	2
481.371	1	7
482.564	1	-13
483.756	1	10
484.948	1	0
486.141	1	-4
487.333	1	10
488.525	1	-1
489.718	1	-5
490.910	1	-1
492.102	1	-1
493.294	1	14
494.486	1	0
495.678	1	-2
496.870	1	2
498.062	1	5
499.254	1	2
500.446	1	3
501.638	1	4
502.829	1	-1
504.021	1	13
505.213	1	-1
506.404	1	-1
507.596	1	1
508.788	1	6
509.979	1	9
511.171	1	10
512.362	1	1
513.553	1	-10
514.745	1	-5
515.936	1	-2
517.127	1	-3
518.319	1	-4
519.510	1	-5
520.701	1	-1
521.892	1	-8
523.083	1	-2
524.274	1	-3
525.465	1	-3
526.656	1	20
527.847	1	-6
529.038	1	2
530.229	1	0
531.419	1	16
532.610	1	8
533.801	1	0
534.991	1	4
536.182	1	-2
537.373	1	0
538.563	1	2
539.754	1	-3
540.944	1	-4
542.134	1	5
543.325	1	-4
544.515	1	-7
545.705	1	5
546.896	1	-2
548.086	1	5
549.276	1	7
550.466	1	-3
551.656	1	-1
552.846	1	10
554.036	1	6
555.226	1	-4
556.416	1	7
557.606	1	-3
558.796	1	-4
559.986	1	-3
561.175	1	-3
562.365	1	-2
563.555	1	9
564.744	1	11
565.934	1	6
567.123	1	17
568.313	1	1
569.502	1	3
570.692	1	-3
571.881	1	4
573.070	1	13
574.260	1	-4
575.449	1	-6
576.638	1	5
577.827	1	1
579.016	1	14
580.205	1	4
581.394	1	-6
582.583	1	-9
583.772	1	5
584.961	1	0
586.150	1	-6
587.339	1	-1
588.528	1	6
589.717	1	5
590.905	1	3
592.094	1	-2
593.283	1	7
594.471	1	3
595.660	1	0
596.848	1	1
598.037	1	5
599.225	1	-4
600.413	1	-6
601.602	1	1
602.790	1	2
603.978	1	3
605.166	1	-12
606.355	1	11
607.543	1	-7
608.731	1	-6
609.919	1	-4
611.107	1	9
612.295	1	0
613.483	1	14
614.671	1	8
615.858	1	3
617.046	1	7
618.234	1	-5
619.422	1	-5
620.609	1	-12
621.797	1	-2
622.985	1	6
624.172	1	6
625.360	1	-7
626.547	1	0
627.735	1	-7
628.922	1	-5
630.109	1	-1
631.297	1	-3
632.484	1	-1
633.671	1	6
634.858	1	9
636.045	1	-7
637.232	1	1
638.419	1	2
639.606	1	16
640.793	1	5
641.980	1	-9
643.167	1	8
644.354	1	-6
645.541	1	-2
646.728	1	-6
647.914	1	-4
649.101	1	-3
650.288	1	-6
651.474	1	-1
652.661	1	5
653.847	1	-3
655.034	1	-1
656.220	1	11
657.406	1	1
658.593	1	-4
659.779	1	-1
660.965	1	-7
662.152	1	1
663.338	1	-3
664.524	1	-3
665.710	1	-3
666.896	1	-3
668.082	1	2
669.268	1	-3
670.454	1	3
671.640	1	-20
672.826	1	-9
674.011	1	3
675.197	1	-4
676.383	1	-5
677.569	1	-2
678.754	1	-8
679.940	1	-5
681.125	1	1
682.311	1	5
683.496	1	-10
684.682	1	7
685.867	1	1
687.053	1	0
688.238	1	0
688.746	1	2