File: Analysis/GaN_68K_200ms/GaN_sample E_spot4_UVVIS_68 K_200um_200 ms 2x2mm1_319.txt
340.368	1	8
341.565	1	-11
342.763	1	1
343.960	1	-5
345.157	1	5
346.354	1	-4
347.552	1	1
348.749	1	6
349.946	1	18
351.143	1	-11
352.340	1	4
353.537	1	-2
354.734	1	1
355.931	1	1
357.127	1	7
358.324	1	4
359.521	1	2
360.718	1	6
361.914	1	3
363.111	1	15
364.308	1	2
365.504	1	3
366.701	1	5
367.897	1	4
369.093	1	4
370.290	1	-1
371.486	1	3
372.682	1	-4
373.879	1	18
375.075	1	16
376.271	1	-3
377.467	1	5
378.663	1	0
379.859	1	-6
381.055	1	10
382.251	1	9
383.447	1	19
384.643	1	3
385.839	1	11
387.035	1	10
388.230	1	5
389.426	1	11
390.622	1	12
391.817	1	8
393.013	1	22
394.208	1	7
395.404	1	4
396.599	1	12
397.795	1	12
398.990	1	8
400.186	1	20
401.381	1	11
402.576	1	22
403.771	1	17
404.967	1	10
406.162	1	7
407.357	1	8
408.552	1	7
409.747	1	0
410.942	1	15
412.137	1	10
413.332	1	11
414.526	1	7
415.721	1	2
416.916	1	2
418.111	1	6
419.305	1	5
420.500	1	7
421.695	1	13
422.889	1	13
424.084	1	7
425.278	1	-10
426.472	1	3
427.667	1	11
428.861	1	-6
430.055	1	9
431.250	1	-12
432.444	1	11
433.638	1	0
434.832	1	5
436.026	1	5
437.220	1	13
438.414	1	3
439.608	1	0
440.802	1	8
441.996	1	2
443.190	1	-9
444.384	1	11
445.578	1	3
446.771	1	6
447.965	1	-3
449.159	1	1
450.352	1	13
451.546	1	3
452.739	1	4
453.933	1	12
455.126	1	-5
456.320	1	-4
457.513	1	10
458.706	1	3
459.899	1	4
461.093	1	1
462.286	1	7
463.479	1	3
464.672	1	1
465.865	1	-2
467.058	1	8
468.251	1	-3
469.444	1	-1
470.637	1	17
471.830	1	14
473.023	1	0
474.215	1	4
475.408	1	2
476.601	1	5
477.793	1	10
478.986	1	-4
480.179	1	-2
481.371	1	7
482.564	1	-2
483.756	1	7
484.948	1	-7
486.141	1	-7
487.333	1	4
488.525	1	8
489.718	1	-5
490.910	1	-2
492.102	1	-3
493.294	1	5
494.486	1	1
495.678	1	14
496.870	1	1
498.062	1	7
499.254	1	4
500.446	1	4
501.638	1	10
502.829	1	5
504.021	1	18
505.213	1	9
506.404	1	0
507.596	1	3
508.788	1	4
509.979	1	4
511.171	1	18
512.362	1	8
513.553	1	0
514.745	1	4
515.936	1	5
517.127	1	13
518.319	1	6
519.510	1	-3
520.701	1	11
521.892	1	-9
523.083	1	9
524.274	1	6
525.465	1	3
526.656	1	17
527.847	1	-1
529.038	1	12
530.229	1	5
531.419	1	17
532.610	1	5
533.801	1	6
534.991	1	18
536.182	1	12
537.373	1	1
538.563	1	3
539.754	1	-2
540.944	1	9
542.134	1	16
543.325	1	8
544.515	1	10
545.705	1	8
546.896	1	2
548.086	1	14
549.276	1	4
550.466	1	1
551.656	1	4
552.846	1	1
554.036	1	6
555.226	1	-3
556.416	1	3
557.606	1	-4
558.796	1	5
559.986	1	6
561.175	1	-2
562.365	1	4
563.555	1	8
564.744	1	13
565.934	1	10
567.123	1	10
568.313	1	-1
569.502	1	6
570.692	1	6
571.881	1	8
573.070	1	8
574.260	1	6
575.449	1	9
576.638	1	7
577.827	1	7
579.016	1	11
580.205	1	8
581.394	1	-1
582.583	1	6
583.772	1	7
584.961	1	7
586.150	1	7
587.339	1	7
588.528	1	14
589.717	1	-1
590.905	1	11
592.094	1	-2
593.283	1	11
594.471	1	1
595.660	1	-1
596.848	1	11
598.037	1	8
599.225	1	9
600.413	1	2
601.602	1	5
602.790	1	1
603.978	1	-5
605.166	1	0
606.355	1	8
607.543	1	0
608.731	1	-6
609.919	1	-7
611.107	1	8
612.295	1	-1
613.483	1	0
614.671	1	2
615.858	1	4
617.046	1	3
618.234	1	7
619.422	1	6
620.609	1	-1
621.797	1	3
622.985	1	5
624.172	1	9
625.360	1	3
626.547	1	7
627.735	1	5
628.922	1	4
630.109	1	-3
631.297	1	7
632.484	1	-11
633.671	1	6
634.858	1	-2
636.045	1	-5
637.232	1	5
638.419	1	4
639.606	1	16
640.793	1	3
641.980	1	4
643.167	1	1
644.354	1	5
645.541	1	-13
646.728	1	12
647.914	1	-4
649.101	1	1
650.288	1	-3
651.474	1	11
652.661	1	11
653.847	1	18
655.034	1	5
656.220	1	4
657.406	1	2
658.593	1	2
659.779	1	2
660.965	1	-4
662.152	1	11
663.338	1	-1
664.524	1	-4
665.710	1	0
666.896	1	-5
668.082	1	-2
669.268	1	6
670.454	1	7
671.640	1	-15
672.826	1	-17
674.011	1	8
675.197	1	-7
676.383	1	1
677.569	1	-7
678.754	1	0
679.940	1	5
681.125	1	5
682.311	1	-3
683.496	1	2
684.682	1	7
685.867	1	0
687.053	1	1
688.238	1	3
688.746	1	7