File: Analysis/GaN_68K_200ms/GaN_sample E_spot4_UVVIS_68 K_200um_200 ms 2x2mm1_387.txt
340.368	1	-4
341.565	1	-4
342.763	1	2
343.960	1	-1
345.157	1	7
346.354	1	3
347.552	1	2
348.749	1	6
349.946	1	11
351.143	1	-6
352.340	1	2
353.537	1	-2
354.734	1	4
355.931	1	3
357.127	1	6
358.324	1	-2
359.521	1	1
360.718	1	-3
361.914	1	-2
363.111	1	9
364.308	1	1
365.504	1	2
366.701	1	6
367.897	1	-1
369.093	1	3
370.290	1	8
371.486	1	10
372.682	1	5
373.879	1	6
375.075	1	7
376.271	1	-2
377.467	1	-2
378.663	1	-9
379.859	1	0
381.055	1	3
382.251	1	1
383.447	1	6
384.643	1	8
385.839	1	12
387.035	1	9
388.230	1	6
389.426	1	15
390.622	1	0
391.817	1	-4
393.013	1	15
394.208	1	3
395.404	1	7
396.599	1	11
397.795	1	13
398.990	1	-1
400.186	1	15
401.381	1	6
402.576	1	19
403.771	1	11
404.967	1	5
406.162	1	1
407.357	1	4
408.552	1	-2
409.747	1	-1
410.942	1	0
412.137	1	7
413.332	1	-5
414.526	1	5
415.721	1	7
416.916	1	-3
418.111	1	5
419.305	1	-2
420.500	1	2
421.695	1	0
422.889	1	-3
424.084	1	-4
425.278	1	-4
426.472	1	2
427.667	1	10
428.861	1	6
430.055	1	2
431.250	1	-6
432.444	1	11
433.638	1	4
434.832	1	-2
436.026	1	5
437.220	1	10
438.414	1	3
439.608	1	8
440.802	1	-2
441.996	1	-6
443.190	1	-3
444.384	1	13
445.578	1	6
446.771	1	-5
447.965	1	-7
449.159	1	4
450.352	1	13
451.546	1	-1
452.739	1	0
453.933	1	5
455.126	1	-5
456.320	1	-12
457.513	1	8
458.706	1	1
459.899	1	15
461.093	1	4
462.286	1	7
463.479	1	14
464.672	1	-4
465.865	1	2
467.058	1	8
468.251	1	5
469.444	1	-1
470.637	1	9
471.830	1	18
473.023	1	-3
474.215	1	-1
475.408	1	0
476.601	1	-6
477.793	1	3
478.986	1	0
480.179	1	3
481.371	1	7
482.564	1	-13
483.756	1	10
484.948	1	-6
486.141	1	-7
487.333	1	2
488.525	1	1
489.718	1	1
490.910	1	3
492.102	1	0
493.294	1	-1
494.486	1	9
495.678	1	7
496.870	1	4
498.062	1	-5
499.254	1	4
500.446	1	-2
501.638	1	3
502.829	1	8
504.021	1	20
505.213	1	7
506.404	1	-5
507.596	1	-1
508.788	1	9
509.979	1	-4
511.171	1	11
512.362	1	4
513.553	1	2
514.745	1	8
515.936	1	10
517.127	1	9
518.319	1	-2
519.510	1	1
520.701	1	6
521.892	1	-8
523.083	1	3
524.274	1	-6
525.465	1	-2
526.656	1	17
527.847	1	-4
529.038	1	13
530.229	1	6
531.419	1	7
532.610	1	1
533.801	1	3
534.991	1	8
536.182	1	-2
537.373	1	-1
538.563	1	5
539.754	1	0
540.944	1	-1
542.134	1	7
543.325	1	-1
544.515	1	12
545.705	1	9
546.896	1	-3
548.086	1	-4
549.276	1	11
550.466	1	-2
551.656	1	-5
552.846	1	11
554.036	1	7
555.226	1	-6
556.416	1	-1
557.606	1	-2
558.796	1	3
559.986	1	-6
561.175	1	1
562.365	1	2
563.555	1	12
564.744	1	0
565.934	1	12
567.123	1	14
568.313	1	2
569.502	1	7
570.692	1	5
571.881	1	13
573.070	1	2
574.260	1	-6
575.449	1	3
576.638	1	-3
577.827	1	1
579.016	1	14
580.205	1	8
581.394	1	-1
582.583	1	-10
583.772	1	1
584.961	1	6
586.150	1	7
587.339	1	1
588.528	1	13
589.717	1	-1
590.905	1	9
592.094	1	2
593.283	1	15
594.471	1	2
595.660	1	2
596.848	1	12
598.037	1	1
599.225	1	-1
600.413	1	-1
601.602	1	11
602.790	1	-1
603.978	1	-6
605.166	1	4
606.355	1	3
607.543	1	-6
608.731	1	-5
609.919	1	-2
611.107	1	6
612.295	1	9
613.483	1	9
614.671	1	2
615.858	1	0
617.046	1	4
618.234	1	-3
619.422	1	-2
620.609	1	1
621.797	1	-2
622.985	1	4
624.172	1	6
625.360	1	-2
626.547	1	3
627.735	1	8
628.922	1	2
630.109	1	2
631.297	1	-2
632.484	1	-7
633.671	1	1
634.858	1	6
636.045	1	-4
637.232	1	-2
638.419	1	4
639.606	1	11
640.793	1	11
641.980	1	1
643.167	1	9
644.354	1	-2
645.541	1	-4
646.728	1	6
647.914	1	2
649.101	1	6
650.288	1	-3
651.474	1	1
652.661	1	3
653.847	1	8
655.034	1	4
656.220	1	5
657.406	1	5
658.593	1	-5
659.779	1	-4
660.965	1	-1
662.152	1	7
663.338	1	4
664.524	1	-9
665.710	1	-3
666.896	1	4
668.082	1	2
669.268	1	7
670.454	1	2
671.640	1	-15
672.826	1	-15
674.011	1	1
675.197	1	-6
676.383	1	-1
677.569	1	5
678.754	1	-2
679.940	1	1
681.125	1	7
682.311	1	0
683.496	1	-4
684.682	1	4
685.867	1	-2
687.053	1	6
688.238	1	-3
688.746	1	4