File: Analysis/GaN_68K_200ms/GaN_sample E_spot4_UVVIS_68 K_200um_200 ms 2x2mm1_696.txt
340.368	1	9
341.565	1	-4
342.763	1	-8
343.960	1	-6
345.157	1	8
346.354	1	-7
347.552	1	2
348.749	1	4
349.946	1	6
351.143	1	-9
352.340	1	-1
353.537	1	-1
354.734	1	-1
355.931	1	1
357.127	1	4
358.324	1	-14
359.521	1	0
360.718	1	-8
361.914	1	-1
363.111	1	12
364.308	1	-9
365.504	1	1
366.701	1	-7
367.897	1	7
369.093	1	10
370.290	1	4
371.486	1	4
372.682	1	0
373.879	1	6
375.075	1	2
376.271	1	-4
377.467	1	-4
378.663	1	-6
379.859	1	0
381.055	1	1
382.251	1	0
383.447	1	8
384.643	1	6
385.839	1	8
387.035	1	-2
388.230	1	-2
389.426	1	4
390.622	1	-2
391.817	1	-5
393.013	1	6
394.208	1	11
395.404	1	-1
396.599	1	8
397.795	1	1
398.990	1	4
400.186	1	12
401.381	1	8
402.576	1	9
403.771	1	0
404.967	1	-3
406.162	1	-6
407.357	1	0
408.552	1	16
409.747	1	-9
410.942	1	5
412.137	1	9
413.332	1	4
414.526	1	10
415.721	1	5
416.916	1	-6
418.111	1	-1
419.305	1	-10
420.500	1	4
421.695	1	0
422.889	1	9
424.084	1	3
425.278	1	-7
426.472	1	1
427.667	1	3
428.861	1	5
430.055	1	0
431.250	1	-14
432.444	1	8
433.638	1	-5
434.832	1	-4
436.026	1	-4
437.220	1	-2
438.414	1	4
439.608	1	2
440.802	1	0
441.996	1	-5
443.190	1	-13
444.384	1	3
445.578	1	10
446.771	1	-13
447.965	1	-13
449.159	1	-8
450.352	1	10
451.546	1	-4
452.739	1	-1
453.933	1	7
455.126	1	3
456.320	1	0
457.513	1	6
458.706	1	-5
459.899	1	3
461.093	1	1
462.286	1	9
463.479	1	14
464.672	1	2
465.865	1	-3
467.058	1	9
468.251	1	4
469.444	1	-2
470.637	1	7
471.830	1	14
473.023	1	-9
474.215	1	-1
475.408	1	-1
476.601	1	3
477.793	1	9
478.986	1	-4
480.179	1	9
481.371	1	2
482.564	1	-8
483.756	1	1
484.948	1	-3
486.141	1	-6
487.333	1	11
488.525	1	0
489.718	1	-1
490.910	1	-5
492.102	1	-2
493.294	1	7
494.486	1	14
495.678	1	2
496.870	1	-6
498.062	1	1
499.254	1	-1
500.446	1	3
501.638	1	10
502.829	1	-7
504.021	1	17
505.213	1	-4
506.404	1	4
507.596	1	-2
508.788	1	-3
509.979	1	3
511.171	1	6
512.362	1	6
513.553	1	-13
514.745	1	-2
515.936	1	5
517.127	1	4
518.319	1	-2
519.510	1	-2
520.701	1	0
521.892	1	-9
523.083	1	-1
524.274	1	4
525.465	1	-3
526.656	1	10
527.847	1	0
529.038	1	2
530.229	1	3
531.419	1	9
532.610	1	5
533.801	1	8
534.991	1	1
536.182	1	3
537.373	1	0
538.563	1	0
539.754	1	0
540.944	1	-5
542.134	1	5
543.325	1	-4
544.515	1	3
545.705	1	0
546.896	1	-8
548.086	1	12
549.276	1	3
550.466	1	3
551.656	1	1
552.846	1	-4
554.036	1	5
555.226	1	-8
556.416	1	-1
557.606	1	-7
558.796	1	-2
559.986	1	-8
561.175	1	-5
562.365	1	-1
563.555	1	11
564.744	1	6
565.934	1	0
567.123	1	11
568.313	1	-2
569.502	1	5
570.692	1	3
571.881	1	0
573.070	1	7
574.260	1	-1
575.449	1	-7
576.638	1	-5
577.827	1	3
579.016	1	5
580.205	1	4
581.394	1	-7
582.583	1	0
583.772	1	-6
584.961	1	-2
586.150	1	0
587.339	1	7
588.528	1	2
589.717	1	-3
590.905	1	6
592.094	1	4
593.283	1	-5
594.471	1	2
595.660	1	-4
596.848	1	6
598.037	1	0
599.225	1	6
600.413	1	-8
601.602	1	14
602.790	1	-1
603.978	1	1
605.166	1	-13
606.355	1	4
607.543	1	-6
608.731	1	-7
609.919	1	-10
611.107	1	2
612.295	1	1
613.483	1	10
614.671	1	-2
615.858	1	6
617.046	1	2
618.234	1	-4
619.422	1	-8
620.609	1	4
621.797	1	1
622.985	1	4
624.172	1	7
625.360	1	-9
626.547	1	4
627.735	1	8
628.922	1	-5
630.109	1	13
631.297	1	-5
632.484	1	-5
633.671	1	-2
634.858	1	1
636.045	1	0
637.232	1	-4
638.419	1	-1
639.606	1	12
640.793	1	6
641.980	1	-5
643.167	1	14
644.354	1	4
645.541	1	-8
646.728	1	-5
647.914	1	-6
649.101	1	-5
650.288	1	-9
651.474	1	-2
652.661	1	1
653.847	1	0
655.034	1	-4
656.220	1	0
657.406	1	-2
658.593	1	-11
659.779	1	1
660.965	1	0
662.152	1	-4
663.338	1	1
664.524	1	-2
665.710	1	-6
666.896	1	-2
668.082	1	-3
669.268	1	0
670.454	1	-6
671.640	1	-17
672.826	1	-18
674.011	1	4
675.197	1	-6
676.383	1	-6
677.569	1	-7
678.754	1	-4
679.940	1	10
681.125	1	1
682.311	1	-2
683.496	1	-10
684.682	1	2
685.867	1	9
687.053	1	7
688.238	1	3
688.746	1	4