File: Analysis/GaN_68K_200ms/GaN_sample E_spot4_UVVIS_68 K_200um_200 ms 2x2mm1_444.txt
340.368	1	-1
341.565	1	-2
342.763	1	-7
343.960	1	-15
345.157	1	0
346.354	1	0
347.552	1	-4
348.749	1	3
349.946	1	4
351.143	1	-1
352.340	1	-7
353.537	1	-3
354.734	1	7
355.931	1	1
357.127	1	4
358.324	1	3
359.521	1	1
360.718	1	5
361.914	1	5
363.111	1	13
364.308	1	-2
365.504	1	-6
366.701	1	6
367.897	1	7
369.093	1	-2
370.290	1	0
371.486	1	18
372.682	1	-1
373.879	1	5
375.075	1	10
376.271	1	6
377.467	1	-6
378.663	1	-3
379.859	1	-1
381.055	1	2
382.251	1	5
383.447	1	10
384.643	1	13
385.839	1	12
387.035	1	6
388.230	1	2
389.426	1	15
390.622	1	2
391.817	1	18
393.013	1	7
394.208	1	7
395.404	1	5
396.599	1	11
397.795	1	12
398.990	1	9
400.186	1	4
401.381	1	12
402.576	1	7
403.771	1	13
404.967	1	7
406.162	1	4
407.357	1	13
408.552	1	1
409.747	1	1
410.942	1	8
412.137	1	11
413.332	1	-2
414.526	1	11
415.721	1	0
416.916	1	1
418.111	1	8
419.305	1	0
420.500	1	4
421.695	1	9
422.889	1	11
424.084	1	4
425.278	1	-4
426.472	1	-2
427.667	1	1
428.861	1	2
430.055	1	0
431.250	1	1
432.444	1	10
433.638	1	-1
434.832	1	-11
436.026	1	4
437.220	1	3
438.414	1	4
439.608	1	4
440.802	1	7
441.996	1	0
443.190	1	-16
444.384	1	0
445.578	1	6
446.771	1	0
447.965	1	-8
449.159	1	-3
450.352	1	11
451.546	1	13
452.739	1	0
453.933	1	2
455.126	1	0
456.320	1	-2
457.513	1	10
458.706	1	-6
459.899	1	16
461.093	1	10
462.286	1	12
463.479	1	7
464.672	1	-4
465.865	1	-7
467.058	1	9
468.251	1	1
469.444	1	1
470.637	1	6
471.830	1	7
473.023	1	-6
474.215	1	-1
475.408	1	5
476.601	1	3
477.793	1	7
478.986	1	1
480.179	1	7
481.371	1	3
482.564	1	-12
483.756	1	4
484.948	1	-6
486.141	1	-2
487.333	1	4
488.525	1	-1
489.718	1	2
490.910	1	-12
492.102	1	1
493.294	1	10
494.486	1	-1
495.678	1	8
496.870	1	-2
498.062	1	2
499.254	1	0
500.446	1	7
501.638	1	2
502.829	1	3
504.021	1	16
505.213	1	6
506.404	1	2
507.596	1	-3
508.788	1	-3
509.979	1	4
511.171	1	15
512.362	1	-7
513.553	1	-7
514.745	1	5
515.936	1	6
517.127	1	8
518.319	1	-6
519.510	1	2
520.701	1	6
521.892	1	-2
523.083	1	-1
524.274	1	-3
525.465	1	4
526.656	1	14
527.847	1	-4
529.038	1	6
530.229	1	-1
531.419	1	16
532.610	1	11
533.801	1	10
534.991	1	4
536.182	1	1
537.373	1	3
538.563	1	7
539.754	1	-2
540.944	1	0
542.134	1	14
543.325	1	6
544.515	1	3
545.705	1	13
546.896	1	0
548.086	1	4
549.276	1	9
550.466	1	-6
551.656	1	-6
552.846	1	11
554.036	1	7
555.226	1	-3
556.416	1	17
557.606	1	-3
558.796	1	7
559.986	1	-11
561.175	1	-6
562.365	1	7
563.555	1	11
564.744	1	14
565.934	1	11
567.123	1	7
568.313	1	-3
569.502	1	-3
570.692	1	6
571.881	1	4
573.070	1	0
574.260	1	-3
575.449	1	11
576.638	1	1
577.827	1	11
579.016	1	7
580.205	1	9
581.394	1	-3
582.583	1	-6
583.772	1	9
584.961	1	3
586.150	1	5
587.339	1	-3
588.528	1	3
589.717	1	10
590.905	1	2
592.094	1	5
593.283	1	5
594.471	1	-1
595.660	1	-6
596.848	1	4
598.037	1	-4
599.225	1	8
600.413	1	0
601.602	1	-1
602.790	1	1
603.978	1	3
605.166	1	-5
606.355	1	4
607.543	1	6
608.731	1	-7
609.919	1	-2
611.107	1	8
612.295	1	-1
613.483	1	2
614.671	1	7
615.858	1	13
617.046	1	5
618.234	1	3
619.422	1	2
620.609	1	-3
621.797	1	3
622.985	1	-3
624.172	1	17
625.360	1	-9
626.547	1	-2
627.735	1	9
628.922	1	2
630.109	1	2
631.297	1	-6
632.484	1	-2
633.671	1	9
634.858	1	2
636.045	1	-2
637.232	1	-2
638.419	1	8
639.606	1	14
640.793	1	8
641.980	1	-5
643.167	1	7
644.354	1	-2
645.541	1	-8
646.728	1	3
647.914	1	0
649.101	1	5
650.288	1	1
651.474	1	9
652.661	1	3
653.847	1	4
655.034	1	0
656.220	1	4
657.406	1	5
658.593	1	-4
659.779	1	-3
660.965	1	-3
662.152	1	10
663.338	1	-4
664.524	1	-10
665.710	1	3
666.896	1	-6
668.082	1	-4
669.268	1	2
670.454	1	0
671.640	1	-16
672.826	1	-5
674.011	1	12
675.197	1	-5
676.383	1	-7
677.569	1	4
678.754	1	0
679.940	1	-5
681.125	1	5
682.311	1	7
683.496	1	1
684.682	1	7
685.867	1	0
687.053	1	9
688.238	1	-9
688.746	1	13