File: Analysis/GaN_68K_200ms/GaN_sample E_spot4_UVVIS_68 K_200um_200 ms 2x2mm1_96.txt
340.368	1	-4
341.565	1	-8
342.763	1	-3
343.960	1	5
345.157	1	18
346.354	1	-6
347.552	1	2
348.749	1	7
349.946	1	12
351.143	1	-7
352.340	1	3
353.537	1	5
354.734	1	10
355.931	1	5
357.127	1	2
358.324	1	-1
359.521	1	-4
360.718	1	2
361.914	1	2
363.111	1	12
364.308	1	-7
365.504	1	-5
366.701	1	1
367.897	1	0
369.093	1	1
370.290	1	1
371.486	1	2
372.682	1	4
373.879	1	8
375.075	1	6
376.271	1	-6
377.467	1	0
378.663	1	-1
379.859	1	-3
381.055	1	5
382.251	1	2
383.447	1	3
384.643	1	0
385.839	1	0
387.035	1	-12
388.230	1	-7
389.426	1	9
390.622	1	-3
391.817	1	4
393.013	1	10
394.208	1	5
395.404	1	-2
396.599	1	4
397.795	1	3
398.990	1	1
400.186	1	11
401.381	1	-1
402.576	1	8
403.771	1	-1
404.967	1	1
406.162	1	-4
407.357	1	0
408.552	1	1
409.747	1	6
410.942	1	9
412.137	1	6
413.332	1	6
414.526	1	6
415.721	1	1
416.916	1	5
418.111	1	6
419.305	1	6
420.500	1	3
421.695	1	3
422.889	1	1
424.084	1	7
425.278	1	-12
426.472	1	-4
427.667	1	11
428.861	1	7
430.055	1	1
431.250	1	-12
432.444	1	8
433.638	1	-4
434.832	1	-3
436.026	1	0
437.220	1	2
438.414	1	0
439.608	1	1
440.802	1	1
441.996	1	1
443.190	1	-8
444.384	1	2
445.578	1	11
446.771	1	-8
447.965	1	-8
449.159	1	-8
450.352	1	11
451.546	1	3
452.739	1	5
453.933	1	13
455.126	1	0
456.320	1	3
457.513	1	4
458.706	1	1
459.899	1	11
461.093	1	5
462.286	1	10
463.479	1	15
464.672	1	1
465.865	1	-9
467.058	1	15
468.251	1	-3
469.444	1	0
470.637	1	9
471.830	1	19
473.023	1	1
474.215	1	1
475.408	1	-1
476.601	1	0
477.793	1	7
478.986	1	15
480.179	1	-2
481.371	1	-1
482.564	1	-10
483.756	1	6
484.948	1	-6
486.141	1	-11
487.333	1	10
488.525	1	-5
489.718	1	-9
490.910	1	-8
492.102	1	-5
493.294	1	12
494.486	1	3
495.678	1	10
496.870	1	0
498.062	1	2
499.254	1	6
500.446	1	0
501.638	1	9
502.829	1	2
504.021	1	11
505.213	1	-2
506.404	1	-5
507.596	1	5
508.788	1	-5
509.979	1	-5
511.171	1	7
512.362	1	1
513.553	1	-1
514.745	1	-10
515.936	1	7
517.127	1	3
518.319	1	-4
519.510	1	5
520.701	1	-5
521.892	1	-11
523.083	1	-2
524.274	1	-9
525.465	1	5
526.656	1	17
527.847	1	-10
529.038	1	5
530.229	1	11
531.419	1	3
532.610	1	3
533.801	1	4
534.991	1	3
536.182	1	-5
537.373	1	-6
538.563	1	2
539.754	1	0
540.944	1	5
542.134	1	8
543.325	1	2
544.515	1	-1
545.705	1	3
546.896	1	0
548.086	1	2
549.276	1	6
550.466	1	-4
551.656	1	-9
552.846	1	0
554.036	1	0
555.226	1	-9
556.416	1	10
557.606	1	-1
558.796	1	-4
559.986	1	-5
561.175	1	-1
562.365	1	8
563.555	1	20
564.744	1	2
565.934	1	-2
567.123	1	9
568.313	1	1
569.502	1	4
570.692	1	9
571.881	1	6
573.070	1	10
574.260	1	-6
575.449	1	10
576.638	1	-2
577.827	1	1
579.016	1	10
580.205	1	1
581.394	1	2
582.583	1	-12
583.772	1	5
584.961	1	-1
586.150	1	1
587.339	1	-3
588.528	1	11
589.717	1	5
590.905	1	9
592.094	1	11
593.283	1	6
594.471	1	1
595.660	1	-3
596.848	1	9
598.037	1	-1
599.225	1	6
600.413	1	2
601.602	1	3
602.790	1	4
603.978	1	0
605.166	1	-5
606.355	1	7
607.543	1	-9
608.731	1	-10
609.919	1	-3
611.107	1	1
612.295	1	5
613.483	1	4
614.671	1	8
615.858	1	7
617.046	1	-2
618.234	1	5
619.422	1	5
620.609	1	5
621.797	1	-5
622.985	1	7
624.172	1	8
625.360	1	-2
626.547	1	5
627.735	1	12
628.922	1	2
630.109	1	3
631.297	1	-9
632.484	1	-7
633.671	1	1
634.858	1	5
636.045	1	-1
637.232	1	1
638.419	1	8
639.606	1	13
640.793	1	6
641.980	1	-4
643.167	1	17
644.354	1	1
645.541	1	-12
646.728	1	1
647.914	1	-6
649.101	1	2
650.288	1	-6
651.474	1	-4
652.661	1	0
653.847	1	6
655.034	1	4
656.220	1	6
657.406	1	5
658.593	1	2
659.779	1	-5
660.965	1	1
662.152	1	-2
663.338	1	0
664.524	1	-9
665.710	1	-3
666.896	1	-4
668.082	1	6
669.268	1	6
670.454	1	0
671.640	1	-18
672.826	1	-13
674.011	1	10
675.197	1	5
676.383	1	-2
677.569	1	-3
678.754	1	8
679.940	1	2
681.125	1	1
682.311	1	4
683.496	1	-6
684.682	1	6
685.867	1	7
687.053	1	-2
688.238	1	7
688.746	1	-4