File: Analysis/GaN_68K_200ms/GaN_sample E_spot4_UVVIS_68 K_200um_200 ms 2x2mm1_210.txt
340.368	1	4
341.565	1	-5
342.763	1	2
343.960	1	1
345.157	1	12
346.354	1	-5
347.552	1	3
348.749	1	5
349.946	1	8
351.143	1	-15
352.340	1	10
353.537	1	3
354.734	1	3
355.931	1	12
357.127	1	6
358.324	1	3
359.521	1	9
360.718	1	1
361.914	1	15
363.111	1	21
364.308	1	15
365.504	1	5
366.701	1	7
367.897	1	24
369.093	1	18
370.290	1	6
371.486	1	19
372.682	1	1
373.879	1	11
375.075	1	18
376.271	1	5
377.467	1	8
378.663	1	-3
379.859	1	1
381.055	1	10
382.251	1	12
383.447	1	17
384.643	1	16
385.839	1	26
387.035	1	12
388.230	1	14
389.426	1	17
390.622	1	15
391.817	1	17
393.013	1	29
394.208	1	16
395.404	1	22
396.599	1	21
397.795	1	26
398.990	1	27
400.186	1	27
401.381	1	21
402.576	1	23
403.771	1	14
404.967	1	19
406.162	1	7
407.357	1	16
408.552	1	9
409.747	1	5
410.942	1	23
412.137	1	24
413.332	1	7
414.526	1	10
415.721	1	22
416.916	1	3
418.111	1	0
419.305	1	3
420.500	1	20
421.695	1	12
422.889	1	22
424.084	1	9
425.278	1	4
426.472	1	13
427.667	1	15
428.861	1	12
430.055	1	6
431.250	1	-9
432.444	1	14
433.638	1	11
434.832	1	-4
436.026	1	10
437.220	1	14
438.414	1	-3
439.608	1	-3
440.802	1	9
441.996	1	3
443.190	1	-2
444.384	1	8
445.578	1	11
446.771	1	0
447.965	1	5
449.159	1	1
450.352	1	12
451.546	1	11
452.739	1	4
453.933	1	20
455.126	1	9
456.320	1	9
457.513	1	10
458.706	1	9
459.899	1	19
461.093	1	11
462.286	1	18
463.479	1	16
464.672	1	7
465.865	1	-3
467.058	1	13
468.251	1	3
469.444	1	4
470.637	1	12
471.830	1	15
473.023	1	2
474.215	1	5
475.408	1	-3
476.601	1	11
477.793	1	6
478.986	1	11
480.179	1	2
481.371	1	-2
482.564	1	-12
483.756	1	12
484.948	1	-4
486.141	1	-1
487.333	1	4
488.525	1	6
489.718	1	3
490.910	1	5
492.102	1	1
493.294	1	16
494.486	1	18
495.678	1	17
496.870	1	7
498.062	1	12
499.254	1	12
500.446	1	5
501.638	1	2
502.829	1	11
504.021	1	24
505.213	1	9
506.404	1	12
507.596	1	13
508.788	1	4
509.979	1	9
511.171	1	20
512.362	1	10
513.553	1	13
514.745	1	12
515.936	1	15
517.127	1	21
518.319	1	8
519.510	1	14
520.701	1	11
521.892	1	-4
523.083	1	15
524.274	1	8
525.465	1	10
526.656	1	33
527.847	1	1
529.038	1	14
530.229	1	22
531.419	1	20
532.610	1	20
533.801	1	15
534.991	1	26
536.182	1	15
537.373	1	12
538.563	1	13
539.754	1	11
540.944	1	14
542.134	1	21
543.325	1	7
544.515	1	12
545.705	1	21
546.896	1	4
548.086	1	22
549.276	1	23
550.466	1	10
551.656	1	7
552.846	1	9
554.036	1	20
555.226	1	-2
556.416	1	5
557.606	1	2
558.796	1	9
559.986	1	4
561.175	1	0
562.365	1	3
563.555	1	17
564.744	1	25
565.934	1	16
567.123	1	22
568.313	1	13
569.502	1	11
570.692	1	15
571.881	1	7
573.070	1	11
574.260	1	7
575.449	1	12
576.638	1	9
577.827	1	10
579.016	1	20
580.205	1	12
581.394	1	-10
582.583	1	-1
583.772	1	4
584.961	1	6
586.150	1	7
587.339	1	9
588.528	1	9
589.717	1	9
590.905	1	14
592.094	1	6
593.283	1	8
594.471	1	6
595.660	1	4
596.848	1	19
598.037	1	8
599.225	1	6
600.413	1	9
601.602	1	19
602.790	1	7
603.978	1	-1
605.166	1	-5
606.355	1	10
607.543	1	-4
608.731	1	-9
609.919	1	-3
611.107	1	16
612.295	1	6
613.483	1	16
614.671	1	12
615.858	1	6
617.046	1	10
618.234	1	0
619.422	1	14
620.609	1	0
621.797	1	13
622.985	1	2
624.172	1	15
625.360	1	2
626.547	1	14
627.735	1	-1
628.922	1	3
630.109	1	0
631.297	1	-2
632.484	1	-1
633.671	1	3
634.858	1	13
636.045	1	8
637.232	1	2
638.419	1	6
639.606	1	13
640.793	1	7
641.980	1	-3
643.167	1	4
644.354	1	0
645.541	1	2
646.728	1	7
647.914	1	7
649.101	1	6
650.288	1	5
651.474	1	6
652.661	1	6
653.847	1	11
655.034	1	8
656.220	1	11
657.406	1	6
658.593	1	-5
659.779	1	1
660.965	1	9
662.152	1	-4
663.338	1	-6
664.524	1	-8
665.710	1	-2
666.896	1	7
668.082	1	-1
669.268	1	7
670.454	1	-1
671.640	1	-7
672.826	1	-10
674.011	1	10
675.197	1	-11
676.383	1	5
677.569	1	-3
678.754	1	1
679.940	1	0
681.125	1	4
682.311	1	1
683.496	1	-3
684.682	1	5
685.867	1	0
687.053	1	11
688.238	1	6
688.746	1	3