File: Analysis/GaN_68K_200ms/GaN_sample E_spot4_UVVIS_68 K_200um_200 ms 2x2mm1_678.txt
340.368	1	1
341.565	1	-8
342.763	1	-7
343.960	1	-11
345.157	1	4
346.354	1	-4
347.552	1	1
348.749	1	3
349.946	1	2
351.143	1	-13
352.340	1	4
353.537	1	-4
354.734	1	1
355.931	1	3
357.127	1	0
358.324	1	2
359.521	1	-3
360.718	1	-1
361.914	1	-1
363.111	1	14
364.308	1	-5
365.504	1	-9
366.701	1	-4
367.897	1	-12
369.093	1	-1
370.290	1	-3
371.486	1	8
372.682	1	-2
373.879	1	10
375.075	1	4
376.271	1	-2
377.467	1	-4
378.663	1	2
379.859	1	-6
381.055	1	2
382.251	1	4
383.447	1	10
384.643	1	9
385.839	1	-10
387.035	1	-7
388.230	1	-1
389.426	1	5
390.622	1	-15
391.817	1	-6
393.013	1	4
394.208	1	9
395.404	1	12
396.599	1	0
397.795	1	-1
398.990	1	6
400.186	1	9
401.381	1	3
402.576	1	9
403.771	1	5
404.967	1	5
406.162	1	6
407.357	1	-4
408.552	1	3
409.747	1	-1
410.942	1	1
412.137	1	6
413.332	1	-9
414.526	1	0
415.721	1	0
416.916	1	-2
418.111	1	0
419.305	1	-1
420.500	1	7
421.695	1	0
422.889	1	-2
424.084	1	4
425.278	1	2
426.472	1	-6
427.667	1	3
428.861	1	1
430.055	1	5
431.250	1	-17
432.444	1	7
433.638	1	-5
434.832	1	-3
436.026	1	2
437.220	1	6
438.414	1	-2
439.608	1	4
440.802	1	0
441.996	1	4
443.190	1	-7
444.384	1	-4
445.578	1	8
446.771	1	-3
447.965	1	2
449.159	1	-4
450.352	1	2
451.546	1	-2
452.739	1	-2
453.933	1	-5
455.126	1	-10
456.320	1	-3
457.513	1	1
458.706	1	-5
459.899	1	7
461.093	1	1
462.286	1	7
463.479	1	6
464.672	1	6
465.865	1	-3
467.058	1	9
468.251	1	-3
469.444	1	-7
470.637	1	13
471.830	1	19
473.023	1	-1
474.215	1	-6
475.408	1	5
476.601	1	2
477.793	1	8
478.986	1	4
480.179	1	6
481.371	1	0
482.564	1	-14
483.756	1	6
484.948	1	0
486.141	1	-11
487.333	1	6
488.525	1	0
489.718	1	-7
490.910	1	-5
492.102	1	-9
493.294	1	1
494.486	1	10
495.678	1	11
496.870	1	2
498.062	1	-10
499.254	1	4
500.446	1	10
501.638	1	-1
502.829	1	-4
504.021	1	9
505.213	1	0
506.404	1	-2
507.596	1	1
508.788	1	-6
509.979	1	6
511.171	1	9
512.362	1	-3
513.553	1	-11
514.745	1	-7
515.936	1	-4
517.127	1	3
518.319	1	-1
519.510	1	-3
520.701	1	4
521.892	1	-15
523.083	1	-4
524.274	1	-7
525.465	1	2
526.656	1	10
527.847	1	-7
529.038	1	6
530.229	1	6
531.419	1	10
532.610	1	0
533.801	1	-2
534.991	1	-2
536.182	1	-2
537.373	1	-6
538.563	1	5
539.754	1	-5
540.944	1	-4
542.134	1	8
543.325	1	4
544.515	1	-2
545.705	1	6
546.896	1	3
548.086	1	2
549.276	1	7
550.466	1	2
551.656	1	-1
552.846	1	1
554.036	1	-3
555.226	1	-10
556.416	1	2
557.606	1	-3
558.796	1	1
559.986	1	6
561.175	1	-5
562.365	1	8
563.555	1	7
564.744	1	0
565.934	1	2
567.123	1	15
568.313	1	-9
569.502	1	0
570.692	1	5
571.881	1	7
573.070	1	2
574.260	1	-6
575.449	1	6
576.638	1	7
577.827	1	3
579.016	1	15
580.205	1	13
581.394	1	-2
582.583	1	-1
583.772	1	-7
584.961	1	-1
586.150	1	2
587.339	1	0
588.528	1	5
589.717	1	-2
590.905	1	14
592.094	1	1
593.283	1	-3
594.471	1	7
595.660	1	-1
596.848	1	-5
598.037	1	2
599.225	1	-6
600.413	1	-3
601.602	1	6
602.790	1	7
603.978	1	1
605.166	1	-10
606.355	1	8
607.543	1	-6
608.731	1	-4
609.919	1	-10
611.107	1	6
612.295	1	-7
613.483	1	10
614.671	1	2
615.858	1	1
617.046	1	4
618.234	1	-5
619.422	1	1
620.609	1	6
621.797	1	2
622.985	1	-1
624.172	1	7
625.360	1	-13
626.547	1	0
627.735	1	4
628.922	1	2
630.109	1	-4
631.297	1	-4
632.484	1	-2
633.671	1	12
634.858	1	13
636.045	1	1
637.232	1	2
638.419	1	5
639.606	1	18
640.793	1	10
641.980	1	-8
643.167	1	16
644.354	1	-1
645.541	1	-4
646.728	1	4
647.914	1	-3
649.101	1	2
650.288	1	-2
651.474	1	9
652.661	1	2
653.847	1	-6
655.034	1	4
656.220	1	1
657.406	1	6
658.593	1	-7
659.779	1	-5
660.965	1	-2
662.152	1	1
663.338	1	-1
664.524	1	-6
665.710	1	-8
666.896	1	-4
668.082	1	-1
669.268	1	2
670.454	1	0
671.640	1	-14
672.826	1	-12
674.011	1	7
675.197	1	5
676.383	1	-5
677.569	1	-8
678.754	1	-3
679.940	1	-9
681.125	1	7
682.311	1	0
683.496	1	-12
684.682	1	1
685.867	1	-8
687.053	1	6
688.238	1	-8
688.746	1	0