File: Analysis/GaN_68K_200ms/GaN_sample E_spot4_UVVIS_68 K_200um_200 ms 2x2mm1_171.txt
340.368	1	0
341.565	1	-3
342.763	1	4
343.960	1	-1
345.157	1	14
346.354	1	7
347.552	1	1
348.749	1	10
349.946	1	7
351.143	1	-9
352.340	1	9
353.537	1	1
354.734	1	3
355.931	1	9
357.127	1	10
358.324	1	3
359.521	1	10
360.718	1	10
361.914	1	15
363.111	1	25
364.308	1	10
365.504	1	31
366.701	1	29
367.897	1	39
369.093	1	31
370.290	1	25
371.486	1	31
372.682	1	16
373.879	1	29
375.075	1	20
376.271	1	14
377.467	1	9
378.663	1	7
379.859	1	8
381.055	1	16
382.251	1	24
383.447	1	24
384.643	1	40
385.839	1	40
387.035	1	44
388.230	1	47
389.426	1	48
390.622	1	38
391.817	1	38
393.013	1	46
394.208	1	52
395.404	1	54
396.599	1	46
397.795	1	42
398.990	1	41
400.186	1	47
401.381	1	42
402.576	1	30
403.771	1	28
404.967	1	22
406.162	1	26
407.357	1	32
408.552	1	28
409.747	1	17
410.942	1	28
412.137	1	23
413.332	1	20
414.526	1	23
415.721	1	21
416.916	1	16
418.111	1	20
419.305	1	20
420.500	1	21
421.695	1	11
422.889	1	23
424.084	1	11
425.278	1	1
426.472	1	20
427.667	1	19
428.861	1	15
430.055	1	9
431.250	1	3
432.444	1	19
433.638	1	9
434.832	1	5
436.026	1	19
437.220	1	22
438.414	1	9
439.608	1	9
440.802	1	13
441.996	1	0
443.190	1	6
444.384	1	12
445.578	1	15
446.771	1	3
447.965	1	5
449.159	1	7
450.352	1	15
451.546	1	12
452.739	1	-1
453.933	1	17
455.126	1	0
456.320	1	2
457.513	1	16
458.706	1	5
459.899	1	14
461.093	1	16
462.286	1	14
463.479	1	12
464.672	1	13
465.865	1	-2
467.058	1	14
468.251	1	9
469.444	1	11
470.637	1	23
471.830	1	19
473.023	1	6
474.215	1	-3
475.408	1	4
476.601	1	9
477.793	1	7
478.986	1	6
480.179	1	10
481.371	1	4
482.564	1	-4
483.756	1	17
484.948	1	4
486.141	1	5
487.333	1	11
488.525	1	4
489.718	1	-5
490.910	1	-3
492.102	1	13
493.294	1	15
494.486	1	14
495.678	1	8
496.870	1	8
498.062	1	7
499.254	1	9
500.446	1	27
501.638	1	18
502.829	1	16
504.021	1	28
505.213	1	12
506.404	1	9
507.596	1	18
508.788	1	20
509.979	1	17
511.171	1	26
512.362	1	19
513.553	1	21
514.745	1	22
515.936	1	24
517.127	1	27
518.319	1	21
519.510	1	26
520.701	1	33
521.892	1	17
523.083	1	16
524.274	1	28
525.465	1	22
526.656	1	45
527.847	1	16
529.038	1	34
530.229	1	25
531.419	1	41
532.610	1	31
533.801	1	30
534.991	1	32
536.182	1	26
537.373	1	19
538.563	1	43
539.754	1	23
540.944	1	22
542.134	1	34
543.325	1	17
544.515	1	18
545.705	1	25
546.896	1	25
548.086	1	25
549.276	1	32
550.466	1	15
551.656	1	23
552.846	1	19
554.036	1	28
555.226	1	16
556.416	1	22
557.606	1	7
558.796	1	20
559.986	1	18
561.175	1	11
562.365	1	18
563.555	1	22
564.744	1	17
565.934	1	21
567.123	1	29
568.313	1	-1
569.502	1	21
570.692	1	15
571.881	1	13
573.070	1	11
574.260	1	10
575.449	1	26
576.638	1	11
577.827	1	16
579.016	1	29
580.205	1	14
581.394	1	7
582.583	1	4
583.772	1	9
584.961	1	19
586.150	1	8
587.339	1	19
588.528	1	10
589.717	1	15
590.905	1	15
592.094	1	9
593.283	1	18
594.471	1	9
595.660	1	2
596.848	1	16
598.037	1	7
599.225	1	8
600.413	1	10
601.602	1	11
602.790	1	10
603.978	1	12
605.166	1	7
606.355	1	21
607.543	1	-9
608.731	1	2
609.919	1	4
611.107	1	11
612.295	1	13
613.483	1	5
614.671	1	5
615.858	1	1
617.046	1	12
618.234	1	15
619.422	1	-4
620.609	1	6
621.797	1	9
622.985	1	9
624.172	1	22
625.360	1	-8
626.547	1	10
627.735	1	-2
628.922	1	-3
630.109	1	10
631.297	1	1
632.484	1	8
633.671	1	4
634.858	1	12
636.045	1	11
637.232	1	2
638.419	1	9
639.606	1	9
640.793	1	9
641.980	1	-1
643.167	1	10
644.354	1	-8
645.541	1	5
646.728	1	8
647.914	1	-7
649.101	1	0
650.288	1	-4
651.474	1	6
652.661	1	4
653.847	1	3
655.034	1	10
656.220	1	14
657.406	1	12
658.593	1	-2
659.779	1	-3
660.965	1	13
662.152	1	4
663.338	1	0
664.524	1	1
665.710	1	0
666.896	1	-3
668.082	1	5
669.268	1	-4
670.454	1	10
671.640	1	-6
672.826	1	-6
674.011	1	8
675.197	1	-5
676.383	1	-2
677.569	1	-8
678.754	1	1
679.940	1	4
681.125	1	6
682.311	1	12
683.496	1	3
684.682	1	8
685.867	1	9
687.053	1	8
688.238	1	6
688.746	1	11