File: Analysis/GaN_68K_200ms/GaN_sample E_spot4_UVVIS_68 K_200um_200 ms 2x2mm1_500.txt
340.368	1	-3
341.565	1	-8
342.763	1	-1
343.960	1	-2
345.157	1	-5
346.354	1	1
347.552	1	-7
348.749	1	5
349.946	1	10
351.143	1	-10
352.340	1	-5
353.537	1	2
354.734	1	0
355.931	1	6
357.127	1	-7
358.324	1	-1
359.521	1	2
360.718	1	0
361.914	1	1
363.111	1	8
364.308	1	1
365.504	1	0
366.701	1	-5
367.897	1	0
369.093	1	-4
370.290	1	-8
371.486	1	1
372.682	1	-1
373.879	1	6
375.075	1	0
376.271	1	-4
377.467	1	-4
378.663	1	-5
379.859	1	-4
381.055	1	-2
382.251	1	2
383.447	1	8
384.643	1	4
385.839	1	-1
387.035	1	-4
388.230	1	10
389.426	1	2
390.622	1	-1
391.817	1	1
393.013	1	14
394.208	1	10
395.404	1	9
396.599	1	17
397.795	1	11
398.990	1	5
400.186	1	13
401.381	1	5
402.576	1	5
403.771	1	-2
404.967	1	17
406.162	1	0
407.357	1	1
408.552	1	9
409.747	1	-6
410.942	1	2
412.137	1	15
413.332	1	-1
414.526	1	2
415.721	1	-2
416.916	1	0
418.111	1	10
419.305	1	2
420.500	1	-1
421.695	1	0
422.889	1	4
424.084	1	6
425.278	1	-9
426.472	1	-4
427.667	1	3
428.861	1	-8
430.055	1	5
431.250	1	-13
432.444	1	7
433.638	1	2
434.832	1	-4
436.026	1	9
437.220	1	13
438.414	1	7
439.608	1	8
440.802	1	8
441.996	1	5
443.190	1	-10
444.384	1	3
445.578	1	16
446.771	1	1
447.965	1	-5
449.159	1	-6
450.352	1	2
451.546	1	-1
452.739	1	6
453.933	1	7
455.126	1	3
456.320	1	0
457.513	1	6
458.706	1	0
459.899	1	6
461.093	1	5
462.286	1	10
463.479	1	12
464.672	1	7
465.865	1	3
467.058	1	12
468.251	1	-4
469.444	1	4
470.637	1	6
471.830	1	9
473.023	1	-6
474.215	1	1
475.408	1	7
476.601	1	2
477.793	1	4
478.986	1	2
480.179	1	4
481.371	1	-4
482.564	1	-12
483.756	1	11
484.948	1	-4
486.141	1	-6
487.333	1	7
488.525	1	-2
489.718	1	-4
490.910	1	3
492.102	1	-6
493.294	1	1
494.486	1	2
495.678	1	4
496.870	1	1
498.062	1	-9
499.254	1	8
500.446	1	14
501.638	1	0
502.829	1	4
504.021	1	10
505.213	1	7
506.404	1	-1
507.596	1	13
508.788	1	2
509.979	1	-1
511.171	1	16
512.362	1	-2
513.553	1	-7
514.745	1	4
515.936	1	12
517.127	1	12
518.319	1	-2
519.510	1	-1
520.701	1	4
521.892	1	-7
523.083	1	-2
524.274	1	-5
525.465	1	7
526.656	1	15
527.847	1	-8
529.038	1	8
530.229	1	11
531.419	1	14
532.610	1	8
533.801	1	0
534.991	1	14
536.182	1	2
537.373	1	-5
538.563	1	-8
539.754	1	-7
540.944	1	-1
542.134	1	15
543.325	1	-3
544.515	1	13
545.705	1	11
546.896	1	5
548.086	1	8
549.276	1	7
550.466	1	-4
551.656	1	-13
552.846	1	11
554.036	1	3
555.226	1	3
556.416	1	-3
557.606	1	4
558.796	1	7
559.986	1	-4
561.175	1	4
562.365	1	5
563.555	1	13
564.744	1	7
565.934	1	9
567.123	1	12
568.313	1	-2
569.502	1	1
570.692	1	3
571.881	1	-1
573.070	1	-1
574.260	1	-5
575.449	1	4
576.638	1	0
577.827	1	0
579.016	1	6
580.205	1	1
581.394	1	-14
582.583	1	-4
583.772	1	8
584.961	1	0
586.150	1	-4
587.339	1	7
588.528	1	2
589.717	1	5
590.905	1	9
592.094	1	3
593.283	1	-5
594.471	1	-1
595.660	1	4
596.848	1	4
598.037	1	4
599.225	1	-3
600.413	1	1
601.602	1	14
602.790	1	6
603.978	1	-6
605.166	1	3
606.355	1	8
607.543	1	-3
608.731	1	-6
609.919	1	-6
611.107	1	12
612.295	1	-7
613.483	1	-1
614.671	1	2
615.858	1	9
617.046	1	8
618.234	1	-6
619.422	1	-4
620.609	1	-7
621.797	1	-3
622.985	1	5
624.172	1	1
625.360	1	-5
626.547	1	14
627.735	1	2
628.922	1	2
630.109	1	2
631.297	1	1
632.484	1	5
633.671	1	-2
634.858	1	14
636.045	1	3
637.232	1	0
638.419	1	2
639.606	1	8
640.793	1	7
641.980	1	-7
643.167	1	19
644.354	1	-4
645.541	1	-6
646.728	1	3
647.914	1	9
649.101	1	-2
650.288	1	-11
651.474	1	-3
652.661	1	-3
653.847	1	9
655.034	1	-1
656.220	1	2
657.406	1	-2
658.593	1	-10
659.779	1	0
660.965	1	3
662.152	1	9
663.338	1	-1
664.524	1	-6
665.710	1	2
666.896	1	0
668.082	1	-13
669.268	1	4
670.454	1	2
671.640	1	-16
672.826	1	-11
674.011	1	7
675.197	1	1
676.383	1	1
677.569	1	6
678.754	1	9
679.940	1	2
681.125	1	6
682.311	1	4
683.496	1	-9
684.682	1	4
685.867	1	-2
687.053	1	5
688.238	1	9
688.746	1	12