File: Analysis/GaN_68K_200ms/GaN_sample E_spot4_UVVIS_68 K_200um_200 ms 2x2mm1_585.txt
340.368	1	-11
341.565	1	-4
342.763	1	2
343.960	1	-6
345.157	1	5
346.354	1	1
347.552	1	-6
348.749	1	0
349.946	1	12
351.143	1	4
352.340	1	0
353.537	1	-1
354.734	1	-1
355.931	1	5
357.127	1	-7
358.324	1	1
359.521	1	-3
360.718	1	4
361.914	1	-4
363.111	1	1
364.308	1	0
365.504	1	5
366.701	1	-10
367.897	1	-2
369.093	1	-1
370.290	1	-5
371.486	1	7
372.682	1	1
373.879	1	8
375.075	1	4
376.271	1	1
377.467	1	-5
378.663	1	-6
379.859	1	1
381.055	1	1
382.251	1	0
383.447	1	6
384.643	1	7
385.839	1	5
387.035	1	7
388.230	1	-1
389.426	1	4
390.622	1	-1
391.817	1	1
393.013	1	11
394.208	1	7
395.404	1	13
396.599	1	0
397.795	1	4
398.990	1	-4
400.186	1	6
401.381	1	11
402.576	1	9
403.771	1	2
404.967	1	12
406.162	1	5
407.357	1	2
408.552	1	12
409.747	1	-7
410.942	1	-1
412.137	1	3
413.332	1	5
414.526	1	14
415.721	1	-2
416.916	1	-2
418.111	1	0
419.305	1	-2
420.500	1	4
421.695	1	-4
422.889	1	4
424.084	1	6
425.278	1	-1
426.472	1	-7
427.667	1	11
428.861	1	1
430.055	1	-2
431.250	1	-10
432.444	1	5
433.638	1	1
434.832	1	-7
436.026	1	-1
437.220	1	10
438.414	1	1
439.608	1	9
440.802	1	-1
441.996	1	-1
443.190	1	-17
444.384	1	2
445.578	1	0
446.771	1	-10
447.965	1	-7
449.159	1	-3
450.352	1	1
451.546	1	3
452.739	1	9
453.933	1	13
455.126	1	4
456.320	1	1
457.513	1	3
458.706	1	-2
459.899	1	7
461.093	1	3
462.286	1	8
463.479	1	10
464.672	1	4
465.865	1	-2
467.058	1	6
468.251	1	-3
469.444	1	-9
470.637	1	7
471.830	1	17
473.023	1	-7
474.215	1	-3
475.408	1	2
476.601	1	1
477.793	1	8
478.986	1	2
480.179	1	7
481.371	1	5
482.564	1	-7
483.756	1	5
484.948	1	-7
486.141	1	-10
487.333	1	2
488.525	1	-2
489.718	1	-5
490.910	1	-1
492.102	1	-2
493.294	1	15
494.486	1	3
495.678	1	6
496.870	1	-4
498.062	1	-3
499.254	1	0
500.446	1	-3
501.638	1	0
502.829	1	10
504.021	1	9
505.213	1	-3
506.404	1	-2
507.596	1	6
508.788	1	-4
509.979	1	3
511.171	1	15
512.362	1	7
513.553	1	-3
514.745	1	-2
515.936	1	1
517.127	1	0
518.319	1	1
519.510	1	1
520.701	1	-1
521.892	1	-8
523.083	1	-2
524.274	1	-2
525.465	1	4
526.656	1	12
527.847	1	-7
529.038	1	5
530.229	1	4
531.419	1	-2
532.610	1	9
533.801	1	3
534.991	1	-4
536.182	1	8
537.373	1	-4
538.563	1	5
539.754	1	-2
540.944	1	-9
542.134	1	7
543.325	1	-4
544.515	1	7
545.705	1	13
546.896	1	2
548.086	1	2
549.276	1	5
550.466	1	-6
551.656	1	-7
552.846	1	-2
554.036	1	3
555.226	1	-8
556.416	1	-4
557.606	1	-7
558.796	1	5
559.986	1	-7
561.175	1	-4
562.365	1	4
563.555	1	2
564.744	1	4
565.934	1	1
567.123	1	15
568.313	1	-5
569.502	1	2
570.692	1	2
571.881	1	9
573.070	1	8
574.260	1	-6
575.449	1	2
576.638	1	9
577.827	1	3
579.016	1	10
580.205	1	1
581.394	1	-10
582.583	1	-6
583.772	1	2
584.961	1	4
586.150	1	-2
587.339	1	0
588.528	1	5
589.717	1	-6
590.905	1	0
592.094	1	1
593.283	1	6
594.471	1	6
595.660	1	1
596.848	1	3
598.037	1	-4
599.225	1	-5
600.413	1	-7
601.602	1	12
602.790	1	11
603.978	1	6
605.166	1	-7
606.355	1	13
607.543	1	-8
608.731	1	-17
609.919	1	-7
611.107	1	5
612.295	1	9
613.483	1	10
614.671	1	2
615.858	1	4
617.046	1	-4
618.234	1	4
619.422	1	1
620.609	1	7
621.797	1	4
622.985	1	4
624.172	1	17
625.360	1	-13
626.547	1	1
627.735	1	0
628.922	1	8
630.109	1	0
631.297	1	-4
632.484	1	1
633.671	1	5
634.858	1	14
636.045	1	-7
637.232	1	-5
638.419	1	4
639.606	1	18
640.793	1	0
641.980	1	-3
643.167	1	15
644.354	1	3
645.541	1	-5
646.728	1	6
647.914	1	-14
649.101	1	-3
650.288	1	-1
651.474	1	3
652.661	1	-1
653.847	1	8
655.034	1	7
656.220	1	11
657.406	1	0
658.593	1	-7
659.779	1	-7
660.965	1	-11
662.152	1	-8
663.338	1	-4
664.524	1	-2
665.710	1	-5
666.896	1	-9
668.082	1	1
669.268	1	4
670.454	1	1
671.640	1	-17
672.826	1	-20
674.011	1	8
675.197	1	-2
676.383	1	-5
677.569	1	-8
678.754	1	-4
679.940	1	2
681.125	1	7
682.311	1	-6
683.496	1	-5
684.682	1	8
685.867	1	-4
687.053	1	3
688.238	1	12
688.746	1	8