File: Analysis/GaN_68K_200ms/GaN_sample E_spot4_UVVIS_68 K_200um_200 ms 2x2mm1_188.txt
340.368	1	0
341.565	1	-1
342.763	1	-5
343.960	1	-5
345.157	1	8
346.354	1	-2
347.552	1	6
348.749	1	6
349.946	1	13
351.143	1	-6
352.340	1	8
353.537	1	2
354.734	1	-1
355.931	1	10
357.127	1	3
358.324	1	1
359.521	1	9
360.718	1	4
361.914	1	10
363.111	1	22
364.308	1	23
365.504	1	26
366.701	1	16
367.897	1	22
369.093	1	20
370.290	1	17
371.486	1	21
372.682	1	9
373.879	1	16
375.075	1	15
376.271	1	17
377.467	1	3
378.663	1	8
379.859	1	5
381.055	1	2
382.251	1	26
383.447	1	29
384.643	1	30
385.839	1	33
387.035	1	32
388.230	1	36
389.426	1	26
390.622	1	27
391.817	1	28
393.013	1	33
394.208	1	37
395.404	1	28
396.599	1	36
397.795	1	33
398.990	1	31
400.186	1	39
401.381	1	21
402.576	1	32
403.771	1	20
404.967	1	26
406.162	1	16
407.357	1	27
408.552	1	15
409.747	1	14
410.942	1	17
412.137	1	28
413.332	1	24
414.526	1	17
415.721	1	16
416.916	1	16
418.111	1	18
419.305	1	17
420.500	1	16
421.695	1	11
422.889	1	14
424.084	1	15
425.278	1	1
426.472	1	15
427.667	1	13
428.861	1	11
430.055	1	17
431.250	1	5
432.444	1	14
433.638	1	3
434.832	1	13
436.026	1	8
437.220	1	21
438.414	1	10
439.608	1	16
440.802	1	11
441.996	1	11
443.190	1	0
444.384	1	0
445.578	1	13
446.771	1	6
447.965	1	-5
449.159	1	0
450.352	1	8
451.546	1	6
452.739	1	4
453.933	1	2
455.126	1	4
456.320	1	8
457.513	1	9
458.706	1	7
459.899	1	17
461.093	1	16
462.286	1	22
463.479	1	12
464.672	1	1
465.865	1	4
467.058	1	14
468.251	1	3
469.444	1	0
470.637	1	20
471.830	1	14
473.023	1	3
474.215	1	-1
475.408	1	5
476.601	1	1
477.793	1	17
478.986	1	2
480.179	1	10
481.371	1	10
482.564	1	-6
483.756	1	20
484.948	1	-7
486.141	1	-5
487.333	1	11
488.525	1	0
489.718	1	4
490.910	1	6
492.102	1	-3
493.294	1	10
494.486	1	13
495.678	1	15
496.870	1	5
498.062	1	6
499.254	1	11
500.446	1	17
501.638	1	9
502.829	1	14
504.021	1	22
505.213	1	9
506.404	1	2
507.596	1	15
508.788	1	13
509.979	1	1
511.171	1	26
512.362	1	21
513.553	1	2
514.745	1	9
515.936	1	14
517.127	1	30
518.319	1	24
519.510	1	16
520.701	1	22
521.892	1	9
523.083	1	17
524.274	1	18
525.465	1	27
526.656	1	40
527.847	1	10
529.038	1	23
530.229	1	20
531.419	1	29
532.610	1	22
533.801	1	27
534.991	1	31
536.182	1	17
537.373	1	14
538.563	1	31
539.754	1	7
540.944	1	13
542.134	1	23
543.325	1	15
544.515	1	21
545.705	1	20
546.896	1	15
548.086	1	24
549.276	1	27
550.466	1	13
551.656	1	12
552.846	1	12
554.036	1	15
555.226	1	12
556.416	1	12
557.606	1	3
558.796	1	14
559.986	1	4
561.175	1	13
562.365	1	13
563.555	1	18
564.744	1	16
565.934	1	15
567.123	1	21
568.313	1	4
569.502	1	7
570.692	1	17
571.881	1	16
573.070	1	15
574.260	1	10
575.449	1	10
576.638	1	2
577.827	1	8
579.016	1	20
580.205	1	9
581.394	1	8
582.583	1	-4
583.772	1	12
584.961	1	10
586.150	1	4
587.339	1	5
588.528	1	8
589.717	1	8
590.905	1	15
592.094	1	11
593.283	1	6
594.471	1	5
595.660	1	7
596.848	1	0
598.037	1	16
599.225	1	9
600.413	1	13
601.602	1	11
602.790	1	8
603.978	1	8
605.166	1	4
606.355	1	12
607.543	1	8
608.731	1	-2
609.919	1	4
611.107	1	13
612.295	1	8
613.483	1	14
614.671	1	8
615.858	1	12
617.046	1	1
618.234	1	7
619.422	1	7
620.609	1	10
621.797	1	1
622.985	1	8
624.172	1	19
625.360	1	-5
626.547	1	1
627.735	1	12
628.922	1	-4
630.109	1	8
631.297	1	4
632.484	1	7
633.671	1	1
634.858	1	14
636.045	1	5
637.232	1	4
638.419	1	12
639.606	1	12
640.793	1	11
641.980	1	2
643.167	1	19
644.354	1	1
645.541	1	-6
646.728	1	11
647.914	1	-5
649.101	1	14
650.288	1	-1
651.474	1	5
652.661	1	8
653.847	1	12
655.034	1	5
656.220	1	8
657.406	1	8
658.593	1	-2
659.779	1	5
660.965	1	11
662.152	1	-5
663.338	1	4
664.524	1	-3
665.710	1	4
666.896	1	-5
668.082	1	2
669.268	1	-4
670.454	1	9
671.640	1	-9
672.826	1	-14
674.011	1	3
675.197	1	4
676.383	1	8
677.569	1	1
678.754	1	2
679.940	1	6
681.125	1	5
682.311	1	-3
683.496	1	0
684.682	1	1
685.867	1	5
687.053	1	6
688.238	1	4
688.746	1	3