File: Analysis/GaN_68K_200ms/GaN_sample E_spot4_UVVIS_68 K_200um_200 ms 2x2mm1_538.txt
340.368	1	-6
341.565	1	-7
342.763	1	-14
343.960	1	-1
345.157	1	1
346.354	1	-1
347.552	1	4
348.749	1	6
349.946	1	3
351.143	1	-3
352.340	1	0
353.537	1	-5
354.734	1	0
355.931	1	-3
357.127	1	-3
358.324	1	-9
359.521	1	5
360.718	1	-4
361.914	1	3
363.111	1	4
364.308	1	0
365.504	1	-8
366.701	1	-7
367.897	1	2
369.093	1	14
370.290	1	-3
371.486	1	4
372.682	1	-4
373.879	1	1
375.075	1	6
376.271	1	-4
377.467	1	-3
378.663	1	-5
379.859	1	-5
381.055	1	0
382.251	1	5
383.447	1	11
384.643	1	9
385.839	1	7
387.035	1	5
388.230	1	-3
389.426	1	-1
390.622	1	0
391.817	1	3
393.013	1	7
394.208	1	4
395.404	1	1
396.599	1	8
397.795	1	9
398.990	1	17
400.186	1	17
401.381	1	6
402.576	1	12
403.771	1	-7
404.967	1	0
406.162	1	2
407.357	1	8
408.552	1	2
409.747	1	-1
410.942	1	5
412.137	1	8
413.332	1	-6
414.526	1	1
415.721	1	2
416.916	1	-2
418.111	1	-6
419.305	1	-5
420.500	1	3
421.695	1	7
422.889	1	9
424.084	1	-1
425.278	1	-3
426.472	1	3
427.667	1	-1
428.861	1	9
430.055	1	-8
431.250	1	-6
432.444	1	11
433.638	1	-2
434.832	1	-2
436.026	1	6
437.220	1	2
438.414	1	-1
439.608	1	4
440.802	1	6
441.996	1	-7
443.190	1	1
444.384	1	2
445.578	1	6
446.771	1	3
447.965	1	-4
449.159	1	-2
450.352	1	7
451.546	1	8
452.739	1	1
453.933	1	10
455.126	1	-1
456.320	1	-1
457.513	1	11
458.706	1	-4
459.899	1	11
461.093	1	7
462.286	1	14
463.479	1	10
464.672	1	1
465.865	1	-4
467.058	1	17
468.251	1	0
469.444	1	-1
470.637	1	11
471.830	1	7
473.023	1	-8
474.215	1	-6
475.408	1	2
476.601	1	-6
477.793	1	6
478.986	1	1
480.179	1	4
481.371	1	-9
482.564	1	-7
483.756	1	13
484.948	1	-4
486.141	1	-12
487.333	1	-2
488.525	1	5
489.718	1	-1
490.910	1	-6
492.102	1	-5
493.294	1	-1
494.486	1	2
495.678	1	14
496.870	1	-8
498.062	1	-2
499.254	1	-6
500.446	1	4
501.638	1	6
502.829	1	5
504.021	1	19
505.213	1	-7
506.404	1	-8
507.596	1	7
508.788	1	0
509.979	1	5
511.171	1	15
512.362	1	-4
513.553	1	-8
514.745	1	5
515.936	1	8
517.127	1	11
518.319	1	-1
519.510	1	7
520.701	1	2
521.892	1	-14
523.083	1	-1
524.274	1	-3
525.465	1	1
526.656	1	13
527.847	1	-6
529.038	1	5
530.229	1	12
531.419	1	9
532.610	1	-3
533.801	1	7
534.991	1	3
536.182	1	-2
537.373	1	5
538.563	1	-4
539.754	1	-5
540.944	1	5
542.134	1	10
543.325	1	-7
544.515	1	3
545.705	1	7
546.896	1	1
548.086	1	11
549.276	1	-3
550.466	1	2
551.656	1	-5
552.846	1	5
554.036	1	12
555.226	1	-7
556.416	1	-5
557.606	1	-6
558.796	1	-5
559.986	1	0
561.175	1	-4
562.365	1	3
563.555	1	4
564.744	1	2
565.934	1	8
567.123	1	9
568.313	1	-4
569.502	1	2
570.692	1	7
571.881	1	5
573.070	1	13
574.260	1	-2
575.449	1	7
576.638	1	0
577.827	1	10
579.016	1	11
580.205	1	5
581.394	1	2
582.583	1	-6
583.772	1	5
584.961	1	3
586.150	1	6
587.339	1	7
588.528	1	3
589.717	1	-3
590.905	1	1
592.094	1	4
593.283	1	-1
594.471	1	1
595.660	1	-3
596.848	1	5
598.037	1	8
599.225	1	7
600.413	1	-6
601.602	1	5
602.790	1	8
603.978	1	-3
605.166	1	-10
606.355	1	5
607.543	1	-10
608.731	1	-7
609.919	1	-6
611.107	1	9
612.295	1	-2
613.483	1	7
614.671	1	8
615.858	1	12
617.046	1	-7
618.234	1	2
619.422	1	-5
620.609	1	-2
621.797	1	0
622.985	1	0
624.172	1	14
625.360	1	-4
626.547	1	-2
627.735	1	1
628.922	1	-4
630.109	1	-8
631.297	1	-5
632.484	1	-7
633.671	1	1
634.858	1	6
636.045	1	8
637.232	1	6
638.419	1	2
639.606	1	15
640.793	1	13
641.980	1	7
643.167	1	8
644.354	1	-2
645.541	1	-14
646.728	1	7
647.914	1	-5
649.101	1	-3
650.288	1	-3
651.474	1	6
652.661	1	3
653.847	1	-2
655.034	1	-4
656.220	1	7
657.406	1	0
658.593	1	-7
659.779	1	4
660.965	1	2
662.152	1	6
663.338	1	-2
664.524	1	-8
665.710	1	-8
666.896	1	-2
668.082	1	-7
669.268	1	3
670.454	1	3
671.640	1	-15
672.826	1	-14
674.011	1	2
675.197	1	3
676.383	1	1
677.569	1	-6
678.754	1	6
679.940	1	-9
681.125	1	-1
682.311	1	0
683.496	1	-13
684.682	1	11
685.867	1	-1
687.053	1	6
688.238	1	7
688.746	1	5