File: Analysis/GaN_68K_200ms/GaN_sample E_spot4_UVVIS_68 K_200um_200 ms 2x2mm1_760.txt
340.368	1	6
341.565	1	-6
342.763	1	10
343.960	1	-10
345.157	1	7
346.354	1	4
347.552	1	8
348.749	1	2
349.946	1	0
351.143	1	-9
352.340	1	-1
353.537	1	2
354.734	1	5
355.931	1	2
357.127	1	7
358.324	1	2
359.521	1	-3
360.718	1	-1
361.914	1	0
363.111	1	5
364.308	1	-4
365.504	1	-9
366.701	1	-8
367.897	1	1
369.093	1	6
370.290	1	-9
371.486	1	8
372.682	1	-2
373.879	1	8
375.075	1	2
376.271	1	-3
377.467	1	4
378.663	1	-7
379.859	1	-9
381.055	1	-9
382.251	1	-3
383.447	1	9
384.643	1	0
385.839	1	1
387.035	1	-3
388.230	1	-1
389.426	1	-1
390.622	1	-4
391.817	1	3
393.013	1	2
394.208	1	6
395.404	1	-2
396.599	1	-2
397.795	1	4
398.990	1	5
400.186	1	5
401.381	1	-5
402.576	1	1
403.771	1	4
404.967	1	2
406.162	1	-2
407.357	1	-1
408.552	1	5
409.747	1	-5
410.942	1	-2
412.137	1	2
413.332	1	-8
414.526	1	6
415.721	1	-2
416.916	1	-4
418.111	1	-3
419.305	1	-1
420.500	1	9
421.695	1	-1
422.889	1	5
424.084	1	-1
425.278	1	-16
426.472	1	-15
427.667	1	13
428.861	1	-2
430.055	1	-4
431.250	1	-9
432.444	1	10
433.638	1	3
434.832	1	-11
436.026	1	6
437.220	1	6
438.414	1	-2
439.608	1	2
440.802	1	-4
441.996	1	-5
443.190	1	-10
444.384	1	5
445.578	1	-3
446.771	1	-12
447.965	1	-4
449.159	1	-4
450.352	1	6
451.546	1	-1
452.739	1	11
453.933	1	1
455.126	1	0
456.320	1	-2
457.513	1	1
458.706	1	-1
459.899	1	7
461.093	1	1
462.286	1	-1
463.479	1	10
464.672	1	-5
465.865	1	0
467.058	1	7
468.251	1	-3
469.444	1	-1
470.637	1	10
471.830	1	19
473.023	1	-3
474.215	1	0
475.408	1	1
476.601	1	5
477.793	1	4
478.986	1	-6
480.179	1	-2
481.371	1	3
482.564	1	-7
483.756	1	10
484.948	1	-1
486.141	1	-5
487.333	1	5
488.525	1	-10
489.718	1	3
490.910	1	-3
492.102	1	-9
493.294	1	9
494.486	1	0
495.678	1	1
496.870	1	2
498.062	1	-8
499.254	1	3
500.446	1	4
501.638	1	12
502.829	1	2
504.021	1	10
505.213	1	-9
506.404	1	-10
507.596	1	5
508.788	1	1
509.979	1	3
511.171	1	14
512.362	1	10
513.553	1	-12
514.745	1	0
515.936	1	-2
517.127	1	-5
518.319	1	-2
519.510	1	-2
520.701	1	4
521.892	1	-8
523.083	1	-2
524.274	1	-1
525.465	1	1
526.656	1	10
527.847	1	-4
529.038	1	4
530.229	1	5
531.419	1	13
532.610	1	5
533.801	1	4
534.991	1	-13
536.182	1	0
537.373	1	2
538.563	1	-9
539.754	1	0
540.944	1	1
542.134	1	1
543.325	1	1
544.515	1	0
545.705	1	9
546.896	1	-10
548.086	1	0
549.276	1	3
550.466	1	-2
551.656	1	1
552.846	1	-4
554.036	1	7
555.226	1	-12
556.416	1	9
557.606	1	-15
558.796	1	-4
559.986	1	-3
561.175	1	-2
562.365	1	9
563.555	1	7
564.744	1	3
565.934	1	6
567.123	1	11
568.313	1	-6
569.502	1	5
570.692	1	12
571.881	1	3
573.070	1	9
574.260	1	-5
575.449	1	8
576.638	1	-2
577.827	1	6
579.016	1	12
580.205	1	0
581.394	1	-6
582.583	1	-1
583.772	1	-2
584.961	1	-2
586.150	1	-1
587.339	1	-2
588.528	1	-4
589.717	1	-5
590.905	1	2
592.094	1	0
593.283	1	0
594.471	1	5
595.660	1	-8
596.848	1	6
598.037	1	-1
599.225	1	-8
600.413	1	4
601.602	1	5
602.790	1	7
603.978	1	-6
605.166	1	-4
606.355	1	8
607.543	1	-6
608.731	1	-14
609.919	1	-3
611.107	1	7
612.295	1	2
613.483	1	0
614.671	1	-3
615.858	1	7
617.046	1	-1
618.234	1	-1
619.422	1	-2
620.609	1	-2
621.797	1	3
622.985	1	0
624.172	1	10
625.360	1	-7
626.547	1	2
627.735	1	13
628.922	1	-5
630.109	1	-2
631.297	1	-8
632.484	1	-3
633.671	1	0
634.858	1	7
636.045	1	-3
637.232	1	5
638.419	1	11
639.606	1	12
640.793	1	11
641.980	1	-6
643.167	1	9
644.354	1	0
645.541	1	-10
646.728	1	1
647.914	1	-11
649.101	1	0
650.288	1	-7
651.474	1	2
652.661	1	2
653.847	1	5
655.034	1	0
656.220	1	7
657.406	1	10
658.593	1	-5
659.779	1	-3
660.965	1	6
662.152	1	-2
663.338	1	-7
664.524	1	-9
665.710	1	-14
666.896	1	-1
668.082	1	4
669.268	1	-1
670.454	1	-2
671.640	1	-15
672.826	1	-12
674.011	1	9
675.197	1	-6
676.383	1	-2
677.569	1	-6
678.754	1	-3
679.940	1	-5
681.125	1	7
682.311	1	4
683.496	1	-3
684.682	1	11
685.867	1	1
687.053	1	-1
688.238	1	-3
688.746	1	-1