File: Analysis/GaN_68K_200ms/GaN_sample E_spot4_UVVIS_68 K_200um_200 ms 2x2mm1_493.txt
340.368	1	4
341.565	1	-7
342.763	1	-4
343.960	1	3
345.157	1	1
346.354	1	-2
347.552	1	6
348.749	1	8
349.946	1	7
351.143	1	-10
352.340	1	-5
353.537	1	-1
354.734	1	0
355.931	1	7
357.127	1	1
358.324	1	4
359.521	1	-3
360.718	1	-9
361.914	1	6
363.111	1	9
364.308	1	-3
365.504	1	-3
366.701	1	-2
367.897	1	-1
369.093	1	8
370.290	1	-5
371.486	1	9
372.682	1	0
373.879	1	11
375.075	1	6
376.271	1	0
377.467	1	1
378.663	1	0
379.859	1	-4
381.055	1	-1
382.251	1	4
383.447	1	8
384.643	1	3
385.839	1	6
387.035	1	6
388.230	1	4
389.426	1	6
390.622	1	-7
391.817	1	2
393.013	1	16
394.208	1	10
395.404	1	-2
396.599	1	6
397.795	1	4
398.990	1	7
400.186	1	17
401.381	1	8
402.576	1	17
403.771	1	10
404.967	1	3
406.162	1	3
407.357	1	0
408.552	1	3
409.747	1	9
410.942	1	8
412.137	1	23
413.332	1	5
414.526	1	-1
415.721	1	-2
416.916	1	-1
418.111	1	9
419.305	1	3
420.500	1	5
421.695	1	6
422.889	1	2
424.084	1	5
425.278	1	-5
426.472	1	-8
427.667	1	7
428.861	1	1
430.055	1	-3
431.250	1	-9
432.444	1	1
433.638	1	-9
434.832	1	-5
436.026	1	2
437.220	1	8
438.414	1	-1
439.608	1	0
440.802	1	2
441.996	1	2
443.190	1	-3
444.384	1	10
445.578	1	7
446.771	1	-2
447.965	1	-8
449.159	1	-4
450.352	1	7
451.546	1	8
452.739	1	3
453.933	1	15
455.126	1	0
456.320	1	3
457.513	1	14
458.706	1	4
459.899	1	19
461.093	1	16
462.286	1	12
463.479	1	13
464.672	1	-3
465.865	1	7
467.058	1	2
468.251	1	-2
469.444	1	6
470.637	1	14
471.830	1	12
473.023	1	-12
474.215	1	4
475.408	1	5
476.601	1	5
477.793	1	7
478.986	1	1
480.179	1	7
481.371	1	5
482.564	1	-2
483.756	1	13
484.948	1	-7
486.141	1	-1
487.333	1	4
488.525	1	-8
489.718	1	-5
490.910	1	-7
492.102	1	2
493.294	1	12
494.486	1	7
495.678	1	9
496.870	1	7
498.062	1	7
499.254	1	8
500.446	1	1
501.638	1	1
502.829	1	-1
504.021	1	19
505.213	1	1
506.404	1	-3
507.596	1	9
508.788	1	-8
509.979	1	2
511.171	1	12
512.362	1	-7
513.553	1	-11
514.745	1	-5
515.936	1	8
517.127	1	3
518.319	1	3
519.510	1	-6
520.701	1	4
521.892	1	-11
523.083	1	5
524.274	1	1
525.465	1	-2
526.656	1	13
527.847	1	1
529.038	1	5
530.229	1	3
531.419	1	10
532.610	1	10
533.801	1	13
534.991	1	2
536.182	1	-3
537.373	1	5
538.563	1	2
539.754	1	-6
540.944	1	-1
542.134	1	5
543.325	1	-3
544.515	1	-2
545.705	1	14
546.896	1	-5
548.086	1	4
549.276	1	12
550.466	1	-10
551.656	1	-5
552.846	1	4
554.036	1	5
555.226	1	-4
556.416	1	0
557.606	1	-17
558.796	1	-3
559.986	1	-7
561.175	1	-2
562.365	1	-3
563.555	1	12
564.744	1	-1
565.934	1	3
567.123	1	13
568.313	1	-3
569.502	1	2
570.692	1	-2
571.881	1	-3
573.070	1	4
574.260	1	3
575.449	1	3
576.638	1	-6
577.827	1	10
579.016	1	15
580.205	1	11
581.394	1	-6
582.583	1	-6
583.772	1	-5
584.961	1	2
586.150	1	1
587.339	1	-1
588.528	1	6
589.717	1	-1
590.905	1	8
592.094	1	6
593.283	1	12
594.471	1	5
595.660	1	5
596.848	1	1
598.037	1	-2
599.225	1	11
600.413	1	2
601.602	1	-3
602.790	1	6
603.978	1	-2
605.166	1	3
606.355	1	11
607.543	1	-5
608.731	1	-6
609.919	1	-6
611.107	1	14
612.295	1	-2
613.483	1	4
614.671	1	4
615.858	1	7
617.046	1	8
618.234	1	4
619.422	1	-4
620.609	1	8
621.797	1	4
622.985	1	0
624.172	1	5
625.360	1	-1
626.547	1	3
627.735	1	-2
628.922	1	-2
630.109	1	3
631.297	1	-10
632.484	1	-1
633.671	1	1
634.858	1	13
636.045	1	-2
637.232	1	-2
638.419	1	4
639.606	1	11
640.793	1	-2
641.980	1	-4
643.167	1	13
644.354	1	0
645.541	1	-9
646.728	1	2
647.914	1	-2
649.101	1	-2
650.288	1	-3
651.474	1	-2
652.661	1	3
653.847	1	-6
655.034	1	2
656.220	1	4
657.406	1	9
658.593	1	0
659.779	1	-7
660.965	1	4
662.152	1	7
663.338	1	-4
664.524	1	-11
665.710	1	-5
666.896	1	3
668.082	1	-10
669.268	1	-1
670.454	1	-2
671.640	1	-7
672.826	1	-10
674.011	1	6
675.197	1	-6
676.383	1	-1
677.569	1	-1
678.754	1	0
679.940	1	-1
681.125	1	0
682.311	1	0
683.496	1	3
684.682	1	0
685.867	1	3
687.053	1	3
688.238	1	8
688.746	1	4