File: Analysis/GaN_68K_200ms/GaN_sample E_spot4_UVVIS_68 K_200um_200 ms 2x2mm1_156.txt
340.368	1	0
341.565	1	4
342.763	1	4
343.960	1	9
345.157	1	0
346.354	1	9
347.552	1	-2
348.749	1	12
349.946	1	11
351.143	1	3
352.340	1	3
353.537	1	1
354.734	1	7
355.931	1	13
357.127	1	4
358.324	1	13
359.521	1	13
360.718	1	9
361.914	1	15
363.111	1	38
364.308	1	33
365.504	1	37
366.701	1	58
367.897	1	58
369.093	1	62
370.290	1	35
371.486	1	50
372.682	1	27
373.879	1	37
375.075	1	18
376.271	1	27
377.467	1	14
378.663	1	14
379.859	1	13
381.055	1	19
382.251	1	26
383.447	1	32
384.643	1	44
385.839	1	57
387.035	1	56
388.230	1	58
389.426	1	58
390.622	1	46
391.817	1	46
393.013	1	52
394.208	1	60
395.404	1	54
396.599	1	55
397.795	1	55
398.990	1	66
400.186	1	56
401.381	1	48
402.576	1	60
403.771	1	44
404.967	1	36
406.162	1	36
407.357	1	31
408.552	1	43
409.747	1	33
410.942	1	34
412.137	1	38
413.332	1	27
414.526	1	20
415.721	1	25
416.916	1	22
418.111	1	27
419.305	1	20
420.500	1	28
421.695	1	23
422.889	1	13
424.084	1	20
425.278	1	7
426.472	1	8
427.667	1	30
428.861	1	14
430.055	1	11
431.250	1	0
432.444	1	20
433.638	1	16
434.832	1	13
436.026	1	15
437.220	1	21
438.414	1	21
439.608	1	15
440.802	1	16
441.996	1	8
443.190	1	-1
444.384	1	13
445.578	1	10
446.771	1	6
447.965	1	-2
449.159	1	3
450.352	1	15
451.546	1	10
452.739	1	13
453.933	1	22
455.126	1	2
456.320	1	6
457.513	1	14
458.706	1	6
459.899	1	19
461.093	1	11
462.286	1	16
463.479	1	12
464.672	1	2
465.865	1	11
467.058	1	9
468.251	1	5
469.444	1	16
470.637	1	18
471.830	1	22
473.023	1	-2
474.215	1	5
475.408	1	6
476.601	1	2
477.793	1	17
478.986	1	12
480.179	1	10
481.371	1	5
482.564	1	-8
483.756	1	17
484.948	1	4
486.141	1	10
487.333	1	14
488.525	1	9
489.718	1	3
490.910	1	5
492.102	1	2
493.294	1	20
494.486	1	16
495.678	1	23
496.870	1	20
498.062	1	14
499.254	1	6
500.446	1	21
501.638	1	28
502.829	1	28
504.021	1	32
505.213	1	17
506.404	1	16
507.596	1	31
508.788	1	18
509.979	1	25
511.171	1	34
512.362	1	28
513.553	1	34
514.745	1	20
515.936	1	39
517.127	1	37
518.319	1	23
519.510	1	43
520.701	1	44
521.892	1	34
523.083	1	37
524.274	1	42
525.465	1	35
526.656	1	53
527.847	1	35
529.038	1	46
530.229	1	47
531.419	1	55
532.610	1	41
533.801	1	48
534.991	1	47
536.182	1	39
537.373	1	36
538.563	1	36
539.754	1	37
540.944	1	34
542.134	1	50
543.325	1	36
544.515	1	44
545.705	1	41
546.896	1	42
548.086	1	33
549.276	1	36
550.466	1	39
551.656	1	15
552.846	1	39
554.036	1	21
555.226	1	26
556.416	1	41
557.606	1	15
558.796	1	28
559.986	1	26
561.175	1	25
562.365	1	28
563.555	1	24
564.744	1	27
565.934	1	23
567.123	1	25
568.313	1	12
569.502	1	21
570.692	1	21
571.881	1	16
573.070	1	21
574.260	1	13
575.449	1	22
576.638	1	15
577.827	1	26
579.016	1	19
580.205	1	22
581.394	1	16
582.583	1	9
583.772	1	19
584.961	1	12
586.150	1	17
587.339	1	9
588.528	1	10
589.717	1	9
590.905	1	15
592.094	1	12
593.283	1	18
594.471	1	12
595.660	1	13
596.848	1	18
598.037	1	12
599.225	1	8
600.413	1	6
601.602	1	18
602.790	1	7
603.978	1	2
605.166	1	-1
606.355	1	21
607.543	1	-3
608.731	1	11
609.919	1	8
611.107	1	9
612.295	1	12
613.483	1	10
614.671	1	9
615.858	1	9
617.046	1	13
618.234	1	8
619.422	1	3
620.609	1	12
621.797	1	2
622.985	1	11
624.172	1	17
625.360	1	-1
626.547	1	5
627.735	1	9
628.922	1	11
630.109	1	12
631.297	1	3
632.484	1	9
633.671	1	13
634.858	1	11
636.045	1	8
637.232	1	7
638.419	1	14
639.606	1	20
640.793	1	6
641.980	1	4
643.167	1	21
644.354	1	-1
645.541	1	-6
646.728	1	6
647.914	1	7
649.101	1	3
650.288	1	0
651.474	1	10
652.661	1	7
653.847	1	4
655.034	1	13
656.220	1	6
657.406	1	6
658.593	1	10
659.779	1	-2
660.965	1	0
662.152	1	6
663.338	1	2
664.524	1	-5
665.710	1	-2
666.896	1	5
668.082	1	-3
669.268	1	2
670.454	1	6
671.640	1	-9
672.826	1	1
674.011	1	7
675.197	1	2
676.383	1	-2
677.569	1	-2
678.754	1	-2
679.940	1	4
681.125	1	7
682.311	1	10
683.496	1	1
684.682	1	13
685.867	1	1
687.053	1	7
688.238	1	9
688.746	1	9