File: Analysis/GaN_68K_200ms/GaN_sample E_spot4_UVVIS_68 K_200um_200 ms 2x2mm1_261.txt
340.368	1	-1
341.565	1	2
342.763	1	5
343.960	1	6
345.157	1	7
346.354	1	-3
347.552	1	-3
348.749	1	4
349.946	1	16
351.143	1	-6
352.340	1	-7
353.537	1	9
354.734	1	8
355.931	1	12
357.127	1	18
358.324	1	3
359.521	1	5
360.718	1	-6
361.914	1	-1
363.111	1	15
364.308	1	2
365.504	1	5
366.701	1	-3
367.897	1	5
369.093	1	11
370.290	1	4
371.486	1	13
372.682	1	3
373.879	1	12
375.075	1	16
376.271	1	4
377.467	1	5
378.663	1	2
379.859	1	3
381.055	1	6
382.251	1	9
383.447	1	19
384.643	1	23
385.839	1	22
387.035	1	20
388.230	1	11
389.426	1	13
390.622	1	14
391.817	1	3
393.013	1	18
394.208	1	17
395.404	1	25
396.599	1	12
397.795	1	27
398.990	1	24
400.186	1	19
401.381	1	21
402.576	1	17
403.771	1	17
404.967	1	9
406.162	1	4
407.357	1	12
408.552	1	19
409.747	1	-2
410.942	1	23
412.137	1	22
413.332	1	10
414.526	1	9
415.721	1	12
416.916	1	15
418.111	1	4
419.305	1	6
420.500	1	16
421.695	1	16
422.889	1	12
424.084	1	10
425.278	1	7
426.472	1	5
427.667	1	8
428.861	1	3
430.055	1	-3
431.250	1	-3
432.444	1	4
433.638	1	0
434.832	1	4
436.026	1	3
437.220	1	18
438.414	1	12
439.608	1	8
440.802	1	13
441.996	1	10
443.190	1	0
444.384	1	13
445.578	1	16
446.771	1	7
447.965	1	-1
449.159	1	3
450.352	1	23
451.546	1	9
452.739	1	-3
453.933	1	17
455.126	1	3
456.320	1	5
457.513	1	10
458.706	1	-2
459.899	1	12
461.093	1	7
462.286	1	15
463.479	1	12
464.672	1	2
465.865	1	-3
467.058	1	14
468.251	1	-4
469.444	1	5
470.637	1	4
471.830	1	13
473.023	1	-3
474.215	1	-6
475.408	1	7
476.601	1	8
477.793	1	1
478.986	1	1
480.179	1	3
481.371	1	4
482.564	1	-5
483.756	1	13
484.948	1	-2
486.141	1	3
487.333	1	15
488.525	1	7
489.718	1	-5
490.910	1	7
492.102	1	1
493.294	1	10
494.486	1	16
495.678	1	8
496.870	1	7
498.062	1	6
499.254	1	7
500.446	1	5
501.638	1	8
502.829	1	7
504.021	1	18
505.213	1	11
506.404	1	-4
507.596	1	4
508.788	1	15
509.979	1	2
511.171	1	15
512.362	1	12
513.553	1	-1
514.745	1	3
515.936	1	11
517.127	1	13
518.319	1	7
519.510	1	6
520.701	1	9
521.892	1	8
523.083	1	11
524.274	1	0
525.465	1	10
526.656	1	28
527.847	1	9
529.038	1	19
530.229	1	14
531.419	1	15
532.610	1	9
533.801	1	12
534.991	1	15
536.182	1	10
537.373	1	9
538.563	1	9
539.754	1	8
540.944	1	2
542.134	1	13
543.325	1	7
544.515	1	9
545.705	1	14
546.896	1	16
548.086	1	4
549.276	1	16
550.466	1	16
551.656	1	-2
552.846	1	8
554.036	1	13
555.226	1	-8
556.416	1	0
557.606	1	2
558.796	1	0
559.986	1	5
561.175	1	9
562.365	1	10
563.555	1	12
564.744	1	11
565.934	1	15
567.123	1	20
568.313	1	0
569.502	1	15
570.692	1	13
571.881	1	6
573.070	1	18
574.260	1	11
575.449	1	13
576.638	1	17
577.827	1	7
579.016	1	17
580.205	1	8
581.394	1	-3
582.583	1	-1
583.772	1	-1
584.961	1	9
586.150	1	9
587.339	1	4
588.528	1	4
589.717	1	-2
590.905	1	13
592.094	1	0
593.283	1	7
594.471	1	10
595.660	1	5
596.848	1	6
598.037	1	5
599.225	1	4
600.413	1	7
601.602	1	8
602.790	1	9
603.978	1	3
605.166	1	-2
606.355	1	-4
607.543	1	-2
608.731	1	-8
609.919	1	6
611.107	1	13
612.295	1	5
613.483	1	11
614.671	1	-2
615.858	1	9
617.046	1	4
618.234	1	1
619.422	1	0
620.609	1	12
621.797	1	0
622.985	1	-1
624.172	1	20
625.360	1	7
626.547	1	7
627.735	1	6
628.922	1	-3
630.109	1	4
631.297	1	-2
632.484	1	0
633.671	1	1
634.858	1	3
636.045	1	4
637.232	1	7
638.419	1	7
639.606	1	15
640.793	1	6
641.980	1	-6
643.167	1	14
644.354	1	3
645.541	1	-9
646.728	1	6
647.914	1	1
649.101	1	-6
650.288	1	-1
651.474	1	7
652.661	1	4
653.847	1	5
655.034	1	-2
656.220	1	9
657.406	1	9
658.593	1	-4
659.779	1	-6
660.965	1	0
662.152	1	6
663.338	1	-7
664.524	1	-9
665.710	1	6
666.896	1	-4
668.082	1	6
669.268	1	1
670.454	1	6
671.640	1	-10
672.826	1	-6
674.011	1	5
675.197	1	-5
676.383	1	6
677.569	1	4
678.754	1	-3
679.940	1	0
681.125	1	8
682.311	1	17
683.496	1	-13
684.682	1	2
685.867	1	4
687.053	1	6
688.238	1	10
688.746	1	5