File: Analysis/GaN_68K_200ms/GaN_sample E_spot4_UVVIS_68 K_200um_200 ms 2x2mm1_752.txt
340.368	1	-7
341.565	1	-4
342.763	1	-8
343.960	1	-5
345.157	1	6
346.354	1	-1
347.552	1	1
348.749	1	0
349.946	1	-1
351.143	1	-6
352.340	1	-2
353.537	1	-5
354.734	1	-2
355.931	1	4
357.127	1	8
358.324	1	-3
359.521	1	-3
360.718	1	-3
361.914	1	-2
363.111	1	10
364.308	1	-3
365.504	1	-7
366.701	1	-14
367.897	1	1
369.093	1	7
370.290	1	-10
371.486	1	7
372.682	1	2
373.879	1	6
375.075	1	2
376.271	1	-4
377.467	1	0
378.663	1	-1
379.859	1	-8
381.055	1	-5
382.251	1	0
383.447	1	9
384.643	1	-6
385.839	1	3
387.035	1	1
388.230	1	0
389.426	1	4
390.622	1	-2
391.817	1	-6
393.013	1	7
394.208	1	4
395.404	1	2
396.599	1	4
397.795	1	6
398.990	1	4
400.186	1	11
401.381	1	6
402.576	1	9
403.771	1	-1
404.967	1	5
406.162	1	1
407.357	1	6
408.552	1	-1
409.747	1	-4
410.942	1	3
412.137	1	18
413.332	1	5
414.526	1	1
415.721	1	1
416.916	1	-5
418.111	1	0
419.305	1	-5
420.500	1	0
421.695	1	-7
422.889	1	4
424.084	1	3
425.278	1	-11
426.472	1	-16
427.667	1	5
428.861	1	9
430.055	1	-10
431.250	1	-8
432.444	1	10
433.638	1	-2
434.832	1	-6
436.026	1	-4
437.220	1	11
438.414	1	5
439.608	1	-4
440.802	1	2
441.996	1	3
443.190	1	-1
444.384	1	-7
445.578	1	2
446.771	1	-1
447.965	1	-15
449.159	1	-11
450.352	1	9
451.546	1	3
452.739	1	-6
453.933	1	10
455.126	1	5
456.320	1	0
457.513	1	0
458.706	1	-1
459.899	1	15
461.093	1	1
462.286	1	13
463.479	1	17
464.672	1	-4
465.865	1	-6
467.058	1	16
468.251	1	-1
469.444	1	-4
470.637	1	13
471.830	1	12
473.023	1	-6
474.215	1	-2
475.408	1	4
476.601	1	-9
477.793	1	5
478.986	1	-5
480.179	1	3
481.371	1	0
482.564	1	-6
483.756	1	2
484.948	1	1
486.141	1	-7
487.333	1	1
488.525	1	-8
489.718	1	-10
490.910	1	-7
492.102	1	-7
493.294	1	9
494.486	1	10
495.678	1	7
496.870	1	7
498.062	1	1
499.254	1	0
500.446	1	1
501.638	1	-2
502.829	1	8
504.021	1	12
505.213	1	2
506.404	1	-9
507.596	1	7
508.788	1	4
509.979	1	2
511.171	1	6
512.362	1	-6
513.553	1	-3
514.745	1	-5
515.936	1	4
517.127	1	6
518.319	1	-9
519.510	1	1
520.701	1	-7
521.892	1	-10
523.083	1	-2
524.274	1	0
525.465	1	-6
526.656	1	12
527.847	1	-4
529.038	1	3
530.229	1	4
531.419	1	4
532.610	1	4
533.801	1	-1
534.991	1	2
536.182	1	0
537.373	1	-4
538.563	1	3
539.754	1	0
540.944	1	0
542.134	1	6
543.325	1	-13
544.515	1	-4
545.705	1	1
546.896	1	2
548.086	1	1
549.276	1	3
550.466	1	0
551.656	1	-12
552.846	1	3
554.036	1	6
555.226	1	-5
556.416	1	3
557.606	1	-11
558.796	1	-9
559.986	1	0
561.175	1	6
562.365	1	8
563.555	1	9
564.744	1	6
565.934	1	11
567.123	1	8
568.313	1	-14
569.502	1	2
570.692	1	8
571.881	1	3
573.070	1	11
574.260	1	-8
575.449	1	-2
576.638	1	1
577.827	1	0
579.016	1	8
580.205	1	2
581.394	1	2
582.583	1	-2
583.772	1	4
584.961	1	4
586.150	1	2
587.339	1	1
588.528	1	2
589.717	1	0
590.905	1	-4
592.094	1	2
593.283	1	-2
594.471	1	12
595.660	1	-4
596.848	1	0
598.037	1	0
599.225	1	-1
600.413	1	-6
601.602	1	11
602.790	1	-4
603.978	1	1
605.166	1	-3
606.355	1	16
607.543	1	-3
608.731	1	-8
609.919	1	0
611.107	1	5
612.295	1	1
613.483	1	7
614.671	1	1
615.858	1	7
617.046	1	7
618.234	1	5
619.422	1	-4
620.609	1	2
621.797	1	-1
622.985	1	4
624.172	1	12
625.360	1	-2
626.547	1	4
627.735	1	8
628.922	1	3
630.109	1	-5
631.297	1	0
632.484	1	-1
633.671	1	-6
634.858	1	8
636.045	1	-11
637.232	1	-11
638.419	1	9
639.606	1	12
640.793	1	5
641.980	1	-10
643.167	1	11
644.354	1	2
645.541	1	-9
646.728	1	1
647.914	1	-6
649.101	1	3
650.288	1	-4
651.474	1	8
652.661	1	0
653.847	1	-1
655.034	1	5
656.220	1	4
657.406	1	-3
658.593	1	-12
659.779	1	-3
660.965	1	0
662.152	1	-1
663.338	1	-2
664.524	1	-15
665.710	1	-8
666.896	1	-9
668.082	1	-10
669.268	1	-1
670.454	1	1
671.640	1	-20
672.826	1	-16
674.011	1	8
675.197	1	-8
676.383	1	-1
677.569	1	-12
678.754	1	1
679.940	1	0
681.125	1	1
682.311	1	-2
683.496	1	0
684.682	1	8
685.867	1	-4
687.053	1	5
688.238	1	-1
688.746	1	3