File: Analysis/GaN_68K_200ms/GaN_sample E_spot4_UVVIS_68 K_200um_200 ms 2x2mm1_293.txt
340.368	1	2
341.565	1	-5
342.763	1	1
343.960	1	-2
345.157	1	9
346.354	1	-2
347.552	1	1
348.749	1	8
349.946	1	11
351.143	1	-5
352.340	1	6
353.537	1	-1
354.734	1	-3
355.931	1	1
357.127	1	7
358.324	1	-3
359.521	1	2
360.718	1	0
361.914	1	4
363.111	1	15
364.308	1	13
365.504	1	0
366.701	1	1
367.897	1	6
369.093	1	6
370.290	1	10
371.486	1	11
372.682	1	0
373.879	1	10
375.075	1	12
376.271	1	1
377.467	1	-1
378.663	1	3
379.859	1	-2
381.055	1	-1
382.251	1	1
383.447	1	13
384.643	1	16
385.839	1	11
387.035	1	11
388.230	1	16
389.426	1	19
390.622	1	7
391.817	1	-3
393.013	1	7
394.208	1	18
395.404	1	14
396.599	1	6
397.795	1	14
398.990	1	11
400.186	1	12
401.381	1	-1
402.576	1	21
403.771	1	14
404.967	1	14
406.162	1	14
407.357	1	4
408.552	1	9
409.747	1	-1
410.942	1	5
412.137	1	11
413.332	1	0
414.526	1	3
415.721	1	6
416.916	1	3
418.111	1	11
419.305	1	1
420.500	1	1
421.695	1	9
422.889	1	6
424.084	1	16
425.278	1	1
426.472	1	-2
427.667	1	5
428.861	1	5
430.055	1	6
431.250	1	-7
432.444	1	7
433.638	1	7
434.832	1	-1
436.026	1	10
437.220	1	11
438.414	1	6
439.608	1	-4
440.802	1	9
441.996	1	4
443.190	1	-1
444.384	1	6
445.578	1	14
446.771	1	5
447.965	1	3
449.159	1	-2
450.352	1	11
451.546	1	1
452.739	1	5
453.933	1	8
455.126	1	0
456.320	1	3
457.513	1	11
458.706	1	0
459.899	1	15
461.093	1	-1
462.286	1	19
463.479	1	1
464.672	1	3
465.865	1	1
467.058	1	7
468.251	1	-6
469.444	1	-3
470.637	1	11
471.830	1	17
473.023	1	-7
474.215	1	-6
475.408	1	0
476.601	1	4
477.793	1	11
478.986	1	-6
480.179	1	8
481.371	1	-1
482.564	1	-11
483.756	1	8
484.948	1	1
486.141	1	-2
487.333	1	0
488.525	1	0
489.718	1	2
490.910	1	8
492.102	1	-3
493.294	1	8
494.486	1	11
495.678	1	8
496.870	1	3
498.062	1	1
499.254	1	-1
500.446	1	12
501.638	1	-1
502.829	1	8
504.021	1	20
505.213	1	2
506.404	1	2
507.596	1	12
508.788	1	2
509.979	1	0
511.171	1	11
512.362	1	9
513.553	1	6
514.745	1	6
515.936	1	8
517.127	1	2
518.319	1	11
519.510	1	8
520.701	1	7
521.892	1	-5
523.083	1	6
524.274	1	-5
525.465	1	4
526.656	1	22
527.847	1	-6
529.038	1	11
530.229	1	13
531.419	1	16
532.610	1	0
533.801	1	10
534.991	1	3
536.182	1	7
537.373	1	12
538.563	1	8
539.754	1	0
540.944	1	2
542.134	1	13
543.325	1	-1
544.515	1	5
545.705	1	14
546.896	1	1
548.086	1	8
549.276	1	14
550.466	1	-1
551.656	1	1
552.846	1	10
554.036	1	10
555.226	1	-7
556.416	1	5
557.606	1	-4
558.796	1	2
559.986	1	0
561.175	1	9
562.365	1	15
563.555	1	14
564.744	1	9
565.934	1	3
567.123	1	16
568.313	1	-1
569.502	1	13
570.692	1	7
571.881	1	12
573.070	1	6
574.260	1	5
575.449	1	9
576.638	1	8
577.827	1	5
579.016	1	19
580.205	1	6
581.394	1	-4
582.583	1	-4
583.772	1	5
584.961	1	2
586.150	1	2
587.339	1	13
588.528	1	16
589.717	1	2
590.905	1	2
592.094	1	10
593.283	1	9
594.471	1	1
595.660	1	3
596.848	1	12
598.037	1	5
599.225	1	4
600.413	1	5
601.602	1	2
602.790	1	6
603.978	1	-5
605.166	1	-1
606.355	1	15
607.543	1	-8
608.731	1	-2
609.919	1	-3
611.107	1	7
612.295	1	9
613.483	1	6
614.671	1	0
615.858	1	7
617.046	1	8
618.234	1	-6
619.422	1	-1
620.609	1	-2
621.797	1	7
622.985	1	2
624.172	1	25
625.360	1	1
626.547	1	7
627.735	1	-1
628.922	1	4
630.109	1	-2
631.297	1	-2
632.484	1	0
633.671	1	1
634.858	1	0
636.045	1	11
637.232	1	1
638.419	1	4
639.606	1	13
640.793	1	13
641.980	1	6
643.167	1	14
644.354	1	-4
645.541	1	-9
646.728	1	6
647.914	1	-10
649.101	1	3
650.288	1	4
651.474	1	2
652.661	1	5
653.847	1	10
655.034	1	3
656.220	1	13
657.406	1	2
658.593	1	-6
659.779	1	-3
660.965	1	8
662.152	1	3
663.338	1	-9
664.524	1	-7
665.710	1	4
666.896	1	2
668.082	1	-4
669.268	1	7
670.454	1	9
671.640	1	-15
672.826	1	-8
674.011	1	11
675.197	1	3
676.383	1	2
677.569	1	-4
678.754	1	7
679.940	1	1
681.125	1	4
682.311	1	6
683.496	1	-5
684.682	1	10
685.867	1	8
687.053	1	-1
688.238	1	5
688.746	1	7