File: Analysis/GaN_68K_200ms/GaN_sample E_spot4_UVVIS_68 K_200um_200 ms 2x2mm1_572.txt
340.368	1	3
341.565	1	-5
342.763	1	-1
343.960	1	-7
345.157	1	5
346.354	1	0
347.552	1	-8
348.749	1	5
349.946	1	5
351.143	1	-5
352.340	1	3
353.537	1	-5
354.734	1	-1
355.931	1	0
357.127	1	10
358.324	1	-6
359.521	1	1
360.718	1	-5
361.914	1	-7
363.111	1	16
364.308	1	-7
365.504	1	0
366.701	1	-3
367.897	1	-2
369.093	1	4
370.290	1	-6
371.486	1	7
372.682	1	6
373.879	1	13
375.075	1	8
376.271	1	5
377.467	1	-3
378.663	1	2
379.859	1	4
381.055	1	-4
382.251	1	8
383.447	1	4
384.643	1	3
385.839	1	4
387.035	1	6
388.230	1	-4
389.426	1	10
390.622	1	2
391.817	1	-2
393.013	1	12
394.208	1	6
395.404	1	1
396.599	1	2
397.795	1	7
398.990	1	6
400.186	1	7
401.381	1	6
402.576	1	13
403.771	1	4
404.967	1	6
406.162	1	-3
407.357	1	6
408.552	1	3
409.747	1	0
410.942	1	7
412.137	1	8
413.332	1	-4
414.526	1	1
415.721	1	1
416.916	1	-1
418.111	1	-1
419.305	1	0
420.500	1	1
421.695	1	4
422.889	1	9
424.084	1	0
425.278	1	-7
426.472	1	-5
427.667	1	14
428.861	1	5
430.055	1	-3
431.250	1	-4
432.444	1	0
433.638	1	-1
434.832	1	-3
436.026	1	2
437.220	1	8
438.414	1	-3
439.608	1	-1
440.802	1	-2
441.996	1	-4
443.190	1	-7
444.384	1	7
445.578	1	7
446.771	1	0
447.965	1	-14
449.159	1	-6
450.352	1	10
451.546	1	5
452.739	1	-9
453.933	1	9
455.126	1	-5
456.320	1	-5
457.513	1	6
458.706	1	0
459.899	1	9
461.093	1	1
462.286	1	9
463.479	1	5
464.672	1	5
465.865	1	-3
467.058	1	11
468.251	1	5
469.444	1	-6
470.637	1	11
471.830	1	13
473.023	1	-7
474.215	1	-9
475.408	1	7
476.601	1	2
477.793	1	3
478.986	1	5
480.179	1	-8
481.371	1	5
482.564	1	-6
483.756	1	8
484.948	1	-1
486.141	1	-17
487.333	1	0
488.525	1	-4
489.718	1	6
490.910	1	4
492.102	1	-9
493.294	1	3
494.486	1	2
495.678	1	7
496.870	1	8
498.062	1	0
499.254	1	-4
500.446	1	8
501.638	1	0
502.829	1	-1
504.021	1	20
505.213	1	-1
506.404	1	-2
507.596	1	3
508.788	1	-8
509.979	1	1
511.171	1	5
512.362	1	10
513.553	1	-10
514.745	1	-6
515.936	1	-4
517.127	1	5
518.319	1	-2
519.510	1	2
520.701	1	2
521.892	1	-9
523.083	1	0
524.274	1	1
525.465	1	-5
526.656	1	9
527.847	1	1
529.038	1	-1
530.229	1	1
531.419	1	3
532.610	1	6
533.801	1	14
534.991	1	-3
536.182	1	-2
537.373	1	2
538.563	1	5
539.754	1	-6
540.944	1	-8
542.134	1	9
543.325	1	0
544.515	1	-4
545.705	1	1
546.896	1	4
548.086	1	6
549.276	1	-1
550.466	1	3
551.656	1	-9
552.846	1	3
554.036	1	8
555.226	1	-11
556.416	1	5
557.606	1	-2
558.796	1	2
559.986	1	-8
561.175	1	-4
562.365	1	5
563.555	1	16
564.744	1	4
565.934	1	3
567.123	1	17
568.313	1	-7
569.502	1	0
570.692	1	2
571.881	1	8
573.070	1	2
574.260	1	5
575.449	1	3
576.638	1	-6
577.827	1	-1
579.016	1	11
580.205	1	7
581.394	1	-2
582.583	1	-4
583.772	1	2
584.961	1	4
586.150	1	1
587.339	1	6
588.528	1	7
589.717	1	3
590.905	1	3
592.094	1	3
593.283	1	15
594.471	1	-2
595.660	1	-5
596.848	1	8
598.037	1	6
599.225	1	4
600.413	1	-6
601.602	1	3
602.790	1	9
603.978	1	0
605.166	1	0
606.355	1	4
607.543	1	-1
608.731	1	-12
609.919	1	-4
611.107	1	13
612.295	1	-3
613.483	1	9
614.671	1	-2
615.858	1	7
617.046	1	6
618.234	1	-2
619.422	1	-9
620.609	1	16
621.797	1	6
622.985	1	10
624.172	1	15
625.360	1	-6
626.547	1	6
627.735	1	11
628.922	1	2
630.109	1	-6
631.297	1	-1
632.484	1	0
633.671	1	2
634.858	1	4
636.045	1	5
637.232	1	-9
638.419	1	3
639.606	1	2
640.793	1	1
641.980	1	-4
643.167	1	6
644.354	1	-16
645.541	1	-5
646.728	1	3
647.914	1	-1
649.101	1	-2
650.288	1	2
651.474	1	4
652.661	1	9
653.847	1	6
655.034	1	3
656.220	1	-1
657.406	1	10
658.593	1	-2
659.779	1	5
660.965	1	6
662.152	1	-2
663.338	1	-6
664.524	1	-14
665.710	1	-8
666.896	1	-3
668.082	1	-10
669.268	1	0
670.454	1	1
671.640	1	-9
672.826	1	-9
674.011	1	14
675.197	1	-4
676.383	1	1
677.569	1	-5
678.754	1	-1
679.940	1	-9
681.125	1	5
682.311	1	1
683.496	1	0
684.682	1	0
685.867	1	3
687.053	1	5
688.238	1	6
688.746	1	1