File: Analysis/GaN_68K_200ms/GaN_sample E_spot4_UVVIS_68 K_200um_200 ms 2x2mm1_191.txt
340.368	1	2
341.565	1	-1
342.763	1	1
343.960	1	3
345.157	1	9
346.354	1	0
347.552	1	2
348.749	1	11
349.946	1	10
351.143	1	-8
352.340	1	7
353.537	1	-2
354.734	1	4
355.931	1	14
357.127	1	7
358.324	1	5
359.521	1	2
360.718	1	15
361.914	1	12
363.111	1	12
364.308	1	13
365.504	1	10
366.701	1	9
367.897	1	24
369.093	1	18
370.290	1	17
371.486	1	30
372.682	1	0
373.879	1	20
375.075	1	17
376.271	1	13
377.467	1	10
378.663	1	6
379.859	1	8
381.055	1	16
382.251	1	23
383.447	1	21
384.643	1	32
385.839	1	23
387.035	1	25
388.230	1	29
389.426	1	32
390.622	1	27
391.817	1	21
393.013	1	37
394.208	1	21
395.404	1	20
396.599	1	21
397.795	1	27
398.990	1	27
400.186	1	32
401.381	1	27
402.576	1	25
403.771	1	21
404.967	1	9
406.162	1	14
407.357	1	19
408.552	1	25
409.747	1	18
410.942	1	25
412.137	1	13
413.332	1	22
414.526	1	17
415.721	1	13
416.916	1	11
418.111	1	15
419.305	1	24
420.500	1	16
421.695	1	10
422.889	1	14
424.084	1	11
425.278	1	7
426.472	1	9
427.667	1	19
428.861	1	9
430.055	1	10
431.250	1	-4
432.444	1	5
433.638	1	6
434.832	1	-3
436.026	1	7
437.220	1	21
438.414	1	14
439.608	1	11
440.802	1	10
441.996	1	4
443.190	1	-6
444.384	1	16
445.578	1	18
446.771	1	9
447.965	1	-1
449.159	1	0
450.352	1	18
451.546	1	12
452.739	1	5
453.933	1	16
455.126	1	8
456.320	1	5
457.513	1	11
458.706	1	16
459.899	1	8
461.093	1	17
462.286	1	11
463.479	1	10
464.672	1	2
465.865	1	-5
467.058	1	19
468.251	1	0
469.444	1	3
470.637	1	15
471.830	1	18
473.023	1	0
474.215	1	1
475.408	1	-2
476.601	1	8
477.793	1	5
478.986	1	-3
480.179	1	8
481.371	1	6
482.564	1	3
483.756	1	14
484.948	1	0
486.141	1	2
487.333	1	10
488.525	1	1
489.718	1	1
490.910	1	3
492.102	1	3
493.294	1	14
494.486	1	6
495.678	1	12
496.870	1	10
498.062	1	5
499.254	1	5
500.446	1	12
501.638	1	13
502.829	1	12
504.021	1	29
505.213	1	6
506.404	1	4
507.596	1	21
508.788	1	8
509.979	1	8
511.171	1	31
512.362	1	15
513.553	1	3
514.745	1	0
515.936	1	17
517.127	1	16
518.319	1	19
519.510	1	10
520.701	1	13
521.892	1	13
523.083	1	10
524.274	1	13
525.465	1	16
526.656	1	32
527.847	1	15
529.038	1	23
530.229	1	26
531.419	1	33
532.610	1	22
533.801	1	29
534.991	1	22
536.182	1	19
537.373	1	19
538.563	1	26
539.754	1	17
540.944	1	14
542.134	1	18
543.325	1	22
544.515	1	9
545.705	1	25
546.896	1	19
548.086	1	21
549.276	1	24
550.466	1	7
551.656	1	12
552.846	1	12
554.036	1	17
555.226	1	11
556.416	1	12
557.606	1	3
558.796	1	10
559.986	1	8
561.175	1	12
562.365	1	10
563.555	1	5
564.744	1	11
565.934	1	12
567.123	1	27
568.313	1	5
569.502	1	15
570.692	1	14
571.881	1	14
573.070	1	11
574.260	1	7
575.449	1	10
576.638	1	12
577.827	1	15
579.016	1	13
580.205	1	12
581.394	1	-2
582.583	1	5
583.772	1	11
584.961	1	24
586.150	1	12
587.339	1	7
588.528	1	12
589.717	1	7
590.905	1	12
592.094	1	6
593.283	1	7
594.471	1	14
595.660	1	8
596.848	1	14
598.037	1	10
599.225	1	11
600.413	1	7
601.602	1	18
602.790	1	2
603.978	1	2
605.166	1	-3
606.355	1	15
607.543	1	-2
608.731	1	0
609.919	1	4
611.107	1	5
612.295	1	8
613.483	1	11
614.671	1	8
615.858	1	17
617.046	1	12
618.234	1	1
619.422	1	5
620.609	1	4
621.797	1	8
622.985	1	8
624.172	1	9
625.360	1	-4
626.547	1	1
627.735	1	7
628.922	1	0
630.109	1	-1
631.297	1	13
632.484	1	7
633.671	1	0
634.858	1	11
636.045	1	2
637.232	1	10
638.419	1	16
639.606	1	16
640.793	1	14
641.980	1	10
643.167	1	10
644.354	1	-5
645.541	1	2
646.728	1	9
647.914	1	-2
649.101	1	2
650.288	1	0
651.474	1	5
652.661	1	2
653.847	1	3
655.034	1	8
656.220	1	17
657.406	1	9
658.593	1	0
659.779	1	-2
660.965	1	5
662.152	1	10
663.338	1	1
664.524	1	-9
665.710	1	-3
666.896	1	0
668.082	1	0
669.268	1	1
670.454	1	7
671.640	1	-5
672.826	1	-10
674.011	1	1
675.197	1	2
676.383	1	6
677.569	1	-10
678.754	1	-5
679.940	1	8
681.125	1	10
682.311	1	4
683.496	1	5
684.682	1	14
685.867	1	3
687.053	1	8
688.238	1	8
688.746	1	11