File: Analysis/GaN_68K_200ms/GaN_sample E_spot4_UVVIS_68 K_200um_200 ms 2x2mm1_428.txt
340.368	1	2
341.565	1	-8
342.763	1	0
343.960	1	-7
345.157	1	-4
346.354	1	4
347.552	1	12
348.749	1	1
349.946	1	12
351.143	1	-10
352.340	1	4
353.537	1	-5
354.734	1	4
355.931	1	1
357.127	1	5
358.324	1	-3
359.521	1	4
360.718	1	-8
361.914	1	-1
363.111	1	8
364.308	1	5
365.504	1	-7
366.701	1	3
367.897	1	2
369.093	1	0
370.290	1	0
371.486	1	7
372.682	1	2
373.879	1	16
375.075	1	6
376.271	1	-2
377.467	1	-4
378.663	1	-5
379.859	1	-6
381.055	1	7
382.251	1	5
383.447	1	15
384.643	1	9
385.839	1	4
387.035	1	5
388.230	1	13
389.426	1	14
390.622	1	4
391.817	1	5
393.013	1	21
394.208	1	11
395.404	1	10
396.599	1	8
397.795	1	9
398.990	1	13
400.186	1	17
401.381	1	5
402.576	1	23
403.771	1	10
404.967	1	11
406.162	1	-1
407.357	1	7
408.552	1	13
409.747	1	-4
410.942	1	5
412.137	1	9
413.332	1	2
414.526	1	9
415.721	1	0
416.916	1	-3
418.111	1	-1
419.305	1	-3
420.500	1	4
421.695	1	0
422.889	1	8
424.084	1	7
425.278	1	-6
426.472	1	0
427.667	1	7
428.861	1	4
430.055	1	7
431.250	1	-10
432.444	1	7
433.638	1	0
434.832	1	1
436.026	1	3
437.220	1	10
438.414	1	5
439.608	1	0
440.802	1	4
441.996	1	2
443.190	1	-4
444.384	1	-7
445.578	1	7
446.771	1	1
447.965	1	-7
449.159	1	-4
450.352	1	3
451.546	1	4
452.739	1	2
453.933	1	1
455.126	1	10
456.320	1	1
457.513	1	0
458.706	1	6
459.899	1	7
461.093	1	3
462.286	1	14
463.479	1	7
464.672	1	-4
465.865	1	3
467.058	1	9
468.251	1	-1
469.444	1	-3
470.637	1	8
471.830	1	18
473.023	1	-3
474.215	1	2
475.408	1	6
476.601	1	-7
477.793	1	13
478.986	1	-4
480.179	1	3
481.371	1	3
482.564	1	-11
483.756	1	12
484.948	1	5
486.141	1	-8
487.333	1	2
488.525	1	-4
489.718	1	2
490.910	1	-7
492.102	1	-6
493.294	1	6
494.486	1	5
495.678	1	13
496.870	1	-2
498.062	1	9
499.254	1	1
500.446	1	13
501.638	1	-2
502.829	1	1
504.021	1	21
505.213	1	3
506.404	1	0
507.596	1	7
508.788	1	-1
509.979	1	8
511.171	1	12
512.362	1	3
513.553	1	5
514.745	1	7
515.936	1	5
517.127	1	2
518.319	1	0
519.510	1	12
520.701	1	8
521.892	1	-2
523.083	1	3
524.274	1	6
525.465	1	6
526.656	1	22
527.847	1	-3
529.038	1	11
530.229	1	12
531.419	1	9
532.610	1	10
533.801	1	-1
534.991	1	1
536.182	1	3
537.373	1	2
538.563	1	6
539.754	1	-5
540.944	1	4
542.134	1	6
543.325	1	-1
544.515	1	-2
545.705	1	11
546.896	1	4
548.086	1	13
549.276	1	5
550.466	1	1
551.656	1	-6
552.846	1	11
554.036	1	7
555.226	1	-7
556.416	1	0
557.606	1	-7
558.796	1	-8
559.986	1	0
561.175	1	8
562.365	1	7
563.555	1	12
564.744	1	-5
565.934	1	7
567.123	1	20
568.313	1	2
569.502	1	1
570.692	1	4
571.881	1	3
573.070	1	0
574.260	1	11
575.449	1	-1
576.638	1	0
577.827	1	3
579.016	1	7
580.205	1	-2
581.394	1	-5
582.583	1	-11
583.772	1	2
584.961	1	2
586.150	1	3
587.339	1	1
588.528	1	-1
589.717	1	4
590.905	1	5
592.094	1	8
593.283	1	13
594.471	1	1
595.660	1	-6
596.848	1	6
598.037	1	-2
599.225	1	1
600.413	1	4
601.602	1	8
602.790	1	-7
603.978	1	9
605.166	1	-3
606.355	1	5
607.543	1	-2
608.731	1	-14
609.919	1	-7
611.107	1	6
612.295	1	1
613.483	1	3
614.671	1	4
615.858	1	3
617.046	1	4
618.234	1	0
619.422	1	-6
620.609	1	2
621.797	1	-8
622.985	1	11
624.172	1	10
625.360	1	3
626.547	1	2
627.735	1	4
628.922	1	3
630.109	1	-5
631.297	1	-1
632.484	1	0
633.671	1	9
634.858	1	10
636.045	1	12
637.232	1	3
638.419	1	11
639.606	1	8
640.793	1	8
641.980	1	-8
643.167	1	14
644.354	1	2
645.541	1	-10
646.728	1	2
647.914	1	-4
649.101	1	15
650.288	1	3
651.474	1	4
652.661	1	3
653.847	1	4
655.034	1	-5
656.220	1	9
657.406	1	-6
658.593	1	-2
659.779	1	3
660.965	1	4
662.152	1	5
663.338	1	-9
664.524	1	-4
665.710	1	9
666.896	1	-1
668.082	1	-4
669.268	1	-2
670.454	1	2
671.640	1	-15
672.826	1	-6
674.011	1	11
675.197	1	-4
676.383	1	-3
677.569	1	-6
678.754	1	3
679.940	1	3
681.125	1	11
682.311	1	-1
683.496	1	0
684.682	1	8
685.867	1	-1
687.053	1	16
688.238	1	0
688.746	1	5