File: Analysis/GaN_68K_200ms/GaN_sample E_spot4_UVVIS_68 K_200um_200 ms 2x2mm1_328.txt
340.368	1	0
341.565	1	-4
342.763	1	5
343.960	1	-10
345.157	1	17
346.354	1	1
347.552	1	-9
348.749	1	6
349.946	1	8
351.143	1	-12
352.340	1	2
353.537	1	-3
354.734	1	1
355.931	1	-4
357.127	1	-2
358.324	1	-6
359.521	1	-1
360.718	1	4
361.914	1	7
363.111	1	15
364.308	1	2
365.504	1	1
366.701	1	-7
367.897	1	12
369.093	1	10
370.290	1	6
371.486	1	14
372.682	1	5
373.879	1	9
375.075	1	13
376.271	1	2
377.467	1	-2
378.663	1	1
379.859	1	6
381.055	1	4
382.251	1	7
383.447	1	9
384.643	1	5
385.839	1	14
387.035	1	7
388.230	1	12
389.426	1	11
390.622	1	4
391.817	1	-5
393.013	1	6
394.208	1	17
395.404	1	17
396.599	1	7
397.795	1	15
398.990	1	16
400.186	1	18
401.381	1	10
402.576	1	17
403.771	1	10
404.967	1	17
406.162	1	5
407.357	1	1
408.552	1	6
409.747	1	10
410.942	1	7
412.137	1	16
413.332	1	13
414.526	1	1
415.721	1	-2
416.916	1	1
418.111	1	0
419.305	1	0
420.500	1	8
421.695	1	-1
422.889	1	13
424.084	1	-2
425.278	1	2
426.472	1	1
427.667	1	17
428.861	1	-3
430.055	1	3
431.250	1	-5
432.444	1	4
433.638	1	5
434.832	1	-7
436.026	1	13
437.220	1	11
438.414	1	-7
439.608	1	6
440.802	1	5
441.996	1	9
443.190	1	-5
444.384	1	4
445.578	1	11
446.771	1	2
447.965	1	-2
449.159	1	4
450.352	1	10
451.546	1	6
452.739	1	6
453.933	1	12
455.126	1	4
456.320	1	6
457.513	1	-3
458.706	1	-8
459.899	1	10
461.093	1	6
462.286	1	9
463.479	1	6
464.672	1	-1
465.865	1	-3
467.058	1	14
468.251	1	4
469.444	1	3
470.637	1	15
471.830	1	20
473.023	1	2
474.215	1	-7
475.408	1	-1
476.601	1	5
477.793	1	9
478.986	1	-2
480.179	1	4
481.371	1	1
482.564	1	-9
483.756	1	11
484.948	1	-6
486.141	1	-4
487.333	1	1
488.525	1	-2
489.718	1	5
490.910	1	1
492.102	1	-2
493.294	1	13
494.486	1	2
495.678	1	9
496.870	1	2
498.062	1	-4
499.254	1	7
500.446	1	10
501.638	1	2
502.829	1	7
504.021	1	23
505.213	1	3
506.404	1	-2
507.596	1	7
508.788	1	0
509.979	1	1
511.171	1	15
512.362	1	1
513.553	1	-3
514.745	1	2
515.936	1	3
517.127	1	5
518.319	1	7
519.510	1	8
520.701	1	11
521.892	1	-6
523.083	1	5
524.274	1	-8
525.465	1	7
526.656	1	18
527.847	1	0
529.038	1	8
530.229	1	9
531.419	1	21
532.610	1	1
533.801	1	5
534.991	1	2
536.182	1	9
537.373	1	-3
538.563	1	-2
539.754	1	4
540.944	1	9
542.134	1	11
543.325	1	3
544.515	1	0
545.705	1	12
546.896	1	1
548.086	1	13
549.276	1	8
550.466	1	6
551.656	1	-3
552.846	1	12
554.036	1	3
555.226	1	6
556.416	1	4
557.606	1	0
558.796	1	11
559.986	1	-2
561.175	1	3
562.365	1	10
563.555	1	11
564.744	1	10
565.934	1	15
567.123	1	15
568.313	1	-1
569.502	1	-6
570.692	1	9
571.881	1	8
573.070	1	13
574.260	1	6
575.449	1	7
576.638	1	7
577.827	1	7
579.016	1	12
580.205	1	11
581.394	1	0
582.583	1	-6
583.772	1	2
584.961	1	11
586.150	1	11
587.339	1	11
588.528	1	12
589.717	1	2
590.905	1	4
592.094	1	1
593.283	1	1
594.471	1	3
595.660	1	3
596.848	1	2
598.037	1	7
599.225	1	7
600.413	1	-1
601.602	1	4
602.790	1	1
603.978	1	4
605.166	1	1
606.355	1	0
607.543	1	-6
608.731	1	-3
609.919	1	-13
611.107	1	9
612.295	1	-6
613.483	1	10
614.671	1	-2
615.858	1	8
617.046	1	0
618.234	1	5
619.422	1	0
620.609	1	1
621.797	1	-1
622.985	1	8
624.172	1	16
625.360	1	-13
626.547	1	7
627.735	1	2
628.922	1	3
630.109	1	-3
631.297	1	-5
632.484	1	6
633.671	1	5
634.858	1	10
636.045	1	-3
637.232	1	-3
638.419	1	-1
639.606	1	3
640.793	1	13
641.980	1	-3
643.167	1	7
644.354	1	-1
645.541	1	-7
646.728	1	11
647.914	1	0
649.101	1	4
650.288	1	-7
651.474	1	8
652.661	1	4
653.847	1	5
655.034	1	7
656.220	1	13
657.406	1	-2
658.593	1	-4
659.779	1	0
660.965	1	8
662.152	1	-2
663.338	1	1
664.524	1	-7
665.710	1	-8
666.896	1	5
668.082	1	2
669.268	1	1
670.454	1	1
671.640	1	-9
672.826	1	-12
674.011	1	11
675.197	1	3
676.383	1	7
677.569	1	0
678.754	1	7
679.940	1	-4
681.125	1	9
682.311	1	6
683.496	1	0
684.682	1	9
685.867	1	-3
687.053	1	8
688.238	1	-6
688.746	1	3