File: Analysis/GaN_68K_200ms/GaN_sample E_spot4_UVVIS_68 K_200um_200 ms 2x2mm1_411.txt
340.368	1	2
341.565	1	0
342.763	1	3
343.960	1	-2
345.157	1	8
346.354	1	1
347.552	1	5
348.749	1	-3
349.946	1	-3
351.143	1	-8
352.340	1	2
353.537	1	3
354.734	1	-11
355.931	1	4
357.127	1	-3
358.324	1	1
359.521	1	0
360.718	1	-6
361.914	1	5
363.111	1	14
364.308	1	3
365.504	1	6
366.701	1	3
367.897	1	3
369.093	1	13
370.290	1	0
371.486	1	10
372.682	1	2
373.879	1	3
375.075	1	10
376.271	1	3
377.467	1	6
378.663	1	-12
379.859	1	4
381.055	1	0
382.251	1	8
383.447	1	8
384.643	1	14
385.839	1	12
387.035	1	-1
388.230	1	18
389.426	1	19
390.622	1	2
391.817	1	4
393.013	1	8
394.208	1	14
395.404	1	14
396.599	1	13
397.795	1	1
398.990	1	10
400.186	1	16
401.381	1	14
402.576	1	18
403.771	1	10
404.967	1	11
406.162	1	4
407.357	1	0
408.552	1	2
409.747	1	3
410.942	1	12
412.137	1	6
413.332	1	3
414.526	1	3
415.721	1	5
416.916	1	4
418.111	1	5
419.305	1	7
420.500	1	9
421.695	1	5
422.889	1	-1
424.084	1	8
425.278	1	-8
426.472	1	-4
427.667	1	4
428.861	1	1
430.055	1	-1
431.250	1	-1
432.444	1	4
433.638	1	4
434.832	1	-7
436.026	1	2
437.220	1	6
438.414	1	-2
439.608	1	1
440.802	1	6
441.996	1	4
443.190	1	-10
444.384	1	0
445.578	1	13
446.771	1	3
447.965	1	-9
449.159	1	-16
450.352	1	9
451.546	1	5
452.739	1	-2
453.933	1	15
455.126	1	7
456.320	1	-4
457.513	1	9
458.706	1	-2
459.899	1	14
461.093	1	10
462.286	1	18
463.479	1	5
464.672	1	3
465.865	1	0
467.058	1	9
468.251	1	2
469.444	1	5
470.637	1	6
471.830	1	14
473.023	1	-3
474.215	1	4
475.408	1	0
476.601	1	-6
477.793	1	-4
478.986	1	-2
480.179	1	5
481.371	1	-1
482.564	1	-10
483.756	1	12
484.948	1	-7
486.141	1	-6
487.333	1	1
488.525	1	7
489.718	1	2
490.910	1	3
492.102	1	-8
493.294	1	10
494.486	1	4
495.678	1	8
496.870	1	0
498.062	1	-5
499.254	1	4
500.446	1	6
501.638	1	10
502.829	1	-3
504.021	1	23
505.213	1	3
506.404	1	-6
507.596	1	11
508.788	1	-2
509.979	1	5
511.171	1	20
512.362	1	-3
513.553	1	-7
514.745	1	2
515.936	1	14
517.127	1	3
518.319	1	4
519.510	1	6
520.701	1	2
521.892	1	4
523.083	1	2
524.274	1	4
525.465	1	5
526.656	1	16
527.847	1	-3
529.038	1	12
530.229	1	7
531.419	1	13
532.610	1	2
533.801	1	7
534.991	1	5
536.182	1	9
537.373	1	3
538.563	1	4
539.754	1	4
540.944	1	0
542.134	1	14
543.325	1	-2
544.515	1	2
545.705	1	10
546.896	1	8
548.086	1	3
549.276	1	16
550.466	1	3
551.656	1	-6
552.846	1	14
554.036	1	2
555.226	1	-1
556.416	1	11
557.606	1	-6
558.796	1	-6
559.986	1	6
561.175	1	3
562.365	1	11
563.555	1	13
564.744	1	6
565.934	1	2
567.123	1	15
568.313	1	7
569.502	1	7
570.692	1	3
571.881	1	-1
573.070	1	4
574.260	1	5
575.449	1	3
576.638	1	8
577.827	1	3
579.016	1	1
580.205	1	6
581.394	1	-5
582.583	1	-7
583.772	1	0
584.961	1	7
586.150	1	5
587.339	1	6
588.528	1	6
589.717	1	5
590.905	1	-6
592.094	1	-2
593.283	1	9
594.471	1	-3
595.660	1	-5
596.848	1	6
598.037	1	2
599.225	1	-1
600.413	1	8
601.602	1	4
602.790	1	0
603.978	1	3
605.166	1	-4
606.355	1	6
607.543	1	1
608.731	1	-5
609.919	1	-3
611.107	1	13
612.295	1	6
613.483	1	9
614.671	1	13
615.858	1	3
617.046	1	-1
618.234	1	9
619.422	1	-5
620.609	1	7
621.797	1	2
622.985	1	0
624.172	1	10
625.360	1	-5
626.547	1	1
627.735	1	11
628.922	1	7
630.109	1	-7
631.297	1	-8
632.484	1	-9
633.671	1	3
634.858	1	10
636.045	1	-3
637.232	1	1
638.419	1	4
639.606	1	17
640.793	1	4
641.980	1	3
643.167	1	7
644.354	1	2
645.541	1	-19
646.728	1	5
647.914	1	2
649.101	1	4
650.288	1	-1
651.474	1	1
652.661	1	-1
653.847	1	3
655.034	1	6
656.220	1	1
657.406	1	-2
658.593	1	-9
659.779	1	-4
660.965	1	-1
662.152	1	-3
663.338	1	-10
664.524	1	-17
665.710	1	-8
666.896	1	-4
668.082	1	2
669.268	1	-1
670.454	1	5
671.640	1	-5
672.826	1	-11
674.011	1	10
675.197	1	-4
676.383	1	5
677.569	1	3
678.754	1	-2
679.940	1	-1
681.125	1	3
682.311	1	-1
683.496	1	-9
684.682	1	16
685.867	1	10
687.053	1	4
688.238	1	5
688.746	1	-2