File: Analysis/GaN_68K_200ms/GaN_sample E_spot4_UVVIS_68 K_200um_200 ms 2x2mm1_240.txt
340.368	1	1
341.565	1	-9
342.763	1	4
343.960	1	-7
345.157	1	10
346.354	1	3
347.552	1	-2
348.749	1	-1
349.946	1	13
351.143	1	3
352.340	1	5
353.537	1	1
354.734	1	-3
355.931	1	5
357.127	1	3
358.324	1	5
359.521	1	13
360.718	1	2
361.914	1	8
363.111	1	12
364.308	1	7
365.504	1	-1
366.701	1	8
367.897	1	10
369.093	1	14
370.290	1	8
371.486	1	18
372.682	1	2
373.879	1	19
375.075	1	8
376.271	1	3
377.467	1	5
378.663	1	-6
379.859	1	0
381.055	1	6
382.251	1	13
383.447	1	9
384.643	1	19
385.839	1	21
387.035	1	14
388.230	1	12
389.426	1	21
390.622	1	7
391.817	1	25
393.013	1	20
394.208	1	16
395.404	1	18
396.599	1	18
397.795	1	16
398.990	1	16
400.186	1	20
401.381	1	19
402.576	1	24
403.771	1	12
404.967	1	8
406.162	1	6
407.357	1	13
408.552	1	25
409.747	1	5
410.942	1	10
412.137	1	19
413.332	1	12
414.526	1	12
415.721	1	13
416.916	1	8
418.111	1	13
419.305	1	3
420.500	1	9
421.695	1	10
422.889	1	12
424.084	1	17
425.278	1	0
426.472	1	-6
427.667	1	17
428.861	1	1
430.055	1	0
431.250	1	3
432.444	1	14
433.638	1	7
434.832	1	2
436.026	1	5
437.220	1	15
438.414	1	5
439.608	1	7
440.802	1	-1
441.996	1	2
443.190	1	1
444.384	1	8
445.578	1	13
446.771	1	9
447.965	1	-6
449.159	1	2
450.352	1	6
451.546	1	7
452.739	1	-1
453.933	1	14
455.126	1	2
456.320	1	13
457.513	1	12
458.706	1	6
459.899	1	14
461.093	1	11
462.286	1	13
463.479	1	4
464.672	1	0
465.865	1	12
467.058	1	10
468.251	1	11
469.444	1	-2
470.637	1	11
471.830	1	16
473.023	1	-5
474.215	1	-1
475.408	1	13
476.601	1	5
477.793	1	20
478.986	1	-1
480.179	1	2
481.371	1	6
482.564	1	3
483.756	1	13
484.948	1	-1
486.141	1	-4
487.333	1	9
488.525	1	0
489.718	1	1
490.910	1	-4
492.102	1	-6
493.294	1	11
494.486	1	7
495.678	1	17
496.870	1	-4
498.062	1	2
499.254	1	4
500.446	1	3
501.638	1	10
502.829	1	18
504.021	1	25
505.213	1	8
506.404	1	2
507.596	1	11
508.788	1	6
509.979	1	6
511.171	1	17
512.362	1	6
513.553	1	-6
514.745	1	4
515.936	1	8
517.127	1	8
518.319	1	16
519.510	1	3
520.701	1	11
521.892	1	3
523.083	1	2
524.274	1	3
525.465	1	7
526.656	1	21
527.847	1	1
529.038	1	10
530.229	1	21
531.419	1	17
532.610	1	13
533.801	1	8
534.991	1	17
536.182	1	5
537.373	1	-1
538.563	1	6
539.754	1	11
540.944	1	5
542.134	1	19
543.325	1	6
544.515	1	10
545.705	1	6
546.896	1	9
548.086	1	10
549.276	1	1
550.466	1	3
551.656	1	2
552.846	1	14
554.036	1	16
555.226	1	-3
556.416	1	8
557.606	1	-4
558.796	1	9
559.986	1	4
561.175	1	16
562.365	1	8
563.555	1	9
564.744	1	8
565.934	1	12
567.123	1	18
568.313	1	5
569.502	1	2
570.692	1	11
571.881	1	11
573.070	1	4
574.260	1	3
575.449	1	1
576.638	1	5
577.827	1	12
579.016	1	11
580.205	1	5
581.394	1	6
582.583	1	-12
583.772	1	7
584.961	1	16
586.150	1	6
587.339	1	6
588.528	1	14
589.717	1	7
590.905	1	9
592.094	1	9
593.283	1	6
594.471	1	5
595.660	1	0
596.848	1	9
598.037	1	3
599.225	1	12
600.413	1	0
601.602	1	11
602.790	1	0
603.978	1	-7
605.166	1	1
606.355	1	12
607.543	1	-3
608.731	1	-3
609.919	1	-4
611.107	1	15
612.295	1	1
613.483	1	15
614.671	1	11
615.858	1	11
617.046	1	8
618.234	1	6
619.422	1	1
620.609	1	9
621.797	1	3
622.985	1	5
624.172	1	14
625.360	1	-7
626.547	1	3
627.735	1	4
628.922	1	3
630.109	1	0
631.297	1	-6
632.484	1	3
633.671	1	3
634.858	1	11
636.045	1	-7
637.232	1	7
638.419	1	6
639.606	1	13
640.793	1	6
641.980	1	-3
643.167	1	8
644.354	1	10
645.541	1	-14
646.728	1	5
647.914	1	-5
649.101	1	2
650.288	1	0
651.474	1	7
652.661	1	3
653.847	1	8
655.034	1	-2
656.220	1	10
657.406	1	2
658.593	1	-4
659.779	1	-5
660.965	1	7
662.152	1	7
663.338	1	-4
664.524	1	-9
665.710	1	3
666.896	1	-1
668.082	1	8
669.268	1	1
670.454	1	13
671.640	1	-9
672.826	1	-8
674.011	1	7
675.197	1	5
676.383	1	-1
677.569	1	4
678.754	1	7
679.940	1	-4
681.125	1	9
682.311	1	-2
683.496	1	-4
684.682	1	11
685.867	1	3
687.053	1	10
688.238	1	-5
688.746	1	13