File: Analysis/GaN_68K_200ms/GaN_sample E_spot4_UVVIS_68 K_200um_200 ms 2x2mm1_702.txt
340.368	1	5
341.565	1	-11
342.763	1	-1
343.960	1	1
345.157	1	-1
346.354	1	-5
347.552	1	-7
348.749	1	7
349.946	1	1
351.143	1	-9
352.340	1	5
353.537	1	-3
354.734	1	12
355.931	1	2
357.127	1	-3
358.324	1	-1
359.521	1	-2
360.718	1	-1
361.914	1	-4
363.111	1	10
364.308	1	1
365.504	1	-10
366.701	1	-11
367.897	1	-7
369.093	1	4
370.290	1	0
371.486	1	6
372.682	1	-2
373.879	1	10
375.075	1	11
376.271	1	0
377.467	1	1
378.663	1	-1
379.859	1	2
381.055	1	-5
382.251	1	-6
383.447	1	9
384.643	1	8
385.839	1	3
387.035	1	-6
388.230	1	1
389.426	1	-1
390.622	1	-5
391.817	1	-1
393.013	1	12
394.208	1	0
395.404	1	5
396.599	1	6
397.795	1	5
398.990	1	9
400.186	1	9
401.381	1	5
402.576	1	6
403.771	1	5
404.967	1	-6
406.162	1	-5
407.357	1	0
408.552	1	3
409.747	1	3
410.942	1	4
412.137	1	-1
413.332	1	6
414.526	1	8
415.721	1	0
416.916	1	2
418.111	1	3
419.305	1	-3
420.500	1	10
421.695	1	-3
422.889	1	3
424.084	1	2
425.278	1	-7
426.472	1	-1
427.667	1	1
428.861	1	0
430.055	1	-3
431.250	1	-2
432.444	1	5
433.638	1	1
434.832	1	-5
436.026	1	8
437.220	1	6
438.414	1	-2
439.608	1	-4
440.802	1	4
441.996	1	-3
443.190	1	-3
444.384	1	-4
445.578	1	4
446.771	1	5
447.965	1	-12
449.159	1	-10
450.352	1	-5
451.546	1	-1
452.739	1	-3
453.933	1	9
455.126	1	2
456.320	1	-2
457.513	1	10
458.706	1	1
459.899	1	3
461.093	1	12
462.286	1	3
463.479	1	16
464.672	1	-1
465.865	1	-18
467.058	1	1
468.251	1	-3
469.444	1	2
470.637	1	9
471.830	1	13
473.023	1	-3
474.215	1	-2
475.408	1	-3
476.601	1	4
477.793	1	3
478.986	1	8
480.179	1	-2
481.371	1	2
482.564	1	-9
483.756	1	7
484.948	1	0
486.141	1	-1
487.333	1	4
488.525	1	0
489.718	1	-10
490.910	1	-11
492.102	1	-13
493.294	1	0
494.486	1	4
495.678	1	5
496.870	1	3
498.062	1	-9
499.254	1	-2
500.446	1	6
501.638	1	-7
502.829	1	1
504.021	1	17
505.213	1	-5
506.404	1	-9
507.596	1	9
508.788	1	-9
509.979	1	12
511.171	1	9
512.362	1	-3
513.553	1	-9
514.745	1	-1
515.936	1	2
517.127	1	5
518.319	1	-1
519.510	1	-5
520.701	1	6
521.892	1	-6
523.083	1	-1
524.274	1	-9
525.465	1	-4
526.656	1	5
527.847	1	-5
529.038	1	10
530.229	1	1
531.419	1	12
532.610	1	4
533.801	1	9
534.991	1	-1
536.182	1	-4
537.373	1	-1
538.563	1	2
539.754	1	-2
540.944	1	-4
542.134	1	9
543.325	1	-3
544.515	1	3
545.705	1	10
546.896	1	-2
548.086	1	6
549.276	1	11
550.466	1	-1
551.656	1	-4
552.846	1	1
554.036	1	1
555.226	1	-9
556.416	1	-4
557.606	1	-13
558.796	1	0
559.986	1	1
561.175	1	2
562.365	1	1
563.555	1	0
564.744	1	5
565.934	1	9
567.123	1	17
568.313	1	-1
569.502	1	0
570.692	1	-2
571.881	1	3
573.070	1	4
574.260	1	2
575.449	1	7
576.638	1	5
577.827	1	2
579.016	1	19
580.205	1	-2
581.394	1	-1
582.583	1	-9
583.772	1	-11
584.961	1	-3
586.150	1	3
587.339	1	-2
588.528	1	5
589.717	1	-2
590.905	1	0
592.094	1	-3
593.283	1	6
594.471	1	0
595.660	1	2
596.848	1	9
598.037	1	2
599.225	1	0
600.413	1	3
601.602	1	6
602.790	1	5
603.978	1	-5
605.166	1	-2
606.355	1	5
607.543	1	-9
608.731	1	-11
609.919	1	-5
611.107	1	9
612.295	1	-5
613.483	1	8
614.671	1	4
615.858	1	5
617.046	1	1
618.234	1	1
619.422	1	4
620.609	1	-5
621.797	1	4
622.985	1	-1
624.172	1	12
625.360	1	-5
626.547	1	8
627.735	1	3
628.922	1	-5
630.109	1	-4
631.297	1	-2
632.484	1	-7
633.671	1	-3
634.858	1	4
636.045	1	13
637.232	1	-1
638.419	1	-1
639.606	1	16
640.793	1	9
641.980	1	-5
643.167	1	2
644.354	1	-4
645.541	1	-5
646.728	1	3
647.914	1	-8
649.101	1	-5
650.288	1	3
651.474	1	-7
652.661	1	-10
653.847	1	2
655.034	1	1
656.220	1	0
657.406	1	4
658.593	1	-5
659.779	1	-9
660.965	1	-3
662.152	1	-10
663.338	1	-1
664.524	1	-15
665.710	1	0
666.896	1	-7
668.082	1	-3
669.268	1	0
670.454	1	11
671.640	1	-7
672.826	1	-19
674.011	1	5
675.197	1	-12
676.383	1	-4
677.569	1	-8
678.754	1	-5
679.940	1	-3
681.125	1	2
682.311	1	2
683.496	1	1
684.682	1	1
685.867	1	2
687.053	1	6
688.238	1	3
688.746	1	5