File: Analysis/GaN_68K_200ms/GaN_sample E_spot4_UVVIS_68 K_200um_200 ms 2x2mm1_398.txt
340.368	1	3
341.565	1	-2
342.763	1	1
343.960	1	-1
345.157	1	5
346.354	1	-2
347.552	1	4
348.749	1	5
349.946	1	13
351.143	1	-4
352.340	1	2
353.537	1	-1
354.734	1	7
355.931	1	-4
357.127	1	7
358.324	1	4
359.521	1	0
360.718	1	1
361.914	1	2
363.111	1	9
364.308	1	-4
365.504	1	-3
366.701	1	-7
367.897	1	6
369.093	1	9
370.290	1	7
371.486	1	11
372.682	1	4
373.879	1	11
375.075	1	10
376.271	1	-2
377.467	1	5
378.663	1	5
379.859	1	1
381.055	1	9
382.251	1	11
383.447	1	14
384.643	1	2
385.839	1	5
387.035	1	13
388.230	1	12
389.426	1	10
390.622	1	1
391.817	1	5
393.013	1	19
394.208	1	9
395.404	1	14
396.599	1	6
397.795	1	13
398.990	1	17
400.186	1	3
401.381	1	6
402.576	1	17
403.771	1	18
404.967	1	7
406.162	1	-2
407.357	1	-2
408.552	1	9
409.747	1	-6
410.942	1	4
412.137	1	9
413.332	1	3
414.526	1	4
415.721	1	-4
416.916	1	5
418.111	1	7
419.305	1	-1
420.500	1	7
421.695	1	4
422.889	1	9
424.084	1	-1
425.278	1	2
426.472	1	1
427.667	1	1
428.861	1	2
430.055	1	4
431.250	1	-16
432.444	1	-4
433.638	1	4
434.832	1	-2
436.026	1	8
437.220	1	9
438.414	1	1
439.608	1	0
440.802	1	4
441.996	1	6
443.190	1	-4
444.384	1	13
445.578	1	17
446.771	1	0
447.965	1	-8
449.159	1	0
450.352	1	7
451.546	1	8
452.739	1	5
453.933	1	11
455.126	1	-1
456.320	1	-11
457.513	1	4
458.706	1	-2
459.899	1	9
461.093	1	1
462.286	1	5
463.479	1	17
464.672	1	0
465.865	1	-2
467.058	1	7
468.251	1	7
469.444	1	-2
470.637	1	10
471.830	1	7
473.023	1	-3
474.215	1	-2
475.408	1	0
476.601	1	4
477.793	1	8
478.986	1	6
480.179	1	2
481.371	1	1
482.564	1	-3
483.756	1	9
484.948	1	-8
486.141	1	4
487.333	1	4
488.525	1	-4
489.718	1	1
490.910	1	-1
492.102	1	-1
493.294	1	5
494.486	1	11
495.678	1	9
496.870	1	4
498.062	1	6
499.254	1	13
500.446	1	1
501.638	1	-4
502.829	1	-1
504.021	1	21
505.213	1	7
506.404	1	-8
507.596	1	2
508.788	1	-2
509.979	1	2
511.171	1	6
512.362	1	3
513.553	1	-9
514.745	1	-6
515.936	1	1
517.127	1	8
518.319	1	-1
519.510	1	0
520.701	1	2
521.892	1	-7
523.083	1	0
524.274	1	-6
525.465	1	-2
526.656	1	20
527.847	1	5
529.038	1	12
530.229	1	2
531.419	1	16
532.610	1	5
533.801	1	1
534.991	1	2
536.182	1	-10
537.373	1	-6
538.563	1	5
539.754	1	5
540.944	1	-3
542.134	1	10
543.325	1	6
544.515	1	16
545.705	1	12
546.896	1	1
548.086	1	8
549.276	1	3
550.466	1	-6
551.656	1	-7
552.846	1	21
554.036	1	-4
555.226	1	-6
556.416	1	10
557.606	1	-11
558.796	1	-6
559.986	1	2
561.175	1	4
562.365	1	-3
563.555	1	15
564.744	1	6
565.934	1	8
567.123	1	20
568.313	1	-6
569.502	1	3
570.692	1	12
571.881	1	9
573.070	1	13
574.260	1	-3
575.449	1	10
576.638	1	1
577.827	1	7
579.016	1	20
580.205	1	-1
581.394	1	-6
582.583	1	2
583.772	1	-3
584.961	1	1
586.150	1	1
587.339	1	6
588.528	1	10
589.717	1	-14
590.905	1	-2
592.094	1	9
593.283	1	6
594.471	1	-7
595.660	1	-8
596.848	1	-3
598.037	1	8
599.225	1	6
600.413	1	8
601.602	1	4
602.790	1	5
603.978	1	-2
605.166	1	-3
606.355	1	3
607.543	1	1
608.731	1	-6
609.919	1	-8
611.107	1	5
612.295	1	-4
613.483	1	5
614.671	1	8
615.858	1	0
617.046	1	-1
618.234	1	-6
619.422	1	-2
620.609	1	10
621.797	1	-1
622.985	1	1
624.172	1	10
625.360	1	-6
626.547	1	3
627.735	1	6
628.922	1	0
630.109	1	1
631.297	1	-3
632.484	1	2
633.671	1	-1
634.858	1	13
636.045	1	-1
637.232	1	2
638.419	1	13
639.606	1	12
640.793	1	-2
641.980	1	3
643.167	1	-1
644.354	1	2
645.541	1	-1
646.728	1	0
647.914	1	-4
649.101	1	-3
650.288	1	-6
651.474	1	2
652.661	1	3
653.847	1	6
655.034	1	12
656.220	1	3
657.406	1	4
658.593	1	-6
659.779	1	-6
660.965	1	6
662.152	1	-9
663.338	1	-3
664.524	1	-3
665.710	1	-4
666.896	1	-9
668.082	1	5
669.268	1	0
670.454	1	-2
671.640	1	-15
672.826	1	-6
674.011	1	-1
675.197	1	2
676.383	1	-1
677.569	1	5
678.754	1	-2
679.940	1	-5
681.125	1	6
682.311	1	4
683.496	1	0
684.682	1	7
685.867	1	-2
687.053	1	14
688.238	1	-7
688.746	1	8