File: Analysis/GaN_68K_200ms/GaN_sample E_spot4_UVVIS_68 K_200um_200 ms 2x2mm1_320.txt
340.368	1	-6
341.565	1	-4
342.763	1	-4
343.960	1	-1
345.157	1	3
346.354	1	13
347.552	1	0
348.749	1	18
349.946	1	2
351.143	1	-1
352.340	1	1
353.537	1	6
354.734	1	1
355.931	1	4
357.127	1	3
358.324	1	5
359.521	1	2
360.718	1	5
361.914	1	2
363.111	1	7
364.308	1	0
365.504	1	2
366.701	1	-6
367.897	1	0
369.093	1	10
370.290	1	9
371.486	1	6
372.682	1	-2
373.879	1	5
375.075	1	6
376.271	1	-5
377.467	1	-2
378.663	1	-3
379.859	1	0
381.055	1	2
382.251	1	1
383.447	1	9
384.643	1	15
385.839	1	16
387.035	1	5
388.230	1	2
389.426	1	17
390.622	1	1
391.817	1	9
393.013	1	8
394.208	1	6
395.404	1	17
396.599	1	7
397.795	1	11
398.990	1	14
400.186	1	18
401.381	1	5
402.576	1	18
403.771	1	10
404.967	1	14
406.162	1	9
407.357	1	15
408.552	1	7
409.747	1	5
410.942	1	9
412.137	1	19
413.332	1	-2
414.526	1	4
415.721	1	5
416.916	1	-2
418.111	1	4
419.305	1	0
420.500	1	14
421.695	1	5
422.889	1	10
424.084	1	10
425.278	1	-3
426.472	1	-11
427.667	1	10
428.861	1	5
430.055	1	3
431.250	1	-1
432.444	1	3
433.638	1	0
434.832	1	5
436.026	1	1
437.220	1	13
438.414	1	2
439.608	1	6
440.802	1	-1
441.996	1	10
443.190	1	0
444.384	1	6
445.578	1	17
446.771	1	7
447.965	1	-2
449.159	1	-3
450.352	1	8
451.546	1	2
452.739	1	5
453.933	1	3
455.126	1	14
456.320	1	3
457.513	1	5
458.706	1	-8
459.899	1	11
461.093	1	5
462.286	1	13
463.479	1	11
464.672	1	-4
465.865	1	2
467.058	1	11
468.251	1	-1
469.444	1	2
470.637	1	20
471.830	1	11
473.023	1	0
474.215	1	7
475.408	1	2
476.601	1	5
477.793	1	6
478.986	1	-8
480.179	1	8
481.371	1	3
482.564	1	0
483.756	1	1
484.948	1	-10
486.141	1	-16
487.333	1	-6
488.525	1	2
489.718	1	-6
490.910	1	-2
492.102	1	-7
493.294	1	13
494.486	1	4
495.678	1	23
496.870	1	-7
498.062	1	0
499.254	1	5
500.446	1	12
501.638	1	5
502.829	1	6
504.021	1	25
505.213	1	-6
506.404	1	-4
507.596	1	0
508.788	1	2
509.979	1	0
511.171	1	12
512.362	1	8
513.553	1	-5
514.745	1	8
515.936	1	10
517.127	1	8
518.319	1	5
519.510	1	7
520.701	1	8
521.892	1	5
523.083	1	2
524.274	1	-4
525.465	1	-1
526.656	1	23
527.847	1	3
529.038	1	10
530.229	1	5
531.419	1	17
532.610	1	6
533.801	1	3
534.991	1	-2
536.182	1	13
537.373	1	2
538.563	1	0
539.754	1	1
540.944	1	3
542.134	1	7
543.325	1	2
544.515	1	4
545.705	1	5
546.896	1	10
548.086	1	15
549.276	1	10
550.466	1	2
551.656	1	-2
552.846	1	0
554.036	1	1
555.226	1	-1
556.416	1	-2
557.606	1	-2
558.796	1	6
559.986	1	-6
561.175	1	-2
562.365	1	11
563.555	1	15
564.744	1	13
565.934	1	7
567.123	1	10
568.313	1	1
569.502	1	-3
570.692	1	8
571.881	1	6
573.070	1	4
574.260	1	-3
575.449	1	4
576.638	1	-2
577.827	1	7
579.016	1	11
580.205	1	-1
581.394	1	-3
582.583	1	1
583.772	1	5
584.961	1	9
586.150	1	6
587.339	1	12
588.528	1	5
589.717	1	7
590.905	1	13
592.094	1	3
593.283	1	2
594.471	1	2
595.660	1	8
596.848	1	9
598.037	1	4
599.225	1	3
600.413	1	8
601.602	1	4
602.790	1	-4
603.978	1	6
605.166	1	-1
606.355	1	3
607.543	1	-6
608.731	1	-6
609.919	1	-2
611.107	1	8
612.295	1	6
613.483	1	4
614.671	1	1
615.858	1	4
617.046	1	12
618.234	1	7
619.422	1	6
620.609	1	-7
621.797	1	8
622.985	1	11
624.172	1	14
625.360	1	-10
626.547	1	-5
627.735	1	10
628.922	1	2
630.109	1	-7
631.297	1	-7
632.484	1	-8
633.671	1	11
634.858	1	10
636.045	1	1
637.232	1	-5
638.419	1	10
639.606	1	11
640.793	1	5
641.980	1	-2
643.167	1	9
644.354	1	6
645.541	1	-1
646.728	1	9
647.914	1	1
649.101	1	10
650.288	1	2
651.474	1	3
652.661	1	1
653.847	1	1
655.034	1	7
656.220	1	1
657.406	1	10
658.593	1	-10
659.779	1	2
660.965	1	3
662.152	1	5
663.338	1	0
664.524	1	-5
665.710	1	-2
666.896	1	3
668.082	1	3
669.268	1	3
670.454	1	3
671.640	1	-19
672.826	1	-6
674.011	1	1
675.197	1	-4
676.383	1	-1
677.569	1	1
678.754	1	3
679.940	1	-8
681.125	1	5
682.311	1	0
683.496	1	-5
684.682	1	2
685.867	1	-1
687.053	1	1
688.238	1	6
688.746	1	14