File: Analysis/GaN_68K_200ms/GaN_sample E_spot4_UVVIS_68 K_200um_200 ms 2x2mm1_55.txt
340.368	1	-1
341.565	1	-3
342.763	1	-5
343.960	1	2
345.157	1	2
346.354	1	-2
347.552	1	2
348.749	1	9
349.946	1	1
351.143	1	0
352.340	1	-4
353.537	1	7
354.734	1	-8
355.931	1	3
357.127	1	-4
358.324	1	4
359.521	1	-1
360.718	1	-11
361.914	1	-6
363.111	1	13
364.308	1	1
365.504	1	-2
366.701	1	-10
367.897	1	2
369.093	1	3
370.290	1	1
371.486	1	7
372.682	1	0
373.879	1	7
375.075	1	19
376.271	1	4
377.467	1	-13
378.663	1	0
379.859	1	-5
381.055	1	-4
382.251	1	9
383.447	1	12
384.643	1	0
385.839	1	7
387.035	1	-6
388.230	1	0
389.426	1	1
390.622	1	0
391.817	1	-6
393.013	1	0
394.208	1	7
395.404	1	0
396.599	1	0
397.795	1	12
398.990	1	2
400.186	1	1
401.381	1	5
402.576	1	11
403.771	1	-1
404.967	1	1
406.162	1	-4
407.357	1	3
408.552	1	6
409.747	1	-5
410.942	1	3
412.137	1	3
413.332	1	1
414.526	1	4
415.721	1	-1
416.916	1	3
418.111	1	4
419.305	1	-4
420.500	1	7
421.695	1	2
422.889	1	2
424.084	1	4
425.278	1	0
426.472	1	3
427.667	1	8
428.861	1	-1
430.055	1	1
431.250	1	-8
432.444	1	6
433.638	1	1
434.832	1	-1
436.026	1	-1
437.220	1	12
438.414	1	1
439.608	1	-1
440.802	1	12
441.996	1	1
443.190	1	-9
444.384	1	0
445.578	1	5
446.771	1	-1
447.965	1	-1
449.159	1	0
450.352	1	3
451.546	1	2
452.739	1	4
453.933	1	7
455.126	1	3
456.320	1	10
457.513	1	5
458.706	1	3
459.899	1	15
461.093	1	-2
462.286	1	8
463.479	1	14
464.672	1	0
465.865	1	-7
467.058	1	4
468.251	1	5
469.444	1	-8
470.637	1	7
471.830	1	13
473.023	1	-2
474.215	1	-6
475.408	1	5
476.601	1	6
477.793	1	10
478.986	1	-2
480.179	1	7
481.371	1	-3
482.564	1	-12
483.756	1	14
484.948	1	-2
486.141	1	1
487.333	1	3
488.525	1	-2
489.718	1	0
490.910	1	-9
492.102	1	0
493.294	1	2
494.486	1	7
495.678	1	10
496.870	1	1
498.062	1	-1
499.254	1	-10
500.446	1	-2
501.638	1	3
502.829	1	0
504.021	1	22
505.213	1	9
506.404	1	-1
507.596	1	9
508.788	1	9
509.979	1	-3
511.171	1	8
512.362	1	-3
513.553	1	-4
514.745	1	-4
515.936	1	5
517.127	1	-7
518.319	1	-3
519.510	1	0
520.701	1	13
521.892	1	-2
523.083	1	1
524.274	1	-5
525.465	1	4
526.656	1	19
527.847	1	-10
529.038	1	2
530.229	1	0
531.419	1	10
532.610	1	6
533.801	1	4
534.991	1	-3
536.182	1	0
537.373	1	-12
538.563	1	-3
539.754	1	-5
540.944	1	-11
542.134	1	7
543.325	1	1
544.515	1	-1
545.705	1	12
546.896	1	7
548.086	1	5
549.276	1	8
550.466	1	-4
551.656	1	-6
552.846	1	3
554.036	1	3
555.226	1	-10
556.416	1	2
557.606	1	-6
558.796	1	2
559.986	1	-4
561.175	1	3
562.365	1	1
563.555	1	16
564.744	1	0
565.934	1	15
567.123	1	19
568.313	1	-4
569.502	1	0
570.692	1	5
571.881	1	6
573.070	1	-3
574.260	1	-4
575.449	1	18
576.638	1	-2
577.827	1	-2
579.016	1	12
580.205	1	-1
581.394	1	0
582.583	1	-12
583.772	1	10
584.961	1	2
586.150	1	-6
587.339	1	15
588.528	1	-3
589.717	1	-4
590.905	1	13
592.094	1	2
593.283	1	7
594.471	1	1
595.660	1	-5
596.848	1	4
598.037	1	7
599.225	1	-3
600.413	1	0
601.602	1	3
602.790	1	8
603.978	1	4
605.166	1	8
606.355	1	6
607.543	1	-5
608.731	1	-10
609.919	1	-2
611.107	1	4
612.295	1	-2
613.483	1	12
614.671	1	8
615.858	1	2
617.046	1	1
618.234	1	4
619.422	1	-4
620.609	1	3
621.797	1	-3
622.985	1	-6
624.172	1	8
625.360	1	3
626.547	1	12
627.735	1	5
628.922	1	-2
630.109	1	3
631.297	1	-1
632.484	1	-8
633.671	1	0
634.858	1	9
636.045	1	5
637.232	1	-1
638.419	1	7
639.606	1	18
640.793	1	1
641.980	1	1
643.167	1	15
644.354	1	3
645.541	1	-9
646.728	1	4
647.914	1	-2
649.101	1	-1
650.288	1	4
651.474	1	6
652.661	1	9
653.847	1	12
655.034	1	-2
656.220	1	0
657.406	1	3
658.593	1	-3
659.779	1	0
660.965	1	3
662.152	1	6
663.338	1	-5
664.524	1	-5
665.710	1	-3
666.896	1	5
668.082	1	-5
669.268	1	-3
670.454	1	7
671.640	1	-4
672.826	1	-14
674.011	1	-2
675.197	1	-8
676.383	1	-5
677.569	1	-1
678.754	1	5
679.940	1	10
681.125	1	8
682.311	1	0
683.496	1	-3
684.682	1	-2
685.867	1	2
687.053	1	10
688.238	1	3
688.746	1	3