File: Analysis/GaN_68K_200ms/GaN_sample E_spot4_UVVIS_68 K_200um_200 ms 2x2mm1_435.txt
340.368	1	0
341.565	1	-10
342.763	1	-4
343.960	1	4
345.157	1	9
346.354	1	0
347.552	1	-3
348.749	1	0
349.946	1	1
351.143	1	-12
352.340	1	-3
353.537	1	0
354.734	1	1
355.931	1	5
357.127	1	0
358.324	1	-3
359.521	1	4
360.718	1	-3
361.914	1	0
363.111	1	12
364.308	1	1
365.504	1	-3
366.701	1	8
367.897	1	4
369.093	1	2
370.290	1	0
371.486	1	11
372.682	1	-1
373.879	1	7
375.075	1	10
376.271	1	5
377.467	1	3
378.663	1	2
379.859	1	-10
381.055	1	3
382.251	1	9
383.447	1	8
384.643	1	8
385.839	1	6
387.035	1	4
388.230	1	0
389.426	1	9
390.622	1	-3
391.817	1	7
393.013	1	2
394.208	1	11
395.404	1	3
396.599	1	5
397.795	1	14
398.990	1	16
400.186	1	8
401.381	1	13
402.576	1	16
403.771	1	3
404.967	1	8
406.162	1	4
407.357	1	3
408.552	1	10
409.747	1	0
410.942	1	11
412.137	1	14
413.332	1	1
414.526	1	0
415.721	1	8
416.916	1	0
418.111	1	5
419.305	1	5
420.500	1	5
421.695	1	6
422.889	1	10
424.084	1	10
425.278	1	-5
426.472	1	-5
427.667	1	8
428.861	1	-8
430.055	1	1
431.250	1	-5
432.444	1	3
433.638	1	-2
434.832	1	3
436.026	1	7
437.220	1	8
438.414	1	0
439.608	1	5
440.802	1	-4
441.996	1	0
443.190	1	-4
444.384	1	2
445.578	1	9
446.771	1	-5
447.965	1	-13
449.159	1	-8
450.352	1	10
451.546	1	11
452.739	1	0
453.933	1	9
455.126	1	5
456.320	1	2
457.513	1	6
458.706	1	9
459.899	1	7
461.093	1	-2
462.286	1	8
463.479	1	9
464.672	1	4
465.865	1	2
467.058	1	4
468.251	1	-11
469.444	1	4
470.637	1	7
471.830	1	6
473.023	1	-7
474.215	1	-7
475.408	1	-3
476.601	1	-2
477.793	1	6
478.986	1	-1
480.179	1	14
481.371	1	4
482.564	1	0
483.756	1	4
484.948	1	-3
486.141	1	-8
487.333	1	0
488.525	1	1
489.718	1	-7
490.910	1	-8
492.102	1	-5
493.294	1	5
494.486	1	1
495.678	1	8
496.870	1	3
498.062	1	-3
499.254	1	3
500.446	1	-3
501.638	1	5
502.829	1	17
504.021	1	24
505.213	1	2
506.404	1	-5
507.596	1	3
508.788	1	7
509.979	1	-3
511.171	1	11
512.362	1	1
513.553	1	-11
514.745	1	-2
515.936	1	4
517.127	1	4
518.319	1	2
519.510	1	-2
520.701	1	1
521.892	1	-3
523.083	1	-5
524.274	1	6
525.465	1	3
526.656	1	16
527.847	1	3
529.038	1	4
530.229	1	1
531.419	1	11
532.610	1	5
533.801	1	4
534.991	1	6
536.182	1	5
537.373	1	-6
538.563	1	6
539.754	1	-4
540.944	1	1
542.134	1	5
543.325	1	-2
544.515	1	2
545.705	1	14
546.896	1	9
548.086	1	13
549.276	1	14
550.466	1	-2
551.656	1	-3
552.846	1	7
554.036	1	1
555.226	1	-8
556.416	1	-4
557.606	1	-14
558.796	1	3
559.986	1	-9
561.175	1	-6
562.365	1	10
563.555	1	10
564.744	1	4
565.934	1	13
567.123	1	11
568.313	1	1
569.502	1	2
570.692	1	2
571.881	1	-1
573.070	1	11
574.260	1	3
575.449	1	14
576.638	1	1
577.827	1	5
579.016	1	-1
580.205	1	4
581.394	1	-5
582.583	1	-1
583.772	1	2
584.961	1	-1
586.150	1	13
587.339	1	2
588.528	1	10
589.717	1	0
590.905	1	0
592.094	1	10
593.283	1	8
594.471	1	-6
595.660	1	-4
596.848	1	5
598.037	1	3
599.225	1	5
600.413	1	5
601.602	1	11
602.790	1	1
603.978	1	0
605.166	1	-5
606.355	1	12
607.543	1	-3
608.731	1	-5
609.919	1	2
611.107	1	10
612.295	1	-2
613.483	1	3
614.671	1	1
615.858	1	8
617.046	1	12
618.234	1	0
619.422	1	-3
620.609	1	-1
621.797	1	5
622.985	1	5
624.172	1	12
625.360	1	-10
626.547	1	5
627.735	1	12
628.922	1	-8
630.109	1	-3
631.297	1	-4
632.484	1	-2
633.671	1	2
634.858	1	5
636.045	1	4
637.232	1	2
638.419	1	-2
639.606	1	8
640.793	1	4
641.980	1	5
643.167	1	3
644.354	1	2
645.541	1	-5
646.728	1	6
647.914	1	0
649.101	1	-6
650.288	1	6
651.474	1	2
652.661	1	4
653.847	1	5
655.034	1	2
656.220	1	10
657.406	1	9
658.593	1	-6
659.779	1	0
660.965	1	9
662.152	1	5
663.338	1	-3
664.524	1	-1
665.710	1	4
666.896	1	0
668.082	1	-4
669.268	1	2
670.454	1	-4
671.640	1	-16
672.826	1	-14
674.011	1	2
675.197	1	0
676.383	1	-9
677.569	1	-2
678.754	1	-3
679.940	1	-2
681.125	1	6
682.311	1	-2
683.496	1	1
684.682	1	6
685.867	1	5
687.053	1	-6
688.238	1	7
688.746	1	1