File: Analysis/GaN_68K_200ms/GaN_sample E_spot4_UVVIS_68 K_200um_200 ms 2x2mm1_119.txt
340.368	1	7
341.565	1	6
342.763	1	13
343.960	1	12
345.157	1	19
346.354	1	15
347.552	1	19
348.749	1	14
349.946	1	15
351.143	1	13
352.340	1	7
353.537	1	19
354.734	1	26
355.931	1	25
357.127	1	20
358.324	1	33
359.521	1	56
360.718	1	85
361.914	1	137
363.111	1	254
364.308	1	437
365.504	1	689
366.701	1	832
367.897	1	782
369.093	1	602
370.290	1	424
371.486	1	329
372.682	1	278
373.879	1	260
375.075	1	213
376.271	1	184
377.467	1	168
378.663	1	167
379.859	1	226
381.055	1	320
382.251	1	469
383.447	1	808
384.643	1	1279
385.839	1	1775
387.035	1	2062
388.230	1	2069
389.426	1	1945
390.622	1	1852
391.817	1	1727
393.013	1	1578
394.208	1	1496
395.404	1	1557
396.599	1	1768
397.795	1	1886
398.990	1	1823
400.186	1	1662
401.381	1	1484
402.576	1	1320
403.771	1	1213
404.967	1	1141
406.162	1	1124
407.357	1	1081
408.552	1	1049
409.747	1	1015
410.942	1	966
412.137	1	908
413.332	1	786
414.526	1	694
415.721	1	667
416.916	1	614
418.111	1	585
419.305	1	596
420.500	1	540
421.695	1	516
422.889	1	442
424.084	1	419
425.278	1	382
426.472	1	365
427.667	1	363
428.861	1	329
430.055	1	297
431.250	1	282
432.444	1	257
433.638	1	240
434.832	1	230
436.026	1	216
437.220	1	213
438.414	1	197
439.608	1	174
440.802	1	172
441.996	1	148
443.190	1	145
444.384	1	141
445.578	1	149
446.771	1	143
447.965	1	122
449.159	1	113
450.352	1	105
451.546	1	108
452.739	1	101
453.933	1	109
455.126	1	95
456.320	1	94
457.513	1	93
458.706	1	88
459.899	1	91
461.093	1	76
462.286	1	72
463.479	1	76
464.672	1	69
465.865	1	57
467.058	1	70
468.251	1	69
469.444	1	60
470.637	1	76
471.830	1	68
473.023	1	46
474.215	1	51
475.408	1	65
476.601	1	45
477.793	1	63
478.986	1	57
480.179	1	67
481.371	1	55
482.564	1	46
483.756	1	67
484.948	1	55
486.141	1	56
487.333	1	63
488.525	1	62
489.718	1	64
490.910	1	72
492.102	1	83
493.294	1	86
494.486	1	90
495.678	1	99
496.870	1	87
498.062	1	93
499.254	1	104
500.446	1	110
501.638	1	124
502.829	1	129
504.021	1	159
505.213	1	139
506.404	1	150
507.596	1	157
508.788	1	187
509.979	1	183
511.171	1	200
512.362	1	199
513.553	1	208
514.745	1	213
515.936	1	219
517.127	1	242
518.319	1	243
519.510	1	247
520.701	1	256
521.892	1	255
523.083	1	269
524.274	1	261
525.465	1	262
526.656	1	293
527.847	1	281
529.038	1	305
530.229	1	320
531.419	1	315
532.610	1	311
533.801	1	304
534.991	1	315
536.182	1	304
537.373	1	300
538.563	1	293
539.754	1	283
540.944	1	283
542.134	1	298
543.325	1	285
544.515	1	273
545.705	1	279
546.896	1	280
548.086	1	279
549.276	1	278
550.466	1	274
551.656	1	271
552.846	1	267
554.036	1	257
555.226	1	243
556.416	1	230
557.606	1	216
558.796	1	236
559.986	1	205
561.175	1	225
562.365	1	223
563.555	1	214
564.744	1	224
565.934	1	212
567.123	1	216
568.313	1	182
569.502	1	193
570.692	1	189
571.881	1	189
573.070	1	174
574.260	1	156
575.449	1	176
576.638	1	157
577.827	1	161
579.016	1	153
580.205	1	154
581.394	1	139
582.583	1	131
583.772	1	138
584.961	1	140
586.150	1	148
587.339	1	136
588.528	1	129
589.717	1	122
590.905	1	109
592.094	1	115
593.283	1	120
594.471	1	115
595.660	1	102
596.848	1	108
598.037	1	106
599.225	1	96
600.413	1	102
601.602	1	96
602.790	1	105
603.978	1	86
605.166	1	91
606.355	1	108
607.543	1	84
608.731	1	89
609.919	1	87
611.107	1	94
612.295	1	94
613.483	1	87
614.671	1	87
615.858	1	93
617.046	1	83
618.234	1	75
619.422	1	71
620.609	1	72
621.797	1	75
622.985	1	80
624.172	1	78
625.360	1	65
626.547	1	67
627.735	1	67
628.922	1	52
630.109	1	59
631.297	1	55
632.484	1	60
633.671	1	64
634.858	1	64
636.045	1	52
637.232	1	55
638.419	1	57
639.606	1	63
640.793	1	60
641.980	1	50
643.167	1	61
644.354	1	54
645.541	1	40
646.728	1	44
647.914	1	49
649.101	1	48
650.288	1	46
651.474	1	44
652.661	1	42
653.847	1	45
655.034	1	39
656.220	1	48
657.406	1	48
658.593	1	26
659.779	1	29
660.965	1	32
662.152	1	39
663.338	1	30
664.524	1	18
665.710	1	37
666.896	1	23
668.082	1	27
669.268	1	39
670.454	1	36
671.640	1	17
672.826	1	20
674.011	1	36
675.197	1	33
676.383	1	23
677.569	1	23
678.754	1	29
679.940	1	35
681.125	1	34
682.311	1	34
683.496	1	30
684.682	1	35
685.867	1	42
687.053	1	35
688.238	1	41
688.746	1	41