File: Analysis/GaN_68K_200ms/GaN_sample E_spot4_UVVIS_68 K_200um_200 ms 2x2mm1_243.txt
340.368	1	-2
341.565	1	-4
342.763	1	-6
343.960	1	-12
345.157	1	4
346.354	1	3
347.552	1	0
348.749	1	5
349.946	1	11
351.143	1	-8
352.340	1	3
353.537	1	3
354.734	1	1
355.931	1	12
357.127	1	6
358.324	1	3
359.521	1	-2
360.718	1	2
361.914	1	3
363.111	1	20
364.308	1	2
365.504	1	9
366.701	1	6
367.897	1	17
369.093	1	7
370.290	1	13
371.486	1	13
372.682	1	15
373.879	1	15
375.075	1	7
376.271	1	4
377.467	1	1
378.663	1	10
379.859	1	3
381.055	1	10
382.251	1	12
383.447	1	16
384.643	1	17
385.839	1	24
387.035	1	24
388.230	1	12
389.426	1	24
390.622	1	7
391.817	1	19
393.013	1	20
394.208	1	15
395.404	1	19
396.599	1	11
397.795	1	18
398.990	1	13
400.186	1	16
401.381	1	25
402.576	1	14
403.771	1	9
404.967	1	6
406.162	1	6
407.357	1	19
408.552	1	10
409.747	1	9
410.942	1	10
412.137	1	19
413.332	1	8
414.526	1	7
415.721	1	4
416.916	1	2
418.111	1	5
419.305	1	15
420.500	1	12
421.695	1	8
422.889	1	6
424.084	1	3
425.278	1	-4
426.472	1	-4
427.667	1	20
428.861	1	7
430.055	1	7
431.250	1	5
432.444	1	7
433.638	1	3
434.832	1	5
436.026	1	9
437.220	1	17
438.414	1	2
439.608	1	4
440.802	1	5
441.996	1	8
443.190	1	-1
444.384	1	11
445.578	1	7
446.771	1	4
447.965	1	1
449.159	1	6
450.352	1	9
451.546	1	12
452.739	1	6
453.933	1	15
455.126	1	-3
456.320	1	8
457.513	1	8
458.706	1	8
459.899	1	11
461.093	1	14
462.286	1	9
463.479	1	14
464.672	1	7
465.865	1	0
467.058	1	19
468.251	1	-4
469.444	1	2
470.637	1	14
471.830	1	14
473.023	1	4
474.215	1	-7
475.408	1	11
476.601	1	0
477.793	1	10
478.986	1	1
480.179	1	3
481.371	1	9
482.564	1	-7
483.756	1	8
484.948	1	-10
486.141	1	1
487.333	1	12
488.525	1	3
489.718	1	-8
490.910	1	8
492.102	1	-1
493.294	1	14
494.486	1	5
495.678	1	16
496.870	1	3
498.062	1	6
499.254	1	8
500.446	1	10
501.638	1	7
502.829	1	10
504.021	1	24
505.213	1	11
506.404	1	2
507.596	1	4
508.788	1	8
509.979	1	5
511.171	1	18
512.362	1	10
513.553	1	0
514.745	1	10
515.936	1	11
517.127	1	13
518.319	1	10
519.510	1	13
520.701	1	9
521.892	1	-3
523.083	1	14
524.274	1	3
525.465	1	6
526.656	1	27
527.847	1	4
529.038	1	12
530.229	1	9
531.419	1	13
532.610	1	14
533.801	1	12
534.991	1	13
536.182	1	10
537.373	1	8
538.563	1	12
539.754	1	7
540.944	1	7
542.134	1	15
543.325	1	3
544.515	1	4
545.705	1	14
546.896	1	5
548.086	1	8
549.276	1	14
550.466	1	4
551.656	1	3
552.846	1	16
554.036	1	14
555.226	1	0
556.416	1	0
557.606	1	7
558.796	1	8
559.986	1	5
561.175	1	14
562.365	1	14
563.555	1	20
564.744	1	4
565.934	1	11
567.123	1	14
568.313	1	4
569.502	1	7
570.692	1	13
571.881	1	6
573.070	1	19
574.260	1	3
575.449	1	2
576.638	1	9
577.827	1	7
579.016	1	14
580.205	1	2
581.394	1	-5
582.583	1	-5
583.772	1	10
584.961	1	6
586.150	1	7
587.339	1	10
588.528	1	8
589.717	1	3
590.905	1	4
592.094	1	3
593.283	1	4
594.471	1	2
595.660	1	-1
596.848	1	10
598.037	1	-3
599.225	1	3
600.413	1	3
601.602	1	9
602.790	1	6
603.978	1	11
605.166	1	1
606.355	1	14
607.543	1	-1
608.731	1	-1
609.919	1	-6
611.107	1	15
612.295	1	10
613.483	1	6
614.671	1	8
615.858	1	10
617.046	1	8
618.234	1	-3
619.422	1	1
620.609	1	9
621.797	1	14
622.985	1	3
624.172	1	15
625.360	1	0
626.547	1	5
627.735	1	11
628.922	1	-1
630.109	1	-1
631.297	1	-2
632.484	1	1
633.671	1	11
634.858	1	9
636.045	1	6
637.232	1	2
638.419	1	7
639.606	1	15
640.793	1	9
641.980	1	2
643.167	1	14
644.354	1	1
645.541	1	-4
646.728	1	5
647.914	1	6
649.101	1	8
650.288	1	-3
651.474	1	2
652.661	1	6
653.847	1	-1
655.034	1	3
656.220	1	8
657.406	1	12
658.593	1	0
659.779	1	4
660.965	1	3
662.152	1	-1
663.338	1	0
664.524	1	-11
665.710	1	-2
666.896	1	-3
668.082	1	3
669.268	1	8
670.454	1	5
671.640	1	-11
672.826	1	-11
674.011	1	14
675.197	1	-2
676.383	1	0
677.569	1	-10
678.754	1	-2
679.940	1	-1
681.125	1	3
682.311	1	0
683.496	1	-5
684.682	1	5
685.867	1	11
687.053	1	7
688.238	1	-3
688.746	1	6