File: Analysis/GaN_68K_200ms/GaN_sample E_spot4_UVVIS_68 K_200um_200 ms 2x2mm1_20.txt
340.368	1	-3
341.565	1	-8
342.763	1	-5
343.960	1	-5
345.157	1	4
346.354	1	0
347.552	1	-4
348.749	1	2
349.946	1	9
351.143	1	-10
352.340	1	6
353.537	1	-2
354.734	1	3
355.931	1	2
357.127	1	5
358.324	1	5
359.521	1	-1
360.718	1	-7
361.914	1	3
363.111	1	4
364.308	1	6
365.504	1	-9
366.701	1	-13
367.897	1	1
369.093	1	5
370.290	1	-5
371.486	1	9
372.682	1	1
373.879	1	12
375.075	1	2
376.271	1	-2
377.467	1	2
378.663	1	-10
379.859	1	-7
381.055	1	4
382.251	1	-7
383.447	1	13
384.643	1	8
385.839	1	9
387.035	1	4
388.230	1	1
389.426	1	15
390.622	1	-5
391.817	1	-6
393.013	1	1
394.208	1	1
395.404	1	2
396.599	1	2
397.795	1	7
398.990	1	13
400.186	1	7
401.381	1	1
402.576	1	7
403.771	1	4
404.967	1	0
406.162	1	-5
407.357	1	2
408.552	1	4
409.747	1	-3
410.942	1	2
412.137	1	7
413.332	1	2
414.526	1	9
415.721	1	2
416.916	1	-4
418.111	1	0
419.305	1	-1
420.500	1	-1
421.695	1	5
422.889	1	3
424.084	1	-5
425.278	1	-6
426.472	1	9
427.667	1	5
428.861	1	-1
430.055	1	1
431.250	1	-11
432.444	1	4
433.638	1	2
434.832	1	-6
436.026	1	-4
437.220	1	-2
438.414	1	5
439.608	1	7
440.802	1	2
441.996	1	2
443.190	1	-7
444.384	1	8
445.578	1	11
446.771	1	-1
447.965	1	-7
449.159	1	-4
450.352	1	8
451.546	1	12
452.739	1	-8
453.933	1	3
455.126	1	2
456.320	1	-4
457.513	1	2
458.706	1	3
459.899	1	7
461.093	1	14
462.286	1	12
463.479	1	8
464.672	1	1
465.865	1	-2
467.058	1	3
468.251	1	6
469.444	1	-3
470.637	1	12
471.830	1	12
473.023	1	-4
474.215	1	-3
475.408	1	3
476.601	1	0
477.793	1	13
478.986	1	-5
480.179	1	5
481.371	1	7
482.564	1	-3
483.756	1	5
484.948	1	-1
486.141	1	-7
487.333	1	3
488.525	1	-1
489.718	1	2
490.910	1	6
492.102	1	5
493.294	1	12
494.486	1	10
495.678	1	14
496.870	1	-11
498.062	1	-6
499.254	1	3
500.446	1	4
501.638	1	2
502.829	1	8
504.021	1	20
505.213	1	1
506.404	1	-3
507.596	1	3
508.788	1	2
509.979	1	2
511.171	1	12
512.362	1	-9
513.553	1	-11
514.745	1	-2
515.936	1	-2
517.127	1	4
518.319	1	-2
519.510	1	-6
520.701	1	0
521.892	1	-6
523.083	1	-8
524.274	1	-6
525.465	1	-8
526.656	1	23
527.847	1	-9
529.038	1	2
530.229	1	7
531.419	1	6
532.610	1	6
533.801	1	-6
534.991	1	-1
536.182	1	6
537.373	1	-3
538.563	1	-4
539.754	1	5
540.944	1	1
542.134	1	-2
543.325	1	-6
544.515	1	2
545.705	1	3
546.896	1	-3
548.086	1	4
549.276	1	0
550.466	1	2
551.656	1	-1
552.846	1	2
554.036	1	2
555.226	1	-10
556.416	1	4
557.606	1	-10
558.796	1	13
559.986	1	-3
561.175	1	-6
562.365	1	-1
563.555	1	4
564.744	1	5
565.934	1	0
567.123	1	18
568.313	1	-11
569.502	1	0
570.692	1	8
571.881	1	11
573.070	1	11
574.260	1	-5
575.449	1	4
576.638	1	5
577.827	1	-3
579.016	1	13
580.205	1	4
581.394	1	-7
582.583	1	-3
583.772	1	-1
584.961	1	9
586.150	1	0
587.339	1	-1
588.528	1	6
589.717	1	3
590.905	1	2
592.094	1	10
593.283	1	9
594.471	1	7
595.660	1	-2
596.848	1	5
598.037	1	-2
599.225	1	5
600.413	1	-8
601.602	1	4
602.790	1	-1
603.978	1	1
605.166	1	-8
606.355	1	2
607.543	1	-11
608.731	1	-8
609.919	1	-7
611.107	1	2
612.295	1	-2
613.483	1	4
614.671	1	0
615.858	1	-1
617.046	1	6
618.234	1	3
619.422	1	7
620.609	1	4
621.797	1	-8
622.985	1	-3
624.172	1	9
625.360	1	-2
626.547	1	7
627.735	1	10
628.922	1	-1
630.109	1	2
631.297	1	-2
632.484	1	-2
633.671	1	2
634.858	1	-1
636.045	1	-7
637.232	1	-1
638.419	1	7
639.606	1	9
640.793	1	9
641.980	1	-4
643.167	1	7
644.354	1	1
645.541	1	-13
646.728	1	2
647.914	1	11
649.101	1	2
650.288	1	-6
651.474	1	9
652.661	1	10
653.847	1	8
655.034	1	-1
656.220	1	-2
657.406	1	6
658.593	1	-2
659.779	1	-7
660.965	1	0
662.152	1	2
663.338	1	-6
664.524	1	-8
665.710	1	-2
666.896	1	1
668.082	1	-2
669.268	1	5
670.454	1	0
671.640	1	-13
672.826	1	-12
674.011	1	2
675.197	1	-3
676.383	1	6
677.569	1	-6
678.754	1	5
679.940	1	-4
681.125	1	12
682.311	1	0
683.496	1	-6
684.682	1	0
685.867	1	2
687.053	1	-1
688.238	1	3
688.746	1	1