File: Analysis/GaN_68K_200ms/GaN_sample E_spot4_UVVIS_68 K_200um_200 ms 2x2mm1_255.txt
340.368	1	5
341.565	1	-11
342.763	1	-1
343.960	1	-2
345.157	1	3
346.354	1	6
347.552	1	13
348.749	1	9
349.946	1	13
351.143	1	-6
352.340	1	1
353.537	1	12
354.734	1	7
355.931	1	2
357.127	1	14
358.324	1	8
359.521	1	6
360.718	1	3
361.914	1	9
363.111	1	23
364.308	1	10
365.504	1	7
366.701	1	14
367.897	1	12
369.093	1	12
370.290	1	10
371.486	1	13
372.682	1	3
373.879	1	12
375.075	1	9
376.271	1	7
377.467	1	-2
378.663	1	1
379.859	1	8
381.055	1	17
382.251	1	6
383.447	1	17
384.643	1	17
385.839	1	16
387.035	1	11
388.230	1	15
389.426	1	14
390.622	1	18
391.817	1	6
393.013	1	19
394.208	1	11
395.404	1	20
396.599	1	15
397.795	1	21
398.990	1	14
400.186	1	14
401.381	1	9
402.576	1	20
403.771	1	15
404.967	1	11
406.162	1	3
407.357	1	18
408.552	1	17
409.747	1	5
410.942	1	4
412.137	1	12
413.332	1	14
414.526	1	11
415.721	1	1
416.916	1	4
418.111	1	14
419.305	1	10
420.500	1	14
421.695	1	3
422.889	1	7
424.084	1	13
425.278	1	-2
426.472	1	2
427.667	1	7
428.861	1	13
430.055	1	5
431.250	1	0
432.444	1	5
433.638	1	6
434.832	1	1
436.026	1	2
437.220	1	11
438.414	1	2
439.608	1	6
440.802	1	5
441.996	1	4
443.190	1	-7
444.384	1	8
445.578	1	7
446.771	1	1
447.965	1	-4
449.159	1	-9
450.352	1	10
451.546	1	10
452.739	1	9
453.933	1	11
455.126	1	5
456.320	1	5
457.513	1	18
458.706	1	8
459.899	1	22
461.093	1	7
462.286	1	15
463.479	1	8
464.672	1	4
465.865	1	-5
467.058	1	10
468.251	1	1
469.444	1	7
470.637	1	9
471.830	1	19
473.023	1	-7
474.215	1	-5
475.408	1	2
476.601	1	1
477.793	1	9
478.986	1	5
480.179	1	10
481.371	1	3
482.564	1	-8
483.756	1	11
484.948	1	-1
486.141	1	-16
487.333	1	12
488.525	1	5
489.718	1	3
490.910	1	8
492.102	1	1
493.294	1	8
494.486	1	19
495.678	1	10
496.870	1	0
498.062	1	2
499.254	1	0
500.446	1	4
501.638	1	2
502.829	1	-4
504.021	1	27
505.213	1	4
506.404	1	4
507.596	1	13
508.788	1	3
509.979	1	14
511.171	1	15
512.362	1	9
513.553	1	-6
514.745	1	12
515.936	1	13
517.127	1	5
518.319	1	1
519.510	1	3
520.701	1	6
521.892	1	-5
523.083	1	9
524.274	1	10
525.465	1	16
526.656	1	25
527.847	1	7
529.038	1	8
530.229	1	10
531.419	1	18
532.610	1	19
533.801	1	9
534.991	1	8
536.182	1	4
537.373	1	1
538.563	1	9
539.754	1	13
540.944	1	11
542.134	1	9
543.325	1	7
544.515	1	9
545.705	1	19
546.896	1	12
548.086	1	17
549.276	1	8
550.466	1	9
551.656	1	-1
552.846	1	10
554.036	1	7
555.226	1	7
556.416	1	11
557.606	1	0
558.796	1	10
559.986	1	7
561.175	1	16
562.365	1	10
563.555	1	22
564.744	1	6
565.934	1	-1
567.123	1	24
568.313	1	-3
569.502	1	6
570.692	1	6
571.881	1	5
573.070	1	8
574.260	1	4
575.449	1	3
576.638	1	8
577.827	1	11
579.016	1	11
580.205	1	0
581.394	1	-3
582.583	1	-4
583.772	1	5
584.961	1	9
586.150	1	9
587.339	1	8
588.528	1	8
589.717	1	13
590.905	1	6
592.094	1	3
593.283	1	11
594.471	1	5
595.660	1	-3
596.848	1	4
598.037	1	3
599.225	1	10
600.413	1	11
601.602	1	10
602.790	1	4
603.978	1	-3
605.166	1	5
606.355	1	14
607.543	1	-5
608.731	1	-7
609.919	1	-7
611.107	1	10
612.295	1	3
613.483	1	8
614.671	1	3
615.858	1	2
617.046	1	3
618.234	1	6
619.422	1	2
620.609	1	1
621.797	1	1
622.985	1	8
624.172	1	6
625.360	1	-1
626.547	1	-1
627.735	1	7
628.922	1	1
630.109	1	0
631.297	1	5
632.484	1	4
633.671	1	0
634.858	1	-2
636.045	1	7
637.232	1	3
638.419	1	12
639.606	1	9
640.793	1	11
641.980	1	3
643.167	1	7
644.354	1	-1
645.541	1	-8
646.728	1	8
647.914	1	2
649.101	1	-1
650.288	1	-3
651.474	1	16
652.661	1	5
653.847	1	5
655.034	1	7
656.220	1	4
657.406	1	5
658.593	1	4
659.779	1	6
660.965	1	8
662.152	1	13
663.338	1	5
664.524	1	-3
665.710	1	-1
666.896	1	6
668.082	1	3
669.268	1	7
670.454	1	2
671.640	1	-15
672.826	1	-13
674.011	1	5
675.197	1	-4
676.383	1	-1
677.569	1	-1
678.754	1	-7
679.940	1	-1
681.125	1	6
682.311	1	3
683.496	1	1
684.682	1	10
685.867	1	6
687.053	1	8
688.238	1	-3
688.746	1	5