File: Analysis/GaN_68K_200ms/GaN_sample E_spot4_UVVIS_68 K_200um_200 ms 2x2mm1_471.txt
340.368	1	1
341.565	1	-1
342.763	1	13
343.960	1	0
345.157	1	6
346.354	1	-2
347.552	1	1
348.749	1	6
349.946	1	0
351.143	1	-10
352.340	1	-5
353.537	1	3
354.734	1	-1
355.931	1	1
357.127	1	3
358.324	1	-5
359.521	1	4
360.718	1	-1
361.914	1	3
363.111	1	7
364.308	1	-3
365.504	1	-8
366.701	1	-4
367.897	1	2
369.093	1	4
370.290	1	-2
371.486	1	9
372.682	1	0
373.879	1	7
375.075	1	13
376.271	1	-2
377.467	1	-6
378.663	1	2
379.859	1	-10
381.055	1	-4
382.251	1	6
383.447	1	13
384.643	1	1
385.839	1	8
387.035	1	2
388.230	1	-3
389.426	1	9
390.622	1	-1
391.817	1	-1
393.013	1	7
394.208	1	6
395.404	1	12
396.599	1	9
397.795	1	4
398.990	1	9
400.186	1	18
401.381	1	4
402.576	1	14
403.771	1	-1
404.967	1	13
406.162	1	-6
407.357	1	5
408.552	1	3
409.747	1	-3
410.942	1	9
412.137	1	3
413.332	1	6
414.526	1	5
415.721	1	5
416.916	1	-4
418.111	1	7
419.305	1	0
420.500	1	17
421.695	1	7
422.889	1	3
424.084	1	8
425.278	1	-11
426.472	1	-6
427.667	1	13
428.861	1	2
430.055	1	10
431.250	1	-9
432.444	1	-3
433.638	1	1
434.832	1	-1
436.026	1	0
437.220	1	8
438.414	1	-1
439.608	1	-1
440.802	1	7
441.996	1	-7
443.190	1	-6
444.384	1	-4
445.578	1	5
446.771	1	3
447.965	1	-10
449.159	1	0
450.352	1	4
451.546	1	3
452.739	1	2
453.933	1	8
455.126	1	2
456.320	1	-5
457.513	1	8
458.706	1	10
459.899	1	13
461.093	1	-1
462.286	1	10
463.479	1	16
464.672	1	4
465.865	1	0
467.058	1	7
468.251	1	1
469.444	1	-7
470.637	1	7
471.830	1	16
473.023	1	-10
474.215	1	-7
475.408	1	2
476.601	1	-5
477.793	1	8
478.986	1	2
480.179	1	1
481.371	1	8
482.564	1	-7
483.756	1	9
484.948	1	0
486.141	1	-10
487.333	1	8
488.525	1	-3
489.718	1	-5
490.910	1	9
492.102	1	-1
493.294	1	5
494.486	1	3
495.678	1	12
496.870	1	-6
498.062	1	-6
499.254	1	4
500.446	1	6
501.638	1	-6
502.829	1	8
504.021	1	10
505.213	1	-4
506.404	1	-5
507.596	1	6
508.788	1	6
509.979	1	6
511.171	1	13
512.362	1	0
513.553	1	-14
514.745	1	-3
515.936	1	14
517.127	1	8
518.319	1	-3
519.510	1	1
520.701	1	13
521.892	1	-5
523.083	1	-1
524.274	1	-5
525.465	1	7
526.656	1	13
527.847	1	-5
529.038	1	5
530.229	1	10
531.419	1	2
532.610	1	5
533.801	1	0
534.991	1	7
536.182	1	1
537.373	1	-7
538.563	1	6
539.754	1	0
540.944	1	-3
542.134	1	4
543.325	1	1
544.515	1	-4
545.705	1	8
546.896	1	1
548.086	1	-2
549.276	1	12
550.466	1	4
551.656	1	-8
552.846	1	7
554.036	1	-5
555.226	1	-6
556.416	1	0
557.606	1	-5
558.796	1	-3
559.986	1	-3
561.175	1	-1
562.365	1	12
563.555	1	11
564.744	1	-2
565.934	1	-5
567.123	1	11
568.313	1	-10
569.502	1	9
570.692	1	8
571.881	1	7
573.070	1	4
574.260	1	3
575.449	1	1
576.638	1	-5
577.827	1	5
579.016	1	12
580.205	1	11
581.394	1	-4
582.583	1	-5
583.772	1	4
584.961	1	2
586.150	1	4
587.339	1	2
588.528	1	0
589.717	1	1
590.905	1	8
592.094	1	0
593.283	1	3
594.471	1	-3
595.660	1	1
596.848	1	7
598.037	1	4
599.225	1	0
600.413	1	-7
601.602	1	7
602.790	1	4
603.978	1	-2
605.166	1	-6
606.355	1	16
607.543	1	-8
608.731	1	-3
609.919	1	-1
611.107	1	7
612.295	1	4
613.483	1	14
614.671	1	6
615.858	1	5
617.046	1	5
618.234	1	4
619.422	1	0
620.609	1	3
621.797	1	3
622.985	1	3
624.172	1	12
625.360	1	-6
626.547	1	5
627.735	1	3
628.922	1	-6
630.109	1	-2
631.297	1	-3
632.484	1	-4
633.671	1	0
634.858	1	3
636.045	1	1
637.232	1	3
638.419	1	4
639.606	1	9
640.793	1	12
641.980	1	2
643.167	1	15
644.354	1	-1
645.541	1	-10
646.728	1	3
647.914	1	2
649.101	1	6
650.288	1	0
651.474	1	5
652.661	1	-3
653.847	1	13
655.034	1	-1
656.220	1	5
657.406	1	7
658.593	1	-3
659.779	1	0
660.965	1	2
662.152	1	-3
663.338	1	-14
664.524	1	2
665.710	1	-9
666.896	1	-12
668.082	1	2
669.268	1	-5
670.454	1	3
671.640	1	-10
672.826	1	-8
674.011	1	6
675.197	1	8
676.383	1	-4
677.569	1	-4
678.754	1	9
679.940	1	5
681.125	1	-5
682.311	1	0
683.496	1	5
684.682	1	7
685.867	1	-1
687.053	1	0
688.238	1	2
688.746	1	-3