File: Analysis/GaN_68K_200ms/GaN_sample E_spot4_UVVIS_68 K_200um_200 ms 2x2mm1_805.txt
340.368	1	7
341.565	1	-8
342.763	1	-7
343.960	1	5
345.157	1	10
346.354	1	-9
347.552	1	0
348.749	1	-8
349.946	1	5
351.143	1	-2
352.340	1	-1
353.537	1	-3
354.734	1	-5
355.931	1	4
357.127	1	2
358.324	1	-2
359.521	1	5
360.718	1	-11
361.914	1	0
363.111	1	9
364.308	1	-2
365.504	1	-8
366.701	1	-2
367.897	1	7
369.093	1	-3
370.290	1	-1
371.486	1	5
372.682	1	-11
373.879	1	9
375.075	1	0
376.271	1	-7
377.467	1	-2
378.663	1	4
379.859	1	-2
381.055	1	8
382.251	1	0
383.447	1	5
384.643	1	1
385.839	1	-3
387.035	1	-4
388.230	1	6
389.426	1	3
390.622	1	-2
391.817	1	-11
393.013	1	4
394.208	1	3
395.404	1	6
396.599	1	7
397.795	1	1
398.990	1	7
400.186	1	12
401.381	1	5
402.576	1	8
403.771	1	6
404.967	1	-3
406.162	1	-1
407.357	1	-1
408.552	1	-1
409.747	1	0
410.942	1	-7
412.137	1	7
413.332	1	-1
414.526	1	5
415.721	1	-5
416.916	1	-6
418.111	1	-7
419.305	1	-1
420.500	1	-1
421.695	1	4
422.889	1	8
424.084	1	-2
425.278	1	-4
426.472	1	-8
427.667	1	9
428.861	1	-4
430.055	1	3
431.250	1	-10
432.444	1	3
433.638	1	3
434.832	1	-9
436.026	1	2
437.220	1	6
438.414	1	0
439.608	1	6
440.802	1	-1
441.996	1	-1
443.190	1	-1
444.384	1	8
445.578	1	9
446.771	1	1
447.965	1	-2
449.159	1	-9
450.352	1	5
451.546	1	1
452.739	1	-3
453.933	1	0
455.126	1	-5
456.320	1	-5
457.513	1	7
458.706	1	1
459.899	1	0
461.093	1	-1
462.286	1	10
463.479	1	7
464.672	1	-5
465.865	1	-4
467.058	1	9
468.251	1	-7
469.444	1	-1
470.637	1	14
471.830	1	11
473.023	1	1
474.215	1	4
475.408	1	10
476.601	1	-8
477.793	1	5
478.986	1	-8
480.179	1	2
481.371	1	2
482.564	1	-6
483.756	1	10
484.948	1	-4
486.141	1	-10
487.333	1	0
488.525	1	-6
489.718	1	-7
490.910	1	1
492.102	1	2
493.294	1	-2
494.486	1	6
495.678	1	2
496.870	1	2
498.062	1	-7
499.254	1	0
500.446	1	-1
501.638	1	5
502.829	1	1
504.021	1	19
505.213	1	-9
506.404	1	-5
507.596	1	7
508.788	1	-11
509.979	1	-8
511.171	1	20
512.362	1	-10
513.553	1	2
514.745	1	2
515.936	1	-1
517.127	1	2
518.319	1	-11
519.510	1	6
520.701	1	-4
521.892	1	-9
523.083	1	-4
524.274	1	-5
525.465	1	3
526.656	1	10
527.847	1	-2
529.038	1	9
530.229	1	5
531.419	1	10
532.610	1	7
533.801	1	8
534.991	1	1
536.182	1	-4
537.373	1	-9
538.563	1	-1
539.754	1	-9
540.944	1	-1
542.134	1	6
543.325	1	1
544.515	1	1
545.705	1	5
546.896	1	-1
548.086	1	-3
549.276	1	3
550.466	1	-3
551.656	1	-20
552.846	1	-1
554.036	1	10
555.226	1	-19
556.416	1	2
557.606	1	-5
558.796	1	-8
559.986	1	-6
561.175	1	2
562.365	1	2
563.555	1	8
564.744	1	3
565.934	1	11
567.123	1	10
568.313	1	0
569.502	1	3
570.692	1	4
571.881	1	11
573.070	1	-5
574.260	1	-5
575.449	1	5
576.638	1	5
577.827	1	1
579.016	1	9
580.205	1	-2
581.394	1	-10
582.583	1	-7
583.772	1	-2
584.961	1	-8
586.150	1	0
587.339	1	3
588.528	1	9
589.717	1	-3
590.905	1	7
592.094	1	9
593.283	1	0
594.471	1	2
595.660	1	3
596.848	1	12
598.037	1	2
599.225	1	4
600.413	1	-5
601.602	1	5
602.790	1	4
603.978	1	-4
605.166	1	-7
606.355	1	0
607.543	1	-8
608.731	1	-5
609.919	1	-10
611.107	1	0
612.295	1	-5
613.483	1	3
614.671	1	-6
615.858	1	8
617.046	1	4
618.234	1	6
619.422	1	-5
620.609	1	0
621.797	1	-3
622.985	1	-3
624.172	1	14
625.360	1	-11
626.547	1	-1
627.735	1	-1
628.922	1	-3
630.109	1	2
631.297	1	-4
632.484	1	-8
633.671	1	-1
634.858	1	9
636.045	1	2
637.232	1	-4
638.419	1	10
639.606	1	11
640.793	1	4
641.980	1	5
643.167	1	7
644.354	1	-2
645.541	1	-14
646.728	1	-2
647.914	1	-2
649.101	1	-3
650.288	1	3
651.474	1	7
652.661	1	6
653.847	1	-4
655.034	1	5
656.220	1	2
657.406	1	6
658.593	1	-1
659.779	1	0
660.965	1	-3
662.152	1	0
663.338	1	-2
664.524	1	-14
665.710	1	-2
666.896	1	-6
668.082	1	-7
669.268	1	2
670.454	1	1
671.640	1	-5
672.826	1	-15
674.011	1	5
675.197	1	-4
676.383	1	-5
677.569	1	-2
678.754	1	-4
679.940	1	-6
681.125	1	1
682.311	1	-4
683.496	1	-12
684.682	1	4
685.867	1	-1
687.053	1	3
688.238	1	2
688.746	1	-4