File: Analysis/GaN_68K_200ms/GaN_sample E_spot4_UVVIS_68 K_200um_200 ms 2x2mm1_149.txt
340.368	1	10
341.565	1	-2
342.763	1	-4
343.960	1	1
345.157	1	7
346.354	1	-10
347.552	1	11
348.749	1	2
349.946	1	10
351.143	1	-4
352.340	1	12
353.537	1	8
354.734	1	1
355.931	1	16
357.127	1	9
358.324	1	13
359.521	1	15
360.718	1	8
361.914	1	23
363.111	1	33
364.308	1	40
365.504	1	45
366.701	1	60
367.897	1	59
369.093	1	60
370.290	1	52
371.486	1	50
372.682	1	42
373.879	1	45
375.075	1	34
376.271	1	23
377.467	1	18
378.663	1	18
379.859	1	15
381.055	1	21
382.251	1	28
383.447	1	47
384.643	1	64
385.839	1	71
387.035	1	61
388.230	1	61
389.426	1	78
390.622	1	66
391.817	1	50
393.013	1	64
394.208	1	67
395.404	1	51
396.599	1	55
397.795	1	66
398.990	1	60
400.186	1	70
401.381	1	59
402.576	1	61
403.771	1	53
404.967	1	51
406.162	1	35
407.357	1	45
408.552	1	47
409.747	1	34
410.942	1	37
412.137	1	40
413.332	1	34
414.526	1	29
415.721	1	32
416.916	1	27
418.111	1	21
419.305	1	23
420.500	1	37
421.695	1	22
422.889	1	21
424.084	1	20
425.278	1	9
426.472	1	17
427.667	1	20
428.861	1	20
430.055	1	18
431.250	1	9
432.444	1	24
433.638	1	17
434.832	1	5
436.026	1	18
437.220	1	19
438.414	1	14
439.608	1	10
440.802	1	22
441.996	1	16
443.190	1	3
444.384	1	11
445.578	1	16
446.771	1	10
447.965	1	10
449.159	1	8
450.352	1	12
451.546	1	14
452.739	1	12
453.933	1	20
455.126	1	10
456.320	1	8
457.513	1	13
458.706	1	8
459.899	1	22
461.093	1	15
462.286	1	23
463.479	1	12
464.672	1	13
465.865	1	6
467.058	1	19
468.251	1	6
469.444	1	6
470.637	1	18
471.830	1	25
473.023	1	5
474.215	1	-1
475.408	1	8
476.601	1	7
477.793	1	16
478.986	1	5
480.179	1	15
481.371	1	11
482.564	1	5
483.756	1	18
484.948	1	5
486.141	1	7
487.333	1	18
488.525	1	6
489.718	1	1
490.910	1	5
492.102	1	2
493.294	1	18
494.486	1	10
495.678	1	16
496.870	1	10
498.062	1	12
499.254	1	15
500.446	1	22
501.638	1	25
502.829	1	26
504.021	1	38
505.213	1	28
506.404	1	16
507.596	1	34
508.788	1	25
509.979	1	21
511.171	1	41
512.362	1	34
513.553	1	33
514.745	1	41
515.936	1	44
517.127	1	43
518.319	1	39
519.510	1	50
520.701	1	55
521.892	1	26
523.083	1	57
524.274	1	52
525.465	1	52
526.656	1	54
527.847	1	43
529.038	1	51
530.229	1	59
531.419	1	65
532.610	1	50
533.801	1	49
534.991	1	56
536.182	1	43
537.373	1	44
538.563	1	49
539.754	1	51
540.944	1	41
542.134	1	56
543.325	1	45
544.515	1	45
545.705	1	46
546.896	1	37
548.086	1	32
549.276	1	50
550.466	1	35
551.656	1	36
552.846	1	41
554.036	1	36
555.226	1	36
556.416	1	39
557.606	1	25
558.796	1	35
559.986	1	29
561.175	1	26
562.365	1	44
563.555	1	35
564.744	1	30
565.934	1	26
567.123	1	38
568.313	1	19
569.502	1	24
570.692	1	31
571.881	1	20
573.070	1	27
574.260	1	17
575.449	1	18
576.638	1	19
577.827	1	21
579.016	1	28
580.205	1	25
581.394	1	15
582.583	1	9
583.772	1	18
584.961	1	12
586.150	1	18
587.339	1	19
588.528	1	18
589.717	1	20
590.905	1	19
592.094	1	16
593.283	1	14
594.471	1	9
595.660	1	10
596.848	1	22
598.037	1	13
599.225	1	12
600.413	1	12
601.602	1	13
602.790	1	9
603.978	1	6
605.166	1	2
606.355	1	11
607.543	1	5
608.731	1	7
609.919	1	0
611.107	1	9
612.295	1	13
613.483	1	17
614.671	1	9
615.858	1	12
617.046	1	13
618.234	1	19
619.422	1	12
620.609	1	14
621.797	1	2
622.985	1	13
624.172	1	21
625.360	1	-1
626.547	1	7
627.735	1	7
628.922	1	7
630.109	1	4
631.297	1	-5
632.484	1	0
633.671	1	2
634.858	1	8
636.045	1	5
637.232	1	7
638.419	1	13
639.606	1	18
640.793	1	10
641.980	1	9
643.167	1	16
644.354	1	0
645.541	1	1
646.728	1	9
647.914	1	1
649.101	1	10
650.288	1	12
651.474	1	7
652.661	1	9
653.847	1	18
655.034	1	8
656.220	1	12
657.406	1	17
658.593	1	-2
659.779	1	-6
660.965	1	6
662.152	1	4
663.338	1	3
664.524	1	-4
665.710	1	-2
666.896	1	4
668.082	1	2
669.268	1	12
670.454	1	8
671.640	1	-8
672.826	1	-8
674.011	1	3
675.197	1	1
676.383	1	8
677.569	1	1
678.754	1	2
679.940	1	-5
681.125	1	15
682.311	1	18
683.496	1	3
684.682	1	19
685.867	1	9
687.053	1	0
688.238	1	14
688.746	1	12