File: Analysis/GaN_68K_200ms/GaN_sample E_spot4_UVVIS_68 K_200um_200 ms 2x2mm1_217.txt
340.368	1	-1
341.565	1	-5
342.763	1	6
343.960	1	5
345.157	1	11
346.354	1	3
347.552	1	1
348.749	1	7
349.946	1	8
351.143	1	-7
352.340	1	4
353.537	1	0
354.734	1	-4
355.931	1	8
357.127	1	1
358.324	1	-7
359.521	1	3
360.718	1	3
361.914	1	2
363.111	1	22
364.308	1	13
365.504	1	9
366.701	1	11
367.897	1	17
369.093	1	16
370.290	1	16
371.486	1	16
372.682	1	5
373.879	1	13
375.075	1	11
376.271	1	8
377.467	1	-6
378.663	1	-5
379.859	1	11
381.055	1	-1
382.251	1	7
383.447	1	12
384.643	1	25
385.839	1	23
387.035	1	15
388.230	1	16
389.426	1	21
390.622	1	13
391.817	1	16
393.013	1	33
394.208	1	25
395.404	1	21
396.599	1	21
397.795	1	18
398.990	1	19
400.186	1	22
401.381	1	15
402.576	1	25
403.771	1	18
404.967	1	14
406.162	1	12
407.357	1	8
408.552	1	18
409.747	1	7
410.942	1	3
412.137	1	25
413.332	1	9
414.526	1	2
415.721	1	13
416.916	1	4
418.111	1	7
419.305	1	16
420.500	1	15
421.695	1	8
422.889	1	12
424.084	1	7
425.278	1	6
426.472	1	11
427.667	1	21
428.861	1	3
430.055	1	7
431.250	1	2
432.444	1	17
433.638	1	1
434.832	1	8
436.026	1	2
437.220	1	9
438.414	1	13
439.608	1	2
440.802	1	10
441.996	1	7
443.190	1	-8
444.384	1	12
445.578	1	8
446.771	1	4
447.965	1	0
449.159	1	-3
450.352	1	12
451.546	1	3
452.739	1	10
453.933	1	18
455.126	1	10
456.320	1	5
457.513	1	7
458.706	1	4
459.899	1	17
461.093	1	7
462.286	1	8
463.479	1	14
464.672	1	16
465.865	1	0
467.058	1	12
468.251	1	5
469.444	1	2
470.637	1	10
471.830	1	18
473.023	1	-1
474.215	1	4
475.408	1	6
476.601	1	4
477.793	1	15
478.986	1	1
480.179	1	9
481.371	1	10
482.564	1	-5
483.756	1	18
484.948	1	2
486.141	1	-5
487.333	1	-2
488.525	1	7
489.718	1	5
490.910	1	1
492.102	1	-3
493.294	1	6
494.486	1	10
495.678	1	9
496.870	1	5
498.062	1	6
499.254	1	4
500.446	1	1
501.638	1	9
502.829	1	7
504.021	1	18
505.213	1	8
506.404	1	4
507.596	1	12
508.788	1	10
509.979	1	4
511.171	1	11
512.362	1	6
513.553	1	4
514.745	1	7
515.936	1	10
517.127	1	6
518.319	1	-2
519.510	1	19
520.701	1	8
521.892	1	2
523.083	1	10
524.274	1	0
525.465	1	8
526.656	1	32
527.847	1	0
529.038	1	19
530.229	1	15
531.419	1	20
532.610	1	5
533.801	1	19
534.991	1	29
536.182	1	17
537.373	1	3
538.563	1	12
539.754	1	11
540.944	1	4
542.134	1	15
543.325	1	7
544.515	1	11
545.705	1	3
546.896	1	9
548.086	1	14
549.276	1	11
550.466	1	10
551.656	1	5
552.846	1	10
554.036	1	15
555.226	1	2
556.416	1	10
557.606	1	1
558.796	1	9
559.986	1	1
561.175	1	5
562.365	1	11
563.555	1	18
564.744	1	8
565.934	1	6
567.123	1	24
568.313	1	7
569.502	1	7
570.692	1	8
571.881	1	11
573.070	1	16
574.260	1	5
575.449	1	14
576.638	1	7
577.827	1	13
579.016	1	14
580.205	1	9
581.394	1	-4
582.583	1	4
583.772	1	4
584.961	1	9
586.150	1	5
587.339	1	1
588.528	1	3
589.717	1	4
590.905	1	14
592.094	1	10
593.283	1	8
594.471	1	6
595.660	1	1
596.848	1	11
598.037	1	10
599.225	1	8
600.413	1	6
601.602	1	12
602.790	1	6
603.978	1	4
605.166	1	0
606.355	1	17
607.543	1	-8
608.731	1	1
609.919	1	1
611.107	1	7
612.295	1	7
613.483	1	9
614.671	1	12
615.858	1	6
617.046	1	9
618.234	1	2
619.422	1	4
620.609	1	2
621.797	1	11
622.985	1	6
624.172	1	8
625.360	1	6
626.547	1	-4
627.735	1	9
628.922	1	5
630.109	1	-1
631.297	1	-5
632.484	1	4
633.671	1	5
634.858	1	7
636.045	1	11
637.232	1	6
638.419	1	14
639.606	1	8
640.793	1	7
641.980	1	-4
643.167	1	10
644.354	1	3
645.541	1	2
646.728	1	4
647.914	1	0
649.101	1	2
650.288	1	4
651.474	1	3
652.661	1	5
653.847	1	2
655.034	1	4
656.220	1	10
657.406	1	7
658.593	1	3
659.779	1	-3
660.965	1	1
662.152	1	2
663.338	1	-1
664.524	1	-11
665.710	1	5
666.896	1	6
668.082	1	1
669.268	1	7
670.454	1	9
671.640	1	-12
672.826	1	-14
674.011	1	5
675.197	1	-4
676.383	1	-3
677.569	1	3
678.754	1	6
679.940	1	4
681.125	1	14
682.311	1	1
683.496	1	4
684.682	1	12
685.867	1	11
687.053	1	10
688.238	1	2
688.746	1	5