File: Analysis/GaN_68K_200ms/GaN_sample E_spot4_UVVIS_68 K_200um_200 ms 2x2mm1_828.txt
340.368	1	6
341.565	1	-3
342.763	1	-6
343.960	1	-8
345.157	1	3
346.354	1	1
347.552	1	0
348.749	1	-1
349.946	1	3
351.143	1	-4
352.340	1	6
353.537	1	4
354.734	1	-5
355.931	1	6
357.127	1	-3
358.324	1	-2
359.521	1	-4
360.718	1	-7
361.914	1	-7
363.111	1	15
364.308	1	-4
365.504	1	-7
366.701	1	-6
367.897	1	-3
369.093	1	-4
370.290	1	-4
371.486	1	12
372.682	1	-6
373.879	1	13
375.075	1	13
376.271	1	-4
377.467	1	-6
378.663	1	-11
379.859	1	-3
381.055	1	-2
382.251	1	1
383.447	1	5
384.643	1	7
385.839	1	10
387.035	1	-6
388.230	1	-3
389.426	1	1
390.622	1	0
391.817	1	-2
393.013	1	16
394.208	1	-4
395.404	1	2
396.599	1	-1
397.795	1	1
398.990	1	3
400.186	1	8
401.381	1	2
402.576	1	8
403.771	1	0
404.967	1	-2
406.162	1	0
407.357	1	-2
408.552	1	6
409.747	1	-1
410.942	1	1
412.137	1	2
413.332	1	-2
414.526	1	-6
415.721	1	2
416.916	1	-5
418.111	1	-4
419.305	1	-4
420.500	1	4
421.695	1	3
422.889	1	0
424.084	1	8
425.278	1	-13
426.472	1	1
427.667	1	3
428.861	1	2
430.055	1	1
431.250	1	-8
432.444	1	2
433.638	1	0
434.832	1	2
436.026	1	0
437.220	1	5
438.414	1	-1
439.608	1	-4
440.802	1	17
441.996	1	-1
443.190	1	-9
444.384	1	2
445.578	1	10
446.771	1	-8
447.965	1	-9
449.159	1	-4
450.352	1	10
451.546	1	2
452.739	1	1
453.933	1	4
455.126	1	8
456.320	1	2
457.513	1	1
458.706	1	6
459.899	1	6
461.093	1	3
462.286	1	2
463.479	1	12
464.672	1	1
465.865	1	-14
467.058	1	8
468.251	1	-2
469.444	1	4
470.637	1	7
471.830	1	9
473.023	1	-7
474.215	1	0
475.408	1	-1
476.601	1	0
477.793	1	1
478.986	1	-4
480.179	1	-4
481.371	1	-1
482.564	1	-15
483.756	1	15
484.948	1	-3
486.141	1	-10
487.333	1	3
488.525	1	1
489.718	1	-13
490.910	1	0
492.102	1	-6
493.294	1	8
494.486	1	3
495.678	1	5
496.870	1	-2
498.062	1	-8
499.254	1	0
500.446	1	10
501.638	1	8
502.829	1	-5
504.021	1	11
505.213	1	1
506.404	1	-2
507.596	1	2
508.788	1	2
509.979	1	3
511.171	1	11
512.362	1	8
513.553	1	-6
514.745	1	4
515.936	1	4
517.127	1	5
518.319	1	0
519.510	1	-4
520.701	1	6
521.892	1	-8
523.083	1	2
524.274	1	-12
525.465	1	2
526.656	1	16
527.847	1	0
529.038	1	6
530.229	1	3
531.419	1	12
532.610	1	3
533.801	1	1
534.991	1	3
536.182	1	-3
537.373	1	3
538.563	1	8
539.754	1	-10
540.944	1	2
542.134	1	7
543.325	1	-5
544.515	1	-3
545.705	1	6
546.896	1	4
548.086	1	4
549.276	1	6
550.466	1	-6
551.656	1	-12
552.846	1	0
554.036	1	9
555.226	1	-8
556.416	1	2
557.606	1	-12
558.796	1	-6
559.986	1	-12
561.175	1	-1
562.365	1	-9
563.555	1	5
564.744	1	-1
565.934	1	9
567.123	1	11
568.313	1	-12
569.502	1	7
570.692	1	2
571.881	1	8
573.070	1	-1
574.260	1	-8
575.449	1	6
576.638	1	-3
577.827	1	15
579.016	1	7
580.205	1	-1
581.394	1	-13
582.583	1	-11
583.772	1	-5
584.961	1	2
586.150	1	2
587.339	1	0
588.528	1	1
589.717	1	9
590.905	1	-3
592.094	1	0
593.283	1	8
594.471	1	2
595.660	1	9
596.848	1	6
598.037	1	2
599.225	1	3
600.413	1	2
601.602	1	7
602.790	1	-4
603.978	1	-4
605.166	1	-4
606.355	1	3
607.543	1	-3
608.731	1	-9
609.919	1	-10
611.107	1	3
612.295	1	-4
613.483	1	4
614.671	1	9
615.858	1	6
617.046	1	-2
618.234	1	1
619.422	1	3
620.609	1	-2
621.797	1	-2
622.985	1	0
624.172	1	3
625.360	1	-2
626.547	1	5
627.735	1	3
628.922	1	-9
630.109	1	4
631.297	1	-1
632.484	1	-2
633.671	1	1
634.858	1	5
636.045	1	6
637.232	1	-3
638.419	1	2
639.606	1	14
640.793	1	7
641.980	1	-12
643.167	1	9
644.354	1	-11
645.541	1	-3
646.728	1	-5
647.914	1	1
649.101	1	5
650.288	1	-6
651.474	1	-3
652.661	1	7
653.847	1	4
655.034	1	8
656.220	1	0
657.406	1	-3
658.593	1	-3
659.779	1	-7
660.965	1	1
662.152	1	-3
663.338	1	-1
664.524	1	-14
665.710	1	2
666.896	1	-4
668.082	1	1
669.268	1	0
670.454	1	1
671.640	1	-19
672.826	1	-15
674.011	1	1
675.197	1	3
676.383	1	-2
677.569	1	-18
678.754	1	-4
679.940	1	-1
681.125	1	0
682.311	1	-2
683.496	1	-4
684.682	1	-2
685.867	1	2
687.053	1	2
688.238	1	-4
688.746	1	-1