File: Analysis/GaN_68K_200ms/GaN_sample E_spot4_UVVIS_68 K_200um_200 ms 2x2mm1_728.txt
340.368	1	-4
341.565	1	-5
342.763	1	0
343.960	1	-7
345.157	1	3
346.354	1	-5
347.552	1	8
348.749	1	-6
349.946	1	14
351.143	1	-7
352.340	1	-6
353.537	1	0
354.734	1	-11
355.931	1	-4
357.127	1	3
358.324	1	-1
359.521	1	6
360.718	1	-5
361.914	1	-2
363.111	1	6
364.308	1	-12
365.504	1	1
366.701	1	-10
367.897	1	-14
369.093	1	1
370.290	1	-3
371.486	1	3
372.682	1	3
373.879	1	1
375.075	1	11
376.271	1	-1
377.467	1	-5
378.663	1	-4
379.859	1	0
381.055	1	-2
382.251	1	13
383.447	1	13
384.643	1	2
385.839	1	0
387.035	1	-3
388.230	1	5
389.426	1	6
390.622	1	6
391.817	1	-2
393.013	1	7
394.208	1	7
395.404	1	8
396.599	1	8
397.795	1	0
398.990	1	6
400.186	1	10
401.381	1	2
402.576	1	13
403.771	1	4
404.967	1	4
406.162	1	-10
407.357	1	6
408.552	1	7
409.747	1	-5
410.942	1	5
412.137	1	6
413.332	1	2
414.526	1	-2
415.721	1	-2
416.916	1	-1
418.111	1	-3
419.305	1	-6
420.500	1	7
421.695	1	2
422.889	1	-2
424.084	1	8
425.278	1	-5
426.472	1	0
427.667	1	1
428.861	1	1
430.055	1	8
431.250	1	-8
432.444	1	-3
433.638	1	-1
434.832	1	-3
436.026	1	2
437.220	1	7
438.414	1	9
439.608	1	-4
440.802	1	5
441.996	1	8
443.190	1	-15
444.384	1	-1
445.578	1	3
446.771	1	-2
447.965	1	-10
449.159	1	-7
450.352	1	4
451.546	1	1
452.739	1	1
453.933	1	11
455.126	1	-5
456.320	1	6
457.513	1	8
458.706	1	-6
459.899	1	-2
461.093	1	5
462.286	1	12
463.479	1	7
464.672	1	-8
465.865	1	0
467.058	1	4
468.251	1	-2
469.444	1	-6
470.637	1	15
471.830	1	8
473.023	1	-8
474.215	1	-8
475.408	1	-2
476.601	1	-1
477.793	1	9
478.986	1	-2
480.179	1	-2
481.371	1	5
482.564	1	-6
483.756	1	8
484.948	1	-13
486.141	1	-9
487.333	1	2
488.525	1	-1
489.718	1	1
490.910	1	0
492.102	1	8
493.294	1	8
494.486	1	4
495.678	1	9
496.870	1	6
498.062	1	0
499.254	1	1
500.446	1	2
501.638	1	1
502.829	1	6
504.021	1	10
505.213	1	-5
506.404	1	-9
507.596	1	-1
508.788	1	2
509.979	1	3
511.171	1	8
512.362	1	0
513.553	1	-14
514.745	1	5
515.936	1	4
517.127	1	6
518.319	1	-8
519.510	1	-4
520.701	1	7
521.892	1	-20
523.083	1	0
524.274	1	-7
525.465	1	3
526.656	1	18
527.847	1	-9
529.038	1	8
530.229	1	4
531.419	1	10
532.610	1	3
533.801	1	-10
534.991	1	-5
536.182	1	7
537.373	1	-4
538.563	1	0
539.754	1	-9
540.944	1	-7
542.134	1	6
543.325	1	-8
544.515	1	6
545.705	1	0
546.896	1	-4
548.086	1	9
549.276	1	4
550.466	1	-8
551.656	1	-3
552.846	1	4
554.036	1	2
555.226	1	-5
556.416	1	-4
557.606	1	-15
558.796	1	-8
559.986	1	-4
561.175	1	-5
562.365	1	2
563.555	1	7
564.744	1	2
565.934	1	11
567.123	1	14
568.313	1	0
569.502	1	-8
570.692	1	5
571.881	1	2
573.070	1	2
574.260	1	8
575.449	1	9
576.638	1	-2
577.827	1	8
579.016	1	10
580.205	1	-1
581.394	1	-9
582.583	1	-13
583.772	1	-2
584.961	1	5
586.150	1	7
587.339	1	1
588.528	1	-2
589.717	1	-1
590.905	1	4
592.094	1	3
593.283	1	6
594.471	1	-10
595.660	1	3
596.848	1	5
598.037	1	-1
599.225	1	1
600.413	1	-5
601.602	1	3
602.790	1	-3
603.978	1	-1
605.166	1	-8
606.355	1	-2
607.543	1	-10
608.731	1	-6
609.919	1	-7
611.107	1	12
612.295	1	1
613.483	1	3
614.671	1	1
615.858	1	17
617.046	1	1
618.234	1	-2
619.422	1	-3
620.609	1	3
621.797	1	-5
622.985	1	4
624.172	1	4
625.360	1	-15
626.547	1	4
627.735	1	1
628.922	1	1
630.109	1	0
631.297	1	-2
632.484	1	-14
633.671	1	3
634.858	1	2
636.045	1	5
637.232	1	0
638.419	1	-3
639.606	1	8
640.793	1	5
641.980	1	-1
643.167	1	9
644.354	1	5
645.541	1	-10
646.728	1	6
647.914	1	-1
649.101	1	0
650.288	1	4
651.474	1	3
652.661	1	0
653.847	1	7
655.034	1	-4
656.220	1	11
657.406	1	1
658.593	1	-9
659.779	1	2
660.965	1	-5
662.152	1	0
663.338	1	0
664.524	1	-13
665.710	1	1
666.896	1	0
668.082	1	-8
669.268	1	3
670.454	1	0
671.640	1	-13
672.826	1	-12
674.011	1	4
675.197	1	-6
676.383	1	-4
677.569	1	-6
678.754	1	0
679.940	1	6
681.125	1	3
682.311	1	0
683.496	1	-9
684.682	1	1
685.867	1	-5
687.053	1	-3
688.238	1	11
688.746	1	3