File: Analysis/GaN_68K_200ms/GaN_sample E_spot4_UVVIS_68 K_200um_200 ms 2x2mm1_830.txt
340.368	1	4
341.565	1	-10
342.763	1	-3
343.960	1	0
345.157	1	7
346.354	1	-3
347.552	1	-3
348.749	1	2
349.946	1	6
351.143	1	-6
352.340	1	0
353.537	1	2
354.734	1	-8
355.931	1	3
357.127	1	-4
358.324	1	-7
359.521	1	3
360.718	1	0
361.914	1	-7
363.111	1	9
364.308	1	-2
365.504	1	-7
366.701	1	-4
367.897	1	8
369.093	1	-2
370.290	1	-2
371.486	1	7
372.682	1	-4
373.879	1	10
375.075	1	6
376.271	1	-2
377.467	1	-7
378.663	1	-5
379.859	1	-6
381.055	1	-9
382.251	1	3
383.447	1	2
384.643	1	5
385.839	1	6
387.035	1	-1
388.230	1	-9
389.426	1	2
390.622	1	-5
391.817	1	-5
393.013	1	12
394.208	1	6
395.404	1	9
396.599	1	-1
397.795	1	4
398.990	1	9
400.186	1	14
401.381	1	3
402.576	1	4
403.771	1	1
404.967	1	4
406.162	1	-2
407.357	1	-3
408.552	1	3
409.747	1	-5
410.942	1	-3
412.137	1	6
413.332	1	-3
414.526	1	3
415.721	1	7
416.916	1	-3
418.111	1	0
419.305	1	4
420.500	1	2
421.695	1	-2
422.889	1	6
424.084	1	4
425.278	1	-6
426.472	1	-4
427.667	1	4
428.861	1	-9
430.055	1	10
431.250	1	-10
432.444	1	4
433.638	1	-5
434.832	1	-7
436.026	1	-4
437.220	1	4
438.414	1	0
439.608	1	2
440.802	1	-2
441.996	1	0
443.190	1	-4
444.384	1	0
445.578	1	4
446.771	1	-4
447.965	1	-8
449.159	1	-9
450.352	1	6
451.546	1	8
452.739	1	4
453.933	1	6
455.126	1	2
456.320	1	1
457.513	1	12
458.706	1	-7
459.899	1	5
461.093	1	3
462.286	1	5
463.479	1	7
464.672	1	-2
465.865	1	-14
467.058	1	3
468.251	1	-3
469.444	1	-4
470.637	1	6
471.830	1	9
473.023	1	-5
474.215	1	-8
475.408	1	4
476.601	1	2
477.793	1	0
478.986	1	-5
480.179	1	2
481.371	1	-1
482.564	1	-14
483.756	1	10
484.948	1	-8
486.141	1	-19
487.333	1	-3
488.525	1	-5
489.718	1	-9
490.910	1	3
492.102	1	-2
493.294	1	2
494.486	1	5
495.678	1	5
496.870	1	-3
498.062	1	-8
499.254	1	5
500.446	1	-1
501.638	1	-9
502.829	1	0
504.021	1	12
505.213	1	-4
506.404	1	-7
507.596	1	7
508.788	1	-7
509.979	1	-6
511.171	1	3
512.362	1	-3
513.553	1	-11
514.745	1	-1
515.936	1	1
517.127	1	-4
518.319	1	-4
519.510	1	4
520.701	1	6
521.892	1	-12
523.083	1	-9
524.274	1	-5
525.465	1	-1
526.656	1	17
527.847	1	-9
529.038	1	5
530.229	1	1
531.419	1	2
532.610	1	-2
533.801	1	3
534.991	1	-8
536.182	1	-1
537.373	1	-4
538.563	1	4
539.754	1	-5
540.944	1	-6
542.134	1	3
543.325	1	-2
544.515	1	-1
545.705	1	-2
546.896	1	1
548.086	1	1
549.276	1	8
550.466	1	-4
551.656	1	-5
552.846	1	4
554.036	1	-2
555.226	1	-10
556.416	1	1
557.606	1	-10
558.796	1	-2
559.986	1	-1
561.175	1	-3
562.365	1	9
563.555	1	12
564.744	1	6
565.934	1	-2
567.123	1	18
568.313	1	-4
569.502	1	-3
570.692	1	4
571.881	1	2
573.070	1	8
574.260	1	-6
575.449	1	5
576.638	1	-2
577.827	1	4
579.016	1	13
580.205	1	2
581.394	1	-3
582.583	1	-10
583.772	1	-10
584.961	1	-5
586.150	1	3
587.339	1	-3
588.528	1	3
589.717	1	2
590.905	1	1
592.094	1	-1
593.283	1	7
594.471	1	-4
595.660	1	-8
596.848	1	4
598.037	1	-6
599.225	1	-5
600.413	1	0
601.602	1	2
602.790	1	0
603.978	1	-1
605.166	1	1
606.355	1	5
607.543	1	-12
608.731	1	-12
609.919	1	-6
611.107	1	2
612.295	1	-5
613.483	1	5
614.671	1	-5
615.858	1	10
617.046	1	-2
618.234	1	0
619.422	1	1
620.609	1	2
621.797	1	-2
622.985	1	-2
624.172	1	9
625.360	1	-8
626.547	1	-1
627.735	1	3
628.922	1	-4
630.109	1	-3
631.297	1	-9
632.484	1	-9
633.671	1	7
634.858	1	9
636.045	1	0
637.232	1	2
638.419	1	3
639.606	1	5
640.793	1	7
641.980	1	-10
643.167	1	3
644.354	1	-3
645.541	1	-7
646.728	1	1
647.914	1	-7
649.101	1	4
650.288	1	-8
651.474	1	5
652.661	1	-5
653.847	1	5
655.034	1	1
656.220	1	6
657.406	1	-6
658.593	1	-4
659.779	1	-5
660.965	1	-2
662.152	1	-1
663.338	1	-7
664.524	1	1
665.710	1	-9
666.896	1	-7
668.082	1	6
669.268	1	-4
670.454	1	-3
671.640	1	-3
672.826	1	-10
674.011	1	7
675.197	1	2
676.383	1	-5
677.569	1	-13
678.754	1	2
679.940	1	-6
681.125	1	-1
682.311	1	-8
683.496	1	-13
684.682	1	3
685.867	1	-3
687.053	1	2
688.238	1	4
688.746	1	2