File: Analysis/GaN_68K_200ms/GaN_sample E_spot4_UVVIS_68 K_200um_200 ms 2x2mm1_511.txt
340.368	1	-4
341.565	1	-5
342.763	1	9
343.960	1	-5
345.157	1	3
346.354	1	-12
347.552	1	0
348.749	1	5
349.946	1	13
351.143	1	-1
352.340	1	-2
353.537	1	-7
354.734	1	7
355.931	1	-1
357.127	1	3
358.324	1	-10
359.521	1	-9
360.718	1	-4
361.914	1	-5
363.111	1	8
364.308	1	6
365.504	1	-6
366.701	1	-3
367.897	1	-8
369.093	1	-5
370.290	1	-8
371.486	1	6
372.682	1	-2
373.879	1	16
375.075	1	7
376.271	1	2
377.467	1	-11
378.663	1	-4
379.859	1	-5
381.055	1	6
382.251	1	7
383.447	1	3
384.643	1	13
385.839	1	11
387.035	1	-12
388.230	1	-4
389.426	1	13
390.622	1	-7
391.817	1	10
393.013	1	7
394.208	1	-2
395.404	1	4
396.599	1	1
397.795	1	7
398.990	1	2
400.186	1	9
401.381	1	11
402.576	1	13
403.771	1	4
404.967	1	6
406.162	1	-6
407.357	1	1
408.552	1	3
409.747	1	3
410.942	1	0
412.137	1	6
413.332	1	5
414.526	1	9
415.721	1	-1
416.916	1	2
418.111	1	3
419.305	1	-4
420.500	1	3
421.695	1	10
422.889	1	6
424.084	1	4
425.278	1	-3
426.472	1	-2
427.667	1	15
428.861	1	11
430.055	1	7
431.250	1	-5
432.444	1	0
433.638	1	4
434.832	1	-9
436.026	1	0
437.220	1	11
438.414	1	0
439.608	1	-3
440.802	1	13
441.996	1	4
443.190	1	-5
444.384	1	1
445.578	1	2
446.771	1	-7
447.965	1	0
449.159	1	-3
450.352	1	9
451.546	1	2
452.739	1	8
453.933	1	9
455.126	1	2
456.320	1	-2
457.513	1	6
458.706	1	8
459.899	1	10
461.093	1	8
462.286	1	-4
463.479	1	13
464.672	1	-2
465.865	1	-5
467.058	1	22
468.251	1	3
469.444	1	-6
470.637	1	7
471.830	1	10
473.023	1	-3
474.215	1	1
475.408	1	-1
476.601	1	-1
477.793	1	13
478.986	1	-2
480.179	1	1
481.371	1	5
482.564	1	-12
483.756	1	9
484.948	1	-9
486.141	1	-11
487.333	1	-2
488.525	1	-4
489.718	1	-3
490.910	1	5
492.102	1	2
493.294	1	9
494.486	1	7
495.678	1	11
496.870	1	3
498.062	1	2
499.254	1	10
500.446	1	10
501.638	1	2
502.829	1	0
504.021	1	14
505.213	1	-3
506.404	1	-2
507.596	1	-2
508.788	1	2
509.979	1	-6
511.171	1	12
512.362	1	2
513.553	1	-6
514.745	1	-1
515.936	1	1
517.127	1	6
518.319	1	8
519.510	1	-7
520.701	1	-1
521.892	1	-13
523.083	1	6
524.274	1	-3
525.465	1	4
526.656	1	16
527.847	1	-4
529.038	1	11
530.229	1	10
531.419	1	13
532.610	1	3
533.801	1	1
534.991	1	4
536.182	1	14
537.373	1	-2
538.563	1	7
539.754	1	2
540.944	1	0
542.134	1	0
543.325	1	-9
544.515	1	-11
545.705	1	8
546.896	1	1
548.086	1	-1
549.276	1	6
550.466	1	-3
551.656	1	-6
552.846	1	3
554.036	1	-1
555.226	1	-13
556.416	1	5
557.606	1	-11
558.796	1	1
559.986	1	-3
561.175	1	-4
562.365	1	9
563.555	1	13
564.744	1	4
565.934	1	0
567.123	1	11
568.313	1	-6
569.502	1	3
570.692	1	2
571.881	1	3
573.070	1	-2
574.260	1	-3
575.449	1	-2
576.638	1	-1
577.827	1	1
579.016	1	11
580.205	1	-7
581.394	1	-3
582.583	1	-1
583.772	1	1
584.961	1	5
586.150	1	-4
587.339	1	1
588.528	1	9
589.717	1	3
590.905	1	7
592.094	1	6
593.283	1	2
594.471	1	-3
595.660	1	6
596.848	1	9
598.037	1	3
599.225	1	5
600.413	1	3
601.602	1	2
602.790	1	-2
603.978	1	2
605.166	1	-7
606.355	1	9
607.543	1	0
608.731	1	-7
609.919	1	-2
611.107	1	8
612.295	1	4
613.483	1	6
614.671	1	3
615.858	1	11
617.046	1	1
618.234	1	2
619.422	1	13
620.609	1	6
621.797	1	2
622.985	1	4
624.172	1	7
625.360	1	-3
626.547	1	-2
627.735	1	2
628.922	1	3
630.109	1	-9
631.297	1	-11
632.484	1	0
633.671	1	-7
634.858	1	0
636.045	1	5
637.232	1	0
638.419	1	-7
639.606	1	12
640.793	1	10
641.980	1	-8
643.167	1	4
644.354	1	2
645.541	1	-6
646.728	1	1
647.914	1	-3
649.101	1	7
650.288	1	-2
651.474	1	-1
652.661	1	3
653.847	1	3
655.034	1	1
656.220	1	6
657.406	1	4
658.593	1	-6
659.779	1	0
660.965	1	-1
662.152	1	-7
663.338	1	-6
664.524	1	-13
665.710	1	-2
666.896	1	-5
668.082	1	-1
669.268	1	4
670.454	1	3
671.640	1	-5
672.826	1	-17
674.011	1	3
675.197	1	-1
676.383	1	-3
677.569	1	-9
678.754	1	1
679.940	1	-2
681.125	1	7
682.311	1	2
683.496	1	-7
684.682	1	8
685.867	1	5
687.053	1	10
688.238	1	-7
688.746	1	0