File: Analysis/GaN_68K_200ms/GaN_sample E_spot4_UVVIS_68 K_200um_200 ms 2x2mm1_384.txt
340.368	1	4
341.565	1	-5
342.763	1	0
343.960	1	-2
345.157	1	-1
346.354	1	-7
347.552	1	0
348.749	1	10
349.946	1	2
351.143	1	-1
352.340	1	4
353.537	1	2
354.734	1	5
355.931	1	8
357.127	1	5
358.324	1	2
359.521	1	6
360.718	1	-4
361.914	1	3
363.111	1	11
364.308	1	2
365.504	1	-1
366.701	1	6
367.897	1	2
369.093	1	13
370.290	1	-2
371.486	1	15
372.682	1	-7
373.879	1	6
375.075	1	12
376.271	1	3
377.467	1	1
378.663	1	-1
379.859	1	-5
381.055	1	1
382.251	1	8
383.447	1	8
384.643	1	7
385.839	1	18
387.035	1	9
388.230	1	-5
389.426	1	14
390.622	1	2
391.817	1	0
393.013	1	15
394.208	1	11
395.404	1	9
396.599	1	10
397.795	1	3
398.990	1	10
400.186	1	14
401.381	1	8
402.576	1	10
403.771	1	5
404.967	1	10
406.162	1	-1
407.357	1	0
408.552	1	5
409.747	1	3
410.942	1	7
412.137	1	25
413.332	1	8
414.526	1	8
415.721	1	9
416.916	1	3
418.111	1	-2
419.305	1	4
420.500	1	-1
421.695	1	0
422.889	1	0
424.084	1	9
425.278	1	-8
426.472	1	4
427.667	1	14
428.861	1	0
430.055	1	3
431.250	1	-5
432.444	1	7
433.638	1	-4
434.832	1	-6
436.026	1	7
437.220	1	5
438.414	1	-3
439.608	1	3
440.802	1	7
441.996	1	-4
443.190	1	-5
444.384	1	4
445.578	1	13
446.771	1	7
447.965	1	-1
449.159	1	2
450.352	1	5
451.546	1	6
452.739	1	8
453.933	1	13
455.126	1	0
456.320	1	1
457.513	1	7
458.706	1	9
459.899	1	10
461.093	1	9
462.286	1	8
463.479	1	9
464.672	1	6
465.865	1	0
467.058	1	14
468.251	1	-2
469.444	1	1
470.637	1	10
471.830	1	13
473.023	1	-9
474.215	1	-3
475.408	1	0
476.601	1	1
477.793	1	3
478.986	1	1
480.179	1	6
481.371	1	0
482.564	1	-10
483.756	1	-1
484.948	1	5
486.141	1	-11
487.333	1	2
488.525	1	2
489.718	1	-13
490.910	1	1
492.102	1	-1
493.294	1	2
494.486	1	6
495.678	1	8
496.870	1	-5
498.062	1	3
499.254	1	5
500.446	1	8
501.638	1	3
502.829	1	4
504.021	1	14
505.213	1	-2
506.404	1	-4
507.596	1	4
508.788	1	0
509.979	1	-3
511.171	1	10
512.362	1	4
513.553	1	-4
514.745	1	4
515.936	1	2
517.127	1	6
518.319	1	9
519.510	1	1
520.701	1	2
521.892	1	-4
523.083	1	0
524.274	1	-2
525.465	1	3
526.656	1	20
527.847	1	1
529.038	1	11
530.229	1	17
531.419	1	14
532.610	1	6
533.801	1	5
534.991	1	9
536.182	1	5
537.373	1	11
538.563	1	4
539.754	1	6
540.944	1	0
542.134	1	6
543.325	1	10
544.515	1	3
545.705	1	8
546.896	1	-2
548.086	1	2
549.276	1	9
550.466	1	-3
551.656	1	-1
552.846	1	-2
554.036	1	-4
555.226	1	-7
556.416	1	16
557.606	1	-9
558.796	1	-2
559.986	1	-5
561.175	1	5
562.365	1	10
563.555	1	6
564.744	1	2
565.934	1	6
567.123	1	17
568.313	1	-3
569.502	1	9
570.692	1	7
571.881	1	9
573.070	1	11
574.260	1	7
575.449	1	6
576.638	1	3
577.827	1	8
579.016	1	9
580.205	1	-1
581.394	1	3
582.583	1	-9
583.772	1	1
584.961	1	10
586.150	1	5
587.339	1	10
588.528	1	6
589.717	1	-1
590.905	1	6
592.094	1	7
593.283	1	12
594.471	1	4
595.660	1	-4
596.848	1	16
598.037	1	6
599.225	1	-4
600.413	1	8
601.602	1	9
602.790	1	-2
603.978	1	-3
605.166	1	-4
606.355	1	12
607.543	1	-7
608.731	1	-9
609.919	1	4
611.107	1	6
612.295	1	-5
613.483	1	7
614.671	1	17
615.858	1	4
617.046	1	9
618.234	1	3
619.422	1	14
620.609	1	0
621.797	1	0
622.985	1	6
624.172	1	11
625.360	1	-3
626.547	1	7
627.735	1	3
628.922	1	-10
630.109	1	8
631.297	1	3
632.484	1	11
633.671	1	7
634.858	1	9
636.045	1	2
637.232	1	3
638.419	1	8
639.606	1	7
640.793	1	7
641.980	1	2
643.167	1	11
644.354	1	2
645.541	1	-2
646.728	1	7
647.914	1	-2
649.101	1	5
650.288	1	-5
651.474	1	2
652.661	1	1
653.847	1	-6
655.034	1	3
656.220	1	12
657.406	1	7
658.593	1	-2
659.779	1	3
660.965	1	-9
662.152	1	-8
663.338	1	-1
664.524	1	-1
665.710	1	-4
666.896	1	1
668.082	1	7
669.268	1	10
670.454	1	3
671.640	1	-13
672.826	1	-18
674.011	1	3
675.197	1	-7
676.383	1	-2
677.569	1	4
678.754	1	0
679.940	1	-1
681.125	1	9
682.311	1	4
683.496	1	-10
684.682	1	8
685.867	1	1
687.053	1	7
688.238	1	3
688.746	1	8