File: Analysis/GaN_68K_200ms/GaN_sample E_spot4_UVVIS_68 K_200um_200 ms 2x2mm1_460.txt
340.368	1	-2
341.565	1	-6
342.763	1	-1
343.960	1	3
345.157	1	6
346.354	1	-2
347.552	1	-1
348.749	1	0
349.946	1	8
351.143	1	-12
352.340	1	0
353.537	1	0
354.734	1	4
355.931	1	3
357.127	1	7
358.324	1	1
359.521	1	2
360.718	1	5
361.914	1	-1
363.111	1	18
364.308	1	-5
365.504	1	-5
366.701	1	-11
367.897	1	9
369.093	1	5
370.290	1	2
371.486	1	-9
372.682	1	2
373.879	1	2
375.075	1	2
376.271	1	-6
377.467	1	4
378.663	1	-3
379.859	1	-5
381.055	1	-1
382.251	1	12
383.447	1	6
384.643	1	5
385.839	1	8
387.035	1	4
388.230	1	12
389.426	1	10
390.622	1	2
391.817	1	1
393.013	1	11
394.208	1	20
395.404	1	-5
396.599	1	13
397.795	1	1
398.990	1	8
400.186	1	12
401.381	1	9
402.576	1	9
403.771	1	4
404.967	1	6
406.162	1	-3
407.357	1	6
408.552	1	0
409.747	1	0
410.942	1	5
412.137	1	13
413.332	1	0
414.526	1	6
415.721	1	9
416.916	1	-4
418.111	1	2
419.305	1	7
420.500	1	-4
421.695	1	5
422.889	1	8
424.084	1	-3
425.278	1	-8
426.472	1	-5
427.667	1	9
428.861	1	-3
430.055	1	2
431.250	1	-6
432.444	1	6
433.638	1	-1
434.832	1	-6
436.026	1	2
437.220	1	13
438.414	1	5
439.608	1	8
440.802	1	2
441.996	1	2
443.190	1	-5
444.384	1	-5
445.578	1	11
446.771	1	-3
447.965	1	-5
449.159	1	-7
450.352	1	2
451.546	1	-2
452.739	1	-3
453.933	1	4
455.126	1	2
456.320	1	11
457.513	1	8
458.706	1	3
459.899	1	12
461.093	1	4
462.286	1	12
463.479	1	7
464.672	1	-4
465.865	1	2
467.058	1	11
468.251	1	2
469.444	1	-7
470.637	1	20
471.830	1	15
473.023	1	-6
474.215	1	-11
475.408	1	0
476.601	1	3
477.793	1	5
478.986	1	0
480.179	1	3
481.371	1	0
482.564	1	-5
483.756	1	7
484.948	1	1
486.141	1	-7
487.333	1	3
488.525	1	0
489.718	1	-5
490.910	1	-3
492.102	1	-6
493.294	1	0
494.486	1	4
495.678	1	12
496.870	1	-5
498.062	1	-7
499.254	1	-1
500.446	1	7
501.638	1	-1
502.829	1	6
504.021	1	15
505.213	1	-4
506.404	1	-7
507.596	1	4
508.788	1	-2
509.979	1	4
511.171	1	11
512.362	1	5
513.553	1	-3
514.745	1	-3
515.936	1	2
517.127	1	5
518.319	1	0
519.510	1	1
520.701	1	3
521.892	1	-3
523.083	1	3
524.274	1	-6
525.465	1	0
526.656	1	14
527.847	1	6
529.038	1	4
530.229	1	6
531.419	1	11
532.610	1	8
533.801	1	8
534.991	1	3
536.182	1	0
537.373	1	3
538.563	1	4
539.754	1	-6
540.944	1	-3
542.134	1	8
543.325	1	3
544.515	1	1
545.705	1	14
546.896	1	0
548.086	1	1
549.276	1	11
550.466	1	-1
551.656	1	1
552.846	1	4
554.036	1	6
555.226	1	-6
556.416	1	7
557.606	1	-11
558.796	1	-3
559.986	1	0
561.175	1	-3
562.365	1	5
563.555	1	9
564.744	1	8
565.934	1	-2
567.123	1	6
568.313	1	-4
569.502	1	4
570.692	1	5
571.881	1	14
573.070	1	7
574.260	1	3
575.449	1	7
576.638	1	4
577.827	1	10
579.016	1	11
580.205	1	0
581.394	1	-2
582.583	1	-6
583.772	1	6
584.961	1	-2
586.150	1	-5
587.339	1	10
588.528	1	11
589.717	1	-1
590.905	1	-4
592.094	1	5
593.283	1	9
594.471	1	-2
595.660	1	-10
596.848	1	4
598.037	1	2
599.225	1	4
600.413	1	2
601.602	1	11
602.790	1	6
603.978	1	9
605.166	1	3
606.355	1	11
607.543	1	-8
608.731	1	-11
609.919	1	-2
611.107	1	-3
612.295	1	-11
613.483	1	11
614.671	1	5
615.858	1	7
617.046	1	2
618.234	1	7
619.422	1	2
620.609	1	3
621.797	1	5
622.985	1	11
624.172	1	8
625.360	1	-10
626.547	1	4
627.735	1	7
628.922	1	-2
630.109	1	2
631.297	1	6
632.484	1	-1
633.671	1	0
634.858	1	7
636.045	1	2
637.232	1	4
638.419	1	4
639.606	1	9
640.793	1	4
641.980	1	2
643.167	1	5
644.354	1	-9
645.541	1	-9
646.728	1	4
647.914	1	-5
649.101	1	-1
650.288	1	-5
651.474	1	2
652.661	1	6
653.847	1	3
655.034	1	-6
656.220	1	2
657.406	1	-3
658.593	1	5
659.779	1	1
660.965	1	-1
662.152	1	-1
663.338	1	-3
664.524	1	-3
665.710	1	-10
666.896	1	-11
668.082	1	-6
669.268	1	5
670.454	1	-2
671.640	1	-8
672.826	1	-9
674.011	1	0
675.197	1	-10
676.383	1	-1
677.569	1	-5
678.754	1	1
679.940	1	4
681.125	1	3
682.311	1	-3
683.496	1	-5
684.682	1	2
685.867	1	5
687.053	1	4
688.238	1	0
688.746	1	3