File: Analysis/GaN_68K_200ms/GaN_sample E_spot4_UVVIS_68 K_200um_200 ms 2x2mm1_220.txt
340.368	1	-1
341.565	1	3
342.763	1	1
343.960	1	-3
345.157	1	6
346.354	1	4
347.552	1	9
348.749	1	9
349.946	1	10
351.143	1	-8
352.340	1	1
353.537	1	6
354.734	1	6
355.931	1	3
357.127	1	5
358.324	1	2
359.521	1	8
360.718	1	4
361.914	1	-1
363.111	1	11
364.308	1	8
365.504	1	-3
366.701	1	15
367.897	1	7
369.093	1	16
370.290	1	10
371.486	1	19
372.682	1	1
373.879	1	16
375.075	1	13
376.271	1	11
377.467	1	4
378.663	1	7
379.859	1	-4
381.055	1	10
382.251	1	11
383.447	1	20
384.643	1	12
385.839	1	17
387.035	1	18
388.230	1	26
389.426	1	18
390.622	1	15
391.817	1	2
393.013	1	17
394.208	1	16
395.404	1	18
396.599	1	11
397.795	1	15
398.990	1	26
400.186	1	20
401.381	1	18
402.576	1	23
403.771	1	10
404.967	1	10
406.162	1	12
407.357	1	10
408.552	1	16
409.747	1	10
410.942	1	16
412.137	1	19
413.332	1	6
414.526	1	12
415.721	1	17
416.916	1	9
418.111	1	10
419.305	1	4
420.500	1	12
421.695	1	12
422.889	1	11
424.084	1	11
425.278	1	-2
426.472	1	4
427.667	1	16
428.861	1	15
430.055	1	15
431.250	1	5
432.444	1	16
433.638	1	6
434.832	1	-1
436.026	1	8
437.220	1	11
438.414	1	3
439.608	1	5
440.802	1	6
441.996	1	2
443.190	1	-4
444.384	1	6
445.578	1	16
446.771	1	11
447.965	1	-1
449.159	1	-2
450.352	1	7
451.546	1	6
452.739	1	1
453.933	1	5
455.126	1	6
456.320	1	4
457.513	1	11
458.706	1	4
459.899	1	12
461.093	1	13
462.286	1	6
463.479	1	14
464.672	1	-3
465.865	1	-4
467.058	1	16
468.251	1	4
469.444	1	4
470.637	1	17
471.830	1	20
473.023	1	4
474.215	1	3
475.408	1	8
476.601	1	6
477.793	1	14
478.986	1	4
480.179	1	10
481.371	1	6
482.564	1	-5
483.756	1	13
484.948	1	-4
486.141	1	-4
487.333	1	6
488.525	1	7
489.718	1	8
490.910	1	-2
492.102	1	2
493.294	1	14
494.486	1	9
495.678	1	10
496.870	1	8
498.062	1	3
499.254	1	10
500.446	1	10
501.638	1	7
502.829	1	6
504.021	1	15
505.213	1	2
506.404	1	3
507.596	1	9
508.788	1	19
509.979	1	12
511.171	1	15
512.362	1	15
513.553	1	1
514.745	1	-3
515.936	1	11
517.127	1	10
518.319	1	1
519.510	1	13
520.701	1	12
521.892	1	8
523.083	1	9
524.274	1	15
525.465	1	2
526.656	1	24
527.847	1	4
529.038	1	11
530.229	1	16
531.419	1	22
532.610	1	20
533.801	1	13
534.991	1	8
536.182	1	6
537.373	1	1
538.563	1	11
539.754	1	7
540.944	1	9
542.134	1	21
543.325	1	6
544.515	1	13
545.705	1	22
546.896	1	15
548.086	1	23
549.276	1	17
550.466	1	9
551.656	1	8
552.846	1	8
554.036	1	10
555.226	1	2
556.416	1	13
557.606	1	-6
558.796	1	2
559.986	1	11
561.175	1	15
562.365	1	10
563.555	1	10
564.744	1	14
565.934	1	21
567.123	1	28
568.313	1	3
569.502	1	7
570.692	1	13
571.881	1	13
573.070	1	16
574.260	1	7
575.449	1	-1
576.638	1	4
577.827	1	17
579.016	1	22
580.205	1	8
581.394	1	6
582.583	1	-1
583.772	1	13
584.961	1	9
586.150	1	7
587.339	1	15
588.528	1	14
589.717	1	10
590.905	1	11
592.094	1	13
593.283	1	5
594.471	1	5
595.660	1	4
596.848	1	15
598.037	1	4
599.225	1	10
600.413	1	-5
601.602	1	14
602.790	1	13
603.978	1	4
605.166	1	-2
606.355	1	5
607.543	1	1
608.731	1	1
609.919	1	-7
611.107	1	6
612.295	1	4
613.483	1	13
614.671	1	4
615.858	1	5
617.046	1	16
618.234	1	2
619.422	1	8
620.609	1	11
621.797	1	4
622.985	1	-5
624.172	1	11
625.360	1	-6
626.547	1	8
627.735	1	7
628.922	1	0
630.109	1	-2
631.297	1	-2
632.484	1	3
633.671	1	1
634.858	1	12
636.045	1	4
637.232	1	4
638.419	1	15
639.606	1	18
640.793	1	4
641.980	1	2
643.167	1	15
644.354	1	4
645.541	1	0
646.728	1	9
647.914	1	-6
649.101	1	9
650.288	1	-1
651.474	1	9
652.661	1	7
653.847	1	6
655.034	1	-4
656.220	1	-1
657.406	1	8
658.593	1	-4
659.779	1	-7
660.965	1	9
662.152	1	1
663.338	1	0
664.524	1	-1
665.710	1	1
666.896	1	0
668.082	1	-1
669.268	1	-2
670.454	1	3
671.640	1	-9
672.826	1	-8
674.011	1	5
675.197	1	-1
676.383	1	-2
677.569	1	-5
678.754	1	-4
679.940	1	-3
681.125	1	11
682.311	1	4
683.496	1	-6
684.682	1	10
685.867	1	-2
687.053	1	7
688.238	1	3
688.746	1	10