File: Analysis/GaN_68K_200ms/GaN_sample E_spot4_UVVIS_68 K_200um_200 ms 2x2mm1_232.txt
340.368	1	4
341.565	1	-5
342.763	1	-2
343.960	1	-2
345.157	1	3
346.354	1	0
347.552	1	3
348.749	1	4
349.946	1	10
351.143	1	-3
352.340	1	1
353.537	1	2
354.734	1	3
355.931	1	5
357.127	1	12
358.324	1	6
359.521	1	13
360.718	1	-1
361.914	1	5
363.111	1	12
364.308	1	10
365.504	1	6
366.701	1	10
367.897	1	8
369.093	1	7
370.290	1	11
371.486	1	16
372.682	1	8
373.879	1	14
375.075	1	6
376.271	1	1
377.467	1	-8
378.663	1	12
379.859	1	8
381.055	1	10
382.251	1	4
383.447	1	14
384.643	1	18
385.839	1	15
387.035	1	5
388.230	1	10
389.426	1	17
390.622	1	11
391.817	1	12
393.013	1	33
394.208	1	11
395.404	1	21
396.599	1	11
397.795	1	17
398.990	1	10
400.186	1	15
401.381	1	15
402.576	1	22
403.771	1	12
404.967	1	13
406.162	1	-2
407.357	1	16
408.552	1	9
409.747	1	-4
410.942	1	14
412.137	1	8
413.332	1	6
414.526	1	8
415.721	1	14
416.916	1	4
418.111	1	6
419.305	1	9
420.500	1	3
421.695	1	3
422.889	1	16
424.084	1	13
425.278	1	5
426.472	1	5
427.667	1	13
428.861	1	20
430.055	1	14
431.250	1	0
432.444	1	11
433.638	1	0
434.832	1	4
436.026	1	4
437.220	1	11
438.414	1	2
439.608	1	12
440.802	1	13
441.996	1	2
443.190	1	-2
444.384	1	2
445.578	1	12
446.771	1	4
447.965	1	0
449.159	1	3
450.352	1	10
451.546	1	15
452.739	1	11
453.933	1	11
455.126	1	8
456.320	1	6
457.513	1	11
458.706	1	9
459.899	1	21
461.093	1	13
462.286	1	15
463.479	1	14
464.672	1	-2
465.865	1	3
467.058	1	18
468.251	1	3
469.444	1	3
470.637	1	16
471.830	1	15
473.023	1	-5
474.215	1	1
475.408	1	2
476.601	1	13
477.793	1	12
478.986	1	2
480.179	1	1
481.371	1	0
482.564	1	-1
483.756	1	17
484.948	1	-4
486.141	1	0
487.333	1	2
488.525	1	-3
489.718	1	6
490.910	1	-7
492.102	1	1
493.294	1	12
494.486	1	9
495.678	1	19
496.870	1	-1
498.062	1	4
499.254	1	4
500.446	1	14
501.638	1	4
502.829	1	8
504.021	1	23
505.213	1	1
506.404	1	-3
507.596	1	19
508.788	1	6
509.979	1	18
511.171	1	20
512.362	1	9
513.553	1	0
514.745	1	9
515.936	1	15
517.127	1	5
518.319	1	4
519.510	1	16
520.701	1	16
521.892	1	3
523.083	1	6
524.274	1	7
525.465	1	9
526.656	1	24
527.847	1	-3
529.038	1	10
530.229	1	11
531.419	1	14
532.610	1	12
533.801	1	3
534.991	1	7
536.182	1	14
537.373	1	-1
538.563	1	13
539.754	1	8
540.944	1	7
542.134	1	15
543.325	1	11
544.515	1	8
545.705	1	6
546.896	1	8
548.086	1	4
549.276	1	15
550.466	1	14
551.656	1	3
552.846	1	13
554.036	1	10
555.226	1	3
556.416	1	13
557.606	1	4
558.796	1	8
559.986	1	10
561.175	1	3
562.365	1	9
563.555	1	10
564.744	1	11
565.934	1	12
567.123	1	27
568.313	1	6
569.502	1	3
570.692	1	16
571.881	1	11
573.070	1	5
574.260	1	7
575.449	1	12
576.638	1	9
577.827	1	10
579.016	1	22
580.205	1	4
581.394	1	1
582.583	1	5
583.772	1	7
584.961	1	7
586.150	1	4
587.339	1	2
588.528	1	10
589.717	1	5
590.905	1	7
592.094	1	0
593.283	1	2
594.471	1	-1
595.660	1	0
596.848	1	7
598.037	1	1
599.225	1	-1
600.413	1	7
601.602	1	11
602.790	1	2
603.978	1	7
605.166	1	1
606.355	1	10
607.543	1	-11
608.731	1	2
609.919	1	-9
611.107	1	10
612.295	1	9
613.483	1	7
614.671	1	2
615.858	1	2
617.046	1	10
618.234	1	-1
619.422	1	8
620.609	1	9
621.797	1	5
622.985	1	5
624.172	1	19
625.360	1	1
626.547	1	9
627.735	1	-3
628.922	1	3
630.109	1	2
631.297	1	-7
632.484	1	-4
633.671	1	2
634.858	1	7
636.045	1	2
637.232	1	7
638.419	1	11
639.606	1	17
640.793	1	7
641.980	1	10
643.167	1	10
644.354	1	6
645.541	1	-7
646.728	1	9
647.914	1	-1
649.101	1	-7
650.288	1	-1
651.474	1	13
652.661	1	2
653.847	1	-2
655.034	1	4
656.220	1	5
657.406	1	8
658.593	1	-10
659.779	1	-3
660.965	1	0
662.152	1	7
663.338	1	0
664.524	1	-3
665.710	1	-4
666.896	1	-1
668.082	1	2
669.268	1	5
670.454	1	8
671.640	1	-7
672.826	1	-7
674.011	1	9
675.197	1	-1
676.383	1	3
677.569	1	0
678.754	1	1
679.940	1	-1
681.125	1	8
682.311	1	-2
683.496	1	-7
684.682	1	6
685.867	1	-4
687.053	1	3
688.238	1	2
688.746	1	-3