File: Analysis/GaN_68K_200ms/GaN_sample E_spot4_UVVIS_68 K_200um_200 ms 2x2mm1_786.txt
340.368	1	2
341.565	1	-9
342.763	1	0
343.960	1	3
345.157	1	3
346.354	1	-1
347.552	1	3
348.749	1	5
349.946	1	2
351.143	1	-10
352.340	1	-13
353.537	1	-2
354.734	1	-5
355.931	1	-3
357.127	1	-1
358.324	1	-3
359.521	1	-4
360.718	1	-2
361.914	1	-11
363.111	1	5
364.308	1	3
365.504	1	-5
366.701	1	-13
367.897	1	2
369.093	1	-3
370.290	1	-7
371.486	1	10
372.682	1	-5
373.879	1	6
375.075	1	4
376.271	1	-14
377.467	1	-5
378.663	1	-10
379.859	1	0
381.055	1	0
382.251	1	1
383.447	1	0
384.643	1	12
385.839	1	4
387.035	1	-9
388.230	1	0
389.426	1	6
390.622	1	-6
391.817	1	-13
393.013	1	9
394.208	1	4
395.404	1	8
396.599	1	5
397.795	1	8
398.990	1	-4
400.186	1	-3
401.381	1	4
402.576	1	6
403.771	1	9
404.967	1	2
406.162	1	-3
407.357	1	4
408.552	1	0
409.747	1	0
410.942	1	0
412.137	1	15
413.332	1	0
414.526	1	-1
415.721	1	-3
416.916	1	-5
418.111	1	-1
419.305	1	5
420.500	1	-4
421.695	1	-3
422.889	1	-1
424.084	1	0
425.278	1	-5
426.472	1	-4
427.667	1	7
428.861	1	-1
430.055	1	-2
431.250	1	-7
432.444	1	4
433.638	1	6
434.832	1	-5
436.026	1	0
437.220	1	0
438.414	1	3
439.608	1	-7
440.802	1	2
441.996	1	-5
443.190	1	-13
444.384	1	7
445.578	1	9
446.771	1	-6
447.965	1	2
449.159	1	-5
450.352	1	10
451.546	1	5
452.739	1	0
453.933	1	6
455.126	1	0
456.320	1	2
457.513	1	9
458.706	1	1
459.899	1	9
461.093	1	8
462.286	1	5
463.479	1	6
464.672	1	4
465.865	1	-3
467.058	1	11
468.251	1	-5
469.444	1	-9
470.637	1	6
471.830	1	15
473.023	1	-9
474.215	1	4
475.408	1	3
476.601	1	1
477.793	1	14
478.986	1	-3
480.179	1	-2
481.371	1	-2
482.564	1	-5
483.756	1	3
484.948	1	-4
486.141	1	-4
487.333	1	-1
488.525	1	-3
489.718	1	-2
490.910	1	-10
492.102	1	-6
493.294	1	13
494.486	1	-2
495.678	1	8
496.870	1	1
498.062	1	-8
499.254	1	-4
500.446	1	10
501.638	1	-2
502.829	1	-10
504.021	1	14
505.213	1	-6
506.404	1	-8
507.596	1	9
508.788	1	3
509.979	1	-1
511.171	1	13
512.362	1	-1
513.553	1	-9
514.745	1	-12
515.936	1	-2
517.127	1	2
518.319	1	-9
519.510	1	-1
520.701	1	5
521.892	1	-7
523.083	1	-6
524.274	1	-14
525.465	1	-7
526.656	1	26
527.847	1	-8
529.038	1	5
530.229	1	6
531.419	1	10
532.610	1	0
533.801	1	2
534.991	1	11
536.182	1	-9
537.373	1	-1
538.563	1	-2
539.754	1	-4
540.944	1	-7
542.134	1	4
543.325	1	-5
544.515	1	-6
545.705	1	11
546.896	1	-1
548.086	1	5
549.276	1	4
550.466	1	-1
551.656	1	-4
552.846	1	2
554.036	1	3
555.226	1	-13
556.416	1	-2
557.606	1	-10
558.796	1	5
559.986	1	-6
561.175	1	8
562.365	1	-3
563.555	1	8
564.744	1	-1
565.934	1	8
567.123	1	14
568.313	1	-5
569.502	1	1
570.692	1	4
571.881	1	1
573.070	1	13
574.260	1	-3
575.449	1	5
576.638	1	-5
577.827	1	3
579.016	1	5
580.205	1	-4
581.394	1	-1
582.583	1	-5
583.772	1	-1
584.961	1	-4
586.150	1	-2
587.339	1	-4
588.528	1	6
589.717	1	2
590.905	1	9
592.094	1	1
593.283	1	1
594.471	1	-7
595.660	1	3
596.848	1	8
598.037	1	7
599.225	1	4
600.413	1	-8
601.602	1	2
602.790	1	1
603.978	1	-3
605.166	1	-6
606.355	1	7
607.543	1	-9
608.731	1	-8
609.919	1	-7
611.107	1	5
612.295	1	2
613.483	1	-5
614.671	1	1
615.858	1	-3
617.046	1	13
618.234	1	-1
619.422	1	0
620.609	1	-3
621.797	1	-5
622.985	1	-2
624.172	1	9
625.360	1	-10
626.547	1	2
627.735	1	4
628.922	1	-6
630.109	1	-4
631.297	1	-6
632.484	1	-3
633.671	1	3
634.858	1	3
636.045	1	-2
637.232	1	2
638.419	1	5
639.606	1	1
640.793	1	4
641.980	1	3
643.167	1	6
644.354	1	-5
645.541	1	-12
646.728	1	11
647.914	1	-13
649.101	1	5
650.288	1	-1
651.474	1	5
652.661	1	3
653.847	1	3
655.034	1	-2
656.220	1	5
657.406	1	4
658.593	1	-11
659.779	1	-5
660.965	1	6
662.152	1	-7
663.338	1	2
664.524	1	-8
665.710	1	-9
666.896	1	-1
668.082	1	1
669.268	1	-5
670.454	1	-5
671.640	1	-16
672.826	1	-7
674.011	1	4
675.197	1	-4
676.383	1	-2
677.569	1	-8
678.754	1	-10
679.940	1	2
681.125	1	6
682.311	1	2
683.496	1	2
684.682	1	7
685.867	1	-5
687.053	1	-5
688.238	1	-2
688.746	1	1