File: Analysis/GaN_68K_200ms/GaN_sample E_spot4_UVVIS_68 K_200um_200 ms 2x2mm1_208.txt
340.368	1	8
341.565	1	-5
342.763	1	4
343.960	1	-7
345.157	1	11
346.354	1	3
347.552	1	2
348.749	1	-1
349.946	1	16
351.143	1	-9
352.340	1	3
353.537	1	5
354.734	1	-6
355.931	1	-2
357.127	1	2
358.324	1	4
359.521	1	-2
360.718	1	9
361.914	1	6
363.111	1	15
364.308	1	12
365.504	1	15
366.701	1	12
367.897	1	16
369.093	1	25
370.290	1	12
371.486	1	13
372.682	1	2
373.879	1	11
375.075	1	20
376.271	1	12
377.467	1	7
378.663	1	2
379.859	1	12
381.055	1	13
382.251	1	12
383.447	1	20
384.643	1	23
385.839	1	18
387.035	1	19
388.230	1	22
389.426	1	26
390.622	1	11
391.817	1	20
393.013	1	14
394.208	1	27
395.404	1	28
396.599	1	23
397.795	1	21
398.990	1	25
400.186	1	28
401.381	1	18
402.576	1	24
403.771	1	9
404.967	1	16
406.162	1	7
407.357	1	14
408.552	1	24
409.747	1	2
410.942	1	16
412.137	1	22
413.332	1	9
414.526	1	20
415.721	1	9
416.916	1	4
418.111	1	14
419.305	1	14
420.500	1	24
421.695	1	11
422.889	1	14
424.084	1	15
425.278	1	1
426.472	1	12
427.667	1	17
428.861	1	8
430.055	1	12
431.250	1	-6
432.444	1	17
433.638	1	4
434.832	1	7
436.026	1	15
437.220	1	14
438.414	1	12
439.608	1	10
440.802	1	5
441.996	1	8
443.190	1	0
444.384	1	9
445.578	1	10
446.771	1	6
447.965	1	2
449.159	1	-2
450.352	1	7
451.546	1	5
452.739	1	7
453.933	1	9
455.126	1	9
456.320	1	8
457.513	1	12
458.706	1	7
459.899	1	18
461.093	1	12
462.286	1	18
463.479	1	14
464.672	1	2
465.865	1	5
467.058	1	11
468.251	1	0
469.444	1	12
470.637	1	13
471.830	1	21
473.023	1	-6
474.215	1	-1
475.408	1	21
476.601	1	4
477.793	1	8
478.986	1	-3
480.179	1	13
481.371	1	5
482.564	1	1
483.756	1	17
484.948	1	-1
486.141	1	2
487.333	1	1
488.525	1	7
489.718	1	0
490.910	1	6
492.102	1	-1
493.294	1	11
494.486	1	16
495.678	1	14
496.870	1	11
498.062	1	6
499.254	1	6
500.446	1	20
501.638	1	9
502.829	1	6
504.021	1	26
505.213	1	1
506.404	1	0
507.596	1	14
508.788	1	12
509.979	1	12
511.171	1	20
512.362	1	9
513.553	1	2
514.745	1	10
515.936	1	7
517.127	1	10
518.319	1	17
519.510	1	14
520.701	1	16
521.892	1	3
523.083	1	8
524.274	1	15
525.465	1	21
526.656	1	33
527.847	1	0
529.038	1	10
530.229	1	27
531.419	1	16
532.610	1	19
533.801	1	13
534.991	1	11
536.182	1	14
537.373	1	1
538.563	1	14
539.754	1	11
540.944	1	13
542.134	1	22
543.325	1	5
544.515	1	12
545.705	1	17
546.896	1	17
548.086	1	17
549.276	1	12
550.466	1	9
551.656	1	9
552.846	1	21
554.036	1	14
555.226	1	3
556.416	1	10
557.606	1	12
558.796	1	13
559.986	1	2
561.175	1	5
562.365	1	13
563.555	1	10
564.744	1	14
565.934	1	11
567.123	1	24
568.313	1	4
569.502	1	12
570.692	1	9
571.881	1	14
573.070	1	7
574.260	1	5
575.449	1	13
576.638	1	9
577.827	1	13
579.016	1	16
580.205	1	11
581.394	1	0
582.583	1	2
583.772	1	7
584.961	1	9
586.150	1	0
587.339	1	3
588.528	1	-1
589.717	1	1
590.905	1	10
592.094	1	5
593.283	1	15
594.471	1	5
595.660	1	2
596.848	1	10
598.037	1	5
599.225	1	12
600.413	1	0
601.602	1	13
602.790	1	3
603.978	1	5
605.166	1	-6
606.355	1	11
607.543	1	4
608.731	1	3
609.919	1	-4
611.107	1	2
612.295	1	10
613.483	1	5
614.671	1	6
615.858	1	13
617.046	1	9
618.234	1	-2
619.422	1	5
620.609	1	2
621.797	1	6
622.985	1	13
624.172	1	8
625.360	1	0
626.547	1	8
627.735	1	11
628.922	1	9
630.109	1	-5
631.297	1	-1
632.484	1	5
633.671	1	4
634.858	1	8
636.045	1	0
637.232	1	4
638.419	1	7
639.606	1	15
640.793	1	7
641.980	1	8
643.167	1	8
644.354	1	6
645.541	1	-2
646.728	1	7
647.914	1	5
649.101	1	10
650.288	1	1
651.474	1	3
652.661	1	-3
653.847	1	4
655.034	1	3
656.220	1	9
657.406	1	3
658.593	1	-2
659.779	1	6
660.965	1	2
662.152	1	2
663.338	1	3
664.524	1	-4
665.710	1	0
666.896	1	2
668.082	1	-4
669.268	1	1
670.454	1	9
671.640	1	-13
672.826	1	-12
674.011	1	1
675.197	1	3
676.383	1	10
677.569	1	-4
678.754	1	8
679.940	1	1
681.125	1	13
682.311	1	4
683.496	1	5
684.682	1	8
685.867	1	8
687.053	1	10
688.238	1	-1
688.746	1	9