File: Analysis/GaN_68K_200ms/GaN_sample E_spot4_UVVIS_68 K_200um_200 ms 2x2mm1_599.txt
340.368	1	3
341.565	1	-7
342.763	1	-7
343.960	1	-9
345.157	1	3
346.354	1	-8
347.552	1	6
348.749	1	1
349.946	1	6
351.143	1	-16
352.340	1	8
353.537	1	-10
354.734	1	0
355.931	1	2
357.127	1	-4
358.324	1	-8
359.521	1	-10
360.718	1	0
361.914	1	2
363.111	1	5
364.308	1	1
365.504	1	-14
366.701	1	-4
367.897	1	-2
369.093	1	-4
370.290	1	-2
371.486	1	2
372.682	1	9
373.879	1	15
375.075	1	10
376.271	1	-12
377.467	1	0
378.663	1	-7
379.859	1	-2
381.055	1	-1
382.251	1	7
383.447	1	3
384.643	1	4
385.839	1	13
387.035	1	2
388.230	1	5
389.426	1	3
390.622	1	-2
391.817	1	-5
393.013	1	7
394.208	1	14
395.404	1	6
396.599	1	7
397.795	1	10
398.990	1	8
400.186	1	5
401.381	1	15
402.576	1	10
403.771	1	7
404.967	1	9
406.162	1	0
407.357	1	1
408.552	1	5
409.747	1	-9
410.942	1	3
412.137	1	6
413.332	1	-5
414.526	1	8
415.721	1	1
416.916	1	-4
418.111	1	-2
419.305	1	-4
420.500	1	5
421.695	1	2
422.889	1	-4
424.084	1	7
425.278	1	-13
426.472	1	-3
427.667	1	4
428.861	1	0
430.055	1	1
431.250	1	-17
432.444	1	8
433.638	1	-1
434.832	1	0
436.026	1	5
437.220	1	5
438.414	1	8
439.608	1	5
440.802	1	5
441.996	1	2
443.190	1	-3
444.384	1	1
445.578	1	10
446.771	1	-8
447.965	1	-9
449.159	1	-7
450.352	1	8
451.546	1	-5
452.739	1	-4
453.933	1	2
455.126	1	5
456.320	1	-3
457.513	1	6
458.706	1	-1
459.899	1	6
461.093	1	7
462.286	1	5
463.479	1	10
464.672	1	2
465.865	1	-5
467.058	1	8
468.251	1	3
469.444	1	-9
470.637	1	14
471.830	1	4
473.023	1	1
474.215	1	-12
475.408	1	-3
476.601	1	0
477.793	1	6
478.986	1	-8
480.179	1	2
481.371	1	-6
482.564	1	-11
483.756	1	-1
484.948	1	-3
486.141	1	-11
487.333	1	3
488.525	1	12
489.718	1	-5
490.910	1	-3
492.102	1	-11
493.294	1	3
494.486	1	1
495.678	1	5
496.870	1	-3
498.062	1	-1
499.254	1	1
500.446	1	6
501.638	1	-3
502.829	1	0
504.021	1	13
505.213	1	10
506.404	1	-2
507.596	1	0
508.788	1	-12
509.979	1	-1
511.171	1	7
512.362	1	8
513.553	1	-2
514.745	1	-4
515.936	1	4
517.127	1	-3
518.319	1	0
519.510	1	0
520.701	1	13
521.892	1	-16
523.083	1	-3
524.274	1	-3
525.465	1	-4
526.656	1	20
527.847	1	-6
529.038	1	5
530.229	1	1
531.419	1	11
532.610	1	-1
533.801	1	1
534.991	1	0
536.182	1	0
537.373	1	-8
538.563	1	8
539.754	1	-1
540.944	1	-7
542.134	1	6
543.325	1	-2
544.515	1	-5
545.705	1	14
546.896	1	7
548.086	1	-8
549.276	1	0
550.466	1	-7
551.656	1	-9
552.846	1	4
554.036	1	5
555.226	1	3
556.416	1	3
557.606	1	-5
558.796	1	-4
559.986	1	-5
561.175	1	5
562.365	1	4
563.555	1	10
564.744	1	0
565.934	1	4
567.123	1	9
568.313	1	1
569.502	1	7
570.692	1	-3
571.881	1	5
573.070	1	5
574.260	1	-13
575.449	1	8
576.638	1	-1
577.827	1	2
579.016	1	4
580.205	1	-3
581.394	1	-8
582.583	1	-2
583.772	1	-3
584.961	1	4
586.150	1	-1
587.339	1	2
588.528	1	8
589.717	1	1
590.905	1	8
592.094	1	8
593.283	1	11
594.471	1	4
595.660	1	-11
596.848	1	2
598.037	1	-4
599.225	1	-2
600.413	1	3
601.602	1	3
602.790	1	5
603.978	1	-8
605.166	1	-3
606.355	1	-4
607.543	1	-5
608.731	1	-4
609.919	1	-7
611.107	1	12
612.295	1	-5
613.483	1	11
614.671	1	4
615.858	1	4
617.046	1	3
618.234	1	-6
619.422	1	2
620.609	1	-2
621.797	1	-5
622.985	1	1
624.172	1	11
625.360	1	-8
626.547	1	-1
627.735	1	5
628.922	1	-1
630.109	1	-5
631.297	1	-3
632.484	1	-8
633.671	1	-3
634.858	1	15
636.045	1	-4
637.232	1	2
638.419	1	8
639.606	1	13
640.793	1	7
641.980	1	-5
643.167	1	7
644.354	1	-1
645.541	1	-5
646.728	1	-4
647.914	1	-7
649.101	1	-4
650.288	1	-3
651.474	1	8
652.661	1	5
653.847	1	-3
655.034	1	9
656.220	1	4
657.406	1	7
658.593	1	-1
659.779	1	-11
660.965	1	0
662.152	1	7
663.338	1	-2
664.524	1	-21
665.710	1	-12
666.896	1	8
668.082	1	1
669.268	1	-3
670.454	1	-9
671.640	1	-15
672.826	1	-13
674.011	1	0
675.197	1	-7
676.383	1	5
677.569	1	-6
678.754	1	-4
679.940	1	-4
681.125	1	12
682.311	1	0
683.496	1	-9
684.682	1	3
685.867	1	-12
687.053	1	13
688.238	1	-1
688.746	1	3