File: Analysis/GaN_68K_200ms/GaN_sample E_spot4_UVVIS_68 K_200um_200 ms 2x2mm1_466.txt
340.368	1	0
341.565	1	-3
342.763	1	5
343.960	1	4
345.157	1	1
346.354	1	-4
347.552	1	2
348.749	1	-2
349.946	1	6
351.143	1	-2
352.340	1	-2
353.537	1	-1
354.734	1	-1
355.931	1	5
357.127	1	9
358.324	1	4
359.521	1	-6
360.718	1	-5
361.914	1	2
363.111	1	0
364.308	1	-8
365.504	1	-6
366.701	1	-2
367.897	1	-4
369.093	1	-4
370.290	1	1
371.486	1	5
372.682	1	-1
373.879	1	9
375.075	1	5
376.271	1	-2
377.467	1	2
378.663	1	-5
379.859	1	-6
381.055	1	1
382.251	1	6
383.447	1	14
384.643	1	7
385.839	1	8
387.035	1	9
388.230	1	7
389.426	1	12
390.622	1	-9
391.817	1	-1
393.013	1	10
394.208	1	12
395.404	1	4
396.599	1	5
397.795	1	17
398.990	1	10
400.186	1	16
401.381	1	0
402.576	1	13
403.771	1	9
404.967	1	10
406.162	1	1
407.357	1	-4
408.552	1	7
409.747	1	4
410.942	1	9
412.137	1	15
413.332	1	-5
414.526	1	4
415.721	1	3
416.916	1	-12
418.111	1	6
419.305	1	-5
420.500	1	-6
421.695	1	4
422.889	1	12
424.084	1	14
425.278	1	-7
426.472	1	-3
427.667	1	8
428.861	1	1
430.055	1	2
431.250	1	-4
432.444	1	2
433.638	1	-9
434.832	1	-5
436.026	1	4
437.220	1	10
438.414	1	5
439.608	1	4
440.802	1	7
441.996	1	7
443.190	1	-12
444.384	1	1
445.578	1	7
446.771	1	0
447.965	1	-9
449.159	1	-4
450.352	1	7
451.546	1	2
452.739	1	-3
453.933	1	15
455.126	1	6
456.320	1	0
457.513	1	-1
458.706	1	0
459.899	1	6
461.093	1	7
462.286	1	3
463.479	1	11
464.672	1	-5
465.865	1	-2
467.058	1	5
468.251	1	0
469.444	1	-4
470.637	1	10
471.830	1	11
473.023	1	-3
474.215	1	1
475.408	1	6
476.601	1	-1
477.793	1	9
478.986	1	0
480.179	1	3
481.371	1	7
482.564	1	-10
483.756	1	13
484.948	1	-3
486.141	1	-11
487.333	1	4
488.525	1	2
489.718	1	-1
490.910	1	-1
492.102	1	-4
493.294	1	12
494.486	1	5
495.678	1	4
496.870	1	-4
498.062	1	-7
499.254	1	-4
500.446	1	5
501.638	1	1
502.829	1	11
504.021	1	19
505.213	1	-4
506.404	1	-6
507.596	1	6
508.788	1	1
509.979	1	3
511.171	1	9
512.362	1	3
513.553	1	-13
514.745	1	-2
515.936	1	7
517.127	1	7
518.319	1	-1
519.510	1	2
520.701	1	10
521.892	1	-8
523.083	1	-8
524.274	1	0
525.465	1	5
526.656	1	16
527.847	1	3
529.038	1	1
530.229	1	11
531.419	1	9
532.610	1	6
533.801	1	4
534.991	1	3
536.182	1	-4
537.373	1	10
538.563	1	-5
539.754	1	-2
540.944	1	-3
542.134	1	8
543.325	1	6
544.515	1	5
545.705	1	7
546.896	1	2
548.086	1	6
549.276	1	2
550.466	1	3
551.656	1	1
552.846	1	-1
554.036	1	8
555.226	1	1
556.416	1	-6
557.606	1	-3
558.796	1	5
559.986	1	-8
561.175	1	4
562.365	1	13
563.555	1	2
564.744	1	5
565.934	1	4
567.123	1	3
568.313	1	-6
569.502	1	7
570.692	1	3
571.881	1	8
573.070	1	10
574.260	1	-2
575.449	1	4
576.638	1	0
577.827	1	-4
579.016	1	8
580.205	1	4
581.394	1	-16
582.583	1	-9
583.772	1	-2
584.961	1	-2
586.150	1	8
587.339	1	10
588.528	1	9
589.717	1	-3
590.905	1	1
592.094	1	9
593.283	1	9
594.471	1	7
595.660	1	-2
596.848	1	9
598.037	1	-2
599.225	1	9
600.413	1	-10
601.602	1	6
602.790	1	-2
603.978	1	-3
605.166	1	-6
606.355	1	3
607.543	1	-14
608.731	1	-8
609.919	1	-12
611.107	1	7
612.295	1	7
613.483	1	10
614.671	1	5
615.858	1	2
617.046	1	1
618.234	1	2
619.422	1	-4
620.609	1	-2
621.797	1	-4
622.985	1	1
624.172	1	5
625.360	1	-9
626.547	1	-1
627.735	1	13
628.922	1	-5
630.109	1	1
631.297	1	-4
632.484	1	4
633.671	1	1
634.858	1	3
636.045	1	2
637.232	1	-3
638.419	1	-1
639.606	1	8
640.793	1	4
641.980	1	-3
643.167	1	8
644.354	1	0
645.541	1	-9
646.728	1	6
647.914	1	-9
649.101	1	3
650.288	1	9
651.474	1	10
652.661	1	-1
653.847	1	0
655.034	1	0
656.220	1	5
657.406	1	7
658.593	1	-7
659.779	1	-4
660.965	1	3
662.152	1	-3
663.338	1	-4
664.524	1	-14
665.710	1	-5
666.896	1	-2
668.082	1	4
669.268	1	0
670.454	1	4
671.640	1	-8
672.826	1	-13
674.011	1	4
675.197	1	-6
676.383	1	-8
677.569	1	5
678.754	1	-4
679.940	1	0
681.125	1	9
682.311	1	-1
683.496	1	6
684.682	1	7
685.867	1	-4
687.053	1	-4
688.238	1	-4
688.746	1	9