File: Analysis/GaN_68K_200ms/GaN_sample E_spot4_UVVIS_68 K_200um_200 ms 2x2mm1_709.txt
340.368	1	-3
341.565	1	-15
342.763	1	0
343.960	1	-3
345.157	1	9
346.354	1	-8
347.552	1	2
348.749	1	8
349.946	1	8
351.143	1	-5
352.340	1	0
353.537	1	-1
354.734	1	-6
355.931	1	6
357.127	1	-2
358.324	1	5
359.521	1	1
360.718	1	-3
361.914	1	3
363.111	1	6
364.308	1	-5
365.504	1	-1
366.701	1	2
367.897	1	1
369.093	1	-2
370.290	1	-13
371.486	1	-3
372.682	1	-1
373.879	1	6
375.075	1	11
376.271	1	-6
377.467	1	-3
378.663	1	-4
379.859	1	-1
381.055	1	-4
382.251	1	2
383.447	1	4
384.643	1	1
385.839	1	3
387.035	1	0
388.230	1	7
389.426	1	6
390.622	1	-4
391.817	1	0
393.013	1	9
394.208	1	5
395.404	1	3
396.599	1	12
397.795	1	1
398.990	1	11
400.186	1	4
401.381	1	9
402.576	1	-1
403.771	1	0
404.967	1	-1
406.162	1	-11
407.357	1	-4
408.552	1	-5
409.747	1	-6
410.942	1	1
412.137	1	10
413.332	1	4
414.526	1	0
415.721	1	4
416.916	1	-8
418.111	1	-6
419.305	1	0
420.500	1	2
421.695	1	-7
422.889	1	2
424.084	1	6
425.278	1	-2
426.472	1	-5
427.667	1	6
428.861	1	4
430.055	1	-5
431.250	1	-3
432.444	1	5
433.638	1	1
434.832	1	1
436.026	1	8
437.220	1	9
438.414	1	2
439.608	1	-7
440.802	1	-2
441.996	1	3
443.190	1	-5
444.384	1	-3
445.578	1	5
446.771	1	-8
447.965	1	-6
449.159	1	-3
450.352	1	8
451.546	1	-1
452.739	1	-2
453.933	1	7
455.126	1	3
456.320	1	-2
457.513	1	5
458.706	1	5
459.899	1	7
461.093	1	2
462.286	1	10
463.479	1	7
464.672	1	-1
465.865	1	-3
467.058	1	16
468.251	1	-7
469.444	1	-7
470.637	1	11
471.830	1	12
473.023	1	-11
474.215	1	2
475.408	1	1
476.601	1	5
477.793	1	1
478.986	1	-7
480.179	1	-3
481.371	1	13
482.564	1	-5
483.756	1	10
484.948	1	-5
486.141	1	-2
487.333	1	-1
488.525	1	-2
489.718	1	-2
490.910	1	3
492.102	1	2
493.294	1	6
494.486	1	-1
495.678	1	11
496.870	1	-3
498.062	1	-3
499.254	1	1
500.446	1	8
501.638	1	6
502.829	1	2
504.021	1	21
505.213	1	-5
506.404	1	1
507.596	1	6
508.788	1	3
509.979	1	0
511.171	1	9
512.362	1	-1
513.553	1	-7
514.745	1	-1
515.936	1	3
517.127	1	0
518.319	1	-8
519.510	1	-3
520.701	1	3
521.892	1	-6
523.083	1	-5
524.274	1	-1
525.465	1	1
526.656	1	10
527.847	1	-2
529.038	1	4
530.229	1	9
531.419	1	10
532.610	1	7
533.801	1	1
534.991	1	4
536.182	1	-1
537.373	1	-3
538.563	1	-3
539.754	1	-5
540.944	1	1
542.134	1	14
543.325	1	-5
544.515	1	1
545.705	1	-4
546.896	1	-3
548.086	1	8
549.276	1	13
550.466	1	8
551.656	1	2
552.846	1	1
554.036	1	5
555.226	1	-9
556.416	1	2
557.606	1	-4
558.796	1	-8
559.986	1	-2
561.175	1	-9
562.365	1	0
563.555	1	12
564.744	1	2
565.934	1	1
567.123	1	18
568.313	1	2
569.502	1	-7
570.692	1	7
571.881	1	7
573.070	1	7
574.260	1	-1
575.449	1	1
576.638	1	3
577.827	1	-2
579.016	1	11
580.205	1	0
581.394	1	-5
582.583	1	-4
583.772	1	5
584.961	1	2
586.150	1	5
587.339	1	-4
588.528	1	11
589.717	1	-5
590.905	1	-3
592.094	1	-8
593.283	1	5
594.471	1	-1
595.660	1	-7
596.848	1	3
598.037	1	13
599.225	1	5
600.413	1	4
601.602	1	-1
602.790	1	-1
603.978	1	0
605.166	1	-4
606.355	1	3
607.543	1	-4
608.731	1	-12
609.919	1	-2
611.107	1	17
612.295	1	-1
613.483	1	0
614.671	1	-2
615.858	1	4
617.046	1	0
618.234	1	0
619.422	1	0
620.609	1	-1
621.797	1	-1
622.985	1	6
624.172	1	4
625.360	1	-6
626.547	1	-4
627.735	1	8
628.922	1	1
630.109	1	-4
631.297	1	-10
632.484	1	-6
633.671	1	0
634.858	1	6
636.045	1	3
637.232	1	-10
638.419	1	6
639.606	1	16
640.793	1	14
641.980	1	-1
643.167	1	9
644.354	1	-4
645.541	1	-6
646.728	1	9
647.914	1	-5
649.101	1	-1
650.288	1	2
651.474	1	8
652.661	1	-1
653.847	1	3
655.034	1	-2
656.220	1	7
657.406	1	9
658.593	1	-6
659.779	1	-11
660.965	1	-1
662.152	1	5
663.338	1	-9
664.524	1	-10
665.710	1	1
666.896	1	-2
668.082	1	-2
669.268	1	3
670.454	1	-4
671.640	1	-11
672.826	1	-22
674.011	1	-2
675.197	1	-6
676.383	1	-5
677.569	1	-11
678.754	1	1
679.940	1	-6
681.125	1	4
682.311	1	0
683.496	1	-4
684.682	1	10
685.867	1	3
687.053	1	7
688.238	1	4
688.746	1	7