File: Analysis/GaN_68K_200ms/GaN_sample E_spot4_UVVIS_68 K_200um_200 ms 2x2mm1_490.txt
340.368	1	2
341.565	1	-8
342.763	1	-3
343.960	1	-5
345.157	1	9
346.354	1	2
347.552	1	1
348.749	1	8
349.946	1	17
351.143	1	-2
352.340	1	-2
353.537	1	7
354.734	1	-2
355.931	1	3
357.127	1	11
358.324	1	5
359.521	1	1
360.718	1	8
361.914	1	4
363.111	1	14
364.308	1	-12
365.504	1	1
366.701	1	-2
367.897	1	7
369.093	1	0
370.290	1	4
371.486	1	11
372.682	1	-1
373.879	1	13
375.075	1	3
376.271	1	-1
377.467	1	-1
378.663	1	1
379.859	1	-6
381.055	1	5
382.251	1	8
383.447	1	11
384.643	1	3
385.839	1	10
387.035	1	1
388.230	1	1
389.426	1	9
390.622	1	3
391.817	1	7
393.013	1	13
394.208	1	7
395.404	1	5
396.599	1	14
397.795	1	9
398.990	1	8
400.186	1	6
401.381	1	10
402.576	1	9
403.771	1	2
404.967	1	4
406.162	1	1
407.357	1	5
408.552	1	5
409.747	1	0
410.942	1	0
412.137	1	10
413.332	1	-2
414.526	1	5
415.721	1	-5
416.916	1	0
418.111	1	4
419.305	1	4
420.500	1	7
421.695	1	-5
422.889	1	7
424.084	1	2
425.278	1	-5
426.472	1	3
427.667	1	4
428.861	1	-1
430.055	1	2
431.250	1	-3
432.444	1	5
433.638	1	-8
434.832	1	-5
436.026	1	9
437.220	1	8
438.414	1	8
439.608	1	8
440.802	1	3
441.996	1	1
443.190	1	-12
444.384	1	9
445.578	1	6
446.771	1	-1
447.965	1	-9
449.159	1	-9
450.352	1	8
451.546	1	3
452.739	1	4
453.933	1	2
455.126	1	3
456.320	1	-2
457.513	1	14
458.706	1	10
459.899	1	12
461.093	1	8
462.286	1	5
463.479	1	12
464.672	1	2
465.865	1	1
467.058	1	12
468.251	1	-1
469.444	1	2
470.637	1	21
471.830	1	18
473.023	1	-3
474.215	1	-1
475.408	1	1
476.601	1	-3
477.793	1	10
478.986	1	2
480.179	1	14
481.371	1	3
482.564	1	-7
483.756	1	4
484.948	1	-8
486.141	1	-6
487.333	1	3
488.525	1	-3
489.718	1	-8
490.910	1	-9
492.102	1	4
493.294	1	2
494.486	1	11
495.678	1	13
496.870	1	2
498.062	1	2
499.254	1	-2
500.446	1	5
501.638	1	-3
502.829	1	5
504.021	1	15
505.213	1	1
506.404	1	-6
507.596	1	9
508.788	1	4
509.979	1	10
511.171	1	4
512.362	1	2
513.553	1	6
514.745	1	2
515.936	1	0
517.127	1	0
518.319	1	-6
519.510	1	10
520.701	1	1
521.892	1	-2
523.083	1	9
524.274	1	-5
525.465	1	3
526.656	1	11
527.847	1	-6
529.038	1	5
530.229	1	3
531.419	1	10
532.610	1	13
533.801	1	-1
534.991	1	2
536.182	1	9
537.373	1	1
538.563	1	1
539.754	1	0
540.944	1	4
542.134	1	10
543.325	1	-5
544.515	1	4
545.705	1	9
546.896	1	-6
548.086	1	7
549.276	1	16
550.466	1	-4
551.656	1	-8
552.846	1	4
554.036	1	11
555.226	1	-5
556.416	1	4
557.606	1	1
558.796	1	-6
559.986	1	-6
561.175	1	-4
562.365	1	-3
563.555	1	10
564.744	1	3
565.934	1	0
567.123	1	14
568.313	1	-5
569.502	1	9
570.692	1	3
571.881	1	6
573.070	1	5
574.260	1	-7
575.449	1	-2
576.638	1	2
577.827	1	11
579.016	1	17
580.205	1	8
581.394	1	-20
582.583	1	-4
583.772	1	0
584.961	1	5
586.150	1	1
587.339	1	9
588.528	1	4
589.717	1	4
590.905	1	2
592.094	1	3
593.283	1	2
594.471	1	1
595.660	1	-6
596.848	1	5
598.037	1	-3
599.225	1	4
600.413	1	-1
601.602	1	4
602.790	1	6
603.978	1	7
605.166	1	2
606.355	1	1
607.543	1	-5
608.731	1	-4
609.919	1	-10
611.107	1	1
612.295	1	-4
613.483	1	9
614.671	1	8
615.858	1	5
617.046	1	6
618.234	1	-3
619.422	1	10
620.609	1	-2
621.797	1	7
622.985	1	-4
624.172	1	5
625.360	1	2
626.547	1	-1
627.735	1	4
628.922	1	1
630.109	1	-7
631.297	1	0
632.484	1	0
633.671	1	3
634.858	1	7
636.045	1	0
637.232	1	2
638.419	1	-1
639.606	1	19
640.793	1	7
641.980	1	-2
643.167	1	9
644.354	1	1
645.541	1	-9
646.728	1	6
647.914	1	-1
649.101	1	12
650.288	1	3
651.474	1	6
652.661	1	6
653.847	1	6
655.034	1	4
656.220	1	8
657.406	1	12
658.593	1	-7
659.779	1	-6
660.965	1	7
662.152	1	-7
663.338	1	-9
664.524	1	-13
665.710	1	2
666.896	1	-1
668.082	1	-1
669.268	1	8
670.454	1	4
671.640	1	-22
672.826	1	-7
674.011	1	3
675.197	1	-12
676.383	1	-3
677.569	1	-1
678.754	1	-1
679.940	1	-2
681.125	1	6
682.311	1	2
683.496	1	-5
684.682	1	9
685.867	1	0
687.053	1	1
688.238	1	-1
688.746	1	4