File: Analysis/GaN_68K_200ms/GaN_sample E_spot4_UVVIS_68 K_200um_200 ms 2x2mm1_122.txt
340.368	1	3
341.565	1	-5
342.763	1	5
343.960	1	4
345.157	1	5
346.354	1	-3
347.552	1	1
348.749	1	-2
349.946	1	14
351.143	1	-2
352.340	1	11
353.537	1	7
354.734	1	19
355.931	1	18
357.127	1	25
358.324	1	30
359.521	1	36
360.718	1	62
361.914	1	94
363.111	1	162
364.308	1	224
365.504	1	354
366.701	1	440
367.897	1	435
369.093	1	344
370.290	1	258
371.486	1	208
372.682	1	158
373.879	1	168
375.075	1	127
376.271	1	111
377.467	1	103
378.663	1	94
379.859	1	95
381.055	1	155
382.251	1	201
383.447	1	321
384.643	1	476
385.839	1	644
387.035	1	713
388.230	1	728
389.426	1	709
390.622	1	653
391.817	1	626
393.013	1	586
394.208	1	551
395.404	1	580
396.599	1	609
397.795	1	670
398.990	1	657
400.186	1	615
401.381	1	521
402.576	1	484
403.771	1	453
404.967	1	420
406.162	1	401
407.357	1	391
408.552	1	377
409.747	1	365
410.942	1	348
412.137	1	330
413.332	1	278
414.526	1	259
415.721	1	233
416.916	1	231
418.111	1	229
419.305	1	212
420.500	1	211
421.695	1	198
422.889	1	173
424.084	1	166
425.278	1	140
426.472	1	133
427.667	1	138
428.861	1	120
430.055	1	117
431.250	1	103
432.444	1	109
433.638	1	94
434.832	1	81
436.026	1	92
437.220	1	89
438.414	1	71
439.608	1	76
440.802	1	75
441.996	1	63
443.190	1	60
444.384	1	64
445.578	1	59
446.771	1	53
447.965	1	50
449.159	1	41
450.352	1	51
451.546	1	53
452.739	1	49
453.933	1	48
455.126	1	54
456.320	1	49
457.513	1	52
458.706	1	44
459.899	1	51
461.093	1	42
462.286	1	47
463.479	1	46
464.672	1	32
465.865	1	35
467.058	1	38
468.251	1	27
469.444	1	34
470.637	1	34
471.830	1	47
473.023	1	18
474.215	1	24
475.408	1	33
476.601	1	43
477.793	1	46
478.986	1	44
480.179	1	46
481.371	1	41
482.564	1	26
483.756	1	42
484.948	1	34
486.141	1	29
487.333	1	53
488.525	1	42
489.718	1	46
490.910	1	42
492.102	1	46
493.294	1	57
494.486	1	59
495.678	1	71
496.870	1	63
498.062	1	70
499.254	1	74
500.446	1	83
501.638	1	84
502.829	1	86
504.021	1	113
505.213	1	102
506.404	1	102
507.596	1	117
508.788	1	123
509.979	1	129
511.171	1	148
512.362	1	130
513.553	1	135
514.745	1	153
515.936	1	164
517.127	1	164
518.319	1	178
519.510	1	175
520.701	1	185
521.892	1	181
523.083	1	194
524.274	1	176
525.465	1	196
526.656	1	206
527.847	1	205
529.038	1	207
530.229	1	213
531.419	1	218
532.610	1	213
533.801	1	216
534.991	1	208
536.182	1	206
537.373	1	209
538.563	1	212
539.754	1	202
540.944	1	200
542.134	1	205
543.325	1	186
544.515	1	190
545.705	1	188
546.896	1	183
548.086	1	187
549.276	1	183
550.466	1	183
551.656	1	165
552.846	1	167
554.036	1	163
555.226	1	150
556.416	1	148
557.606	1	125
558.796	1	145
559.986	1	120
561.175	1	131
562.365	1	138
563.555	1	134
564.744	1	129
565.934	1	118
567.123	1	123
568.313	1	115
569.502	1	106
570.692	1	109
571.881	1	100
573.070	1	98
574.260	1	95
575.449	1	91
576.638	1	87
577.827	1	93
579.016	1	99
580.205	1	88
581.394	1	76
582.583	1	79
583.772	1	75
584.961	1	72
586.150	1	69
587.339	1	85
588.528	1	73
589.717	1	61
590.905	1	69
592.094	1	57
593.283	1	69
594.471	1	62
595.660	1	58
596.848	1	58
598.037	1	61
599.225	1	60
600.413	1	50
601.602	1	53
602.790	1	51
603.978	1	52
605.166	1	41
606.355	1	53
607.543	1	36
608.731	1	35
609.919	1	31
611.107	1	54
612.295	1	40
613.483	1	50
614.671	1	47
615.858	1	41
617.046	1	32
618.234	1	34
619.422	1	40
620.609	1	29
621.797	1	38
622.985	1	25
624.172	1	50
625.360	1	18
626.547	1	33
627.735	1	42
628.922	1	33
630.109	1	27
631.297	1	19
632.484	1	22
633.671	1	27
634.858	1	33
636.045	1	23
637.232	1	23
638.419	1	33
639.606	1	45
640.793	1	25
641.980	1	18
643.167	1	31
644.354	1	25
645.541	1	12
646.728	1	22
647.914	1	21
649.101	1	26
650.288	1	8
651.474	1	17
652.661	1	26
653.847	1	21
655.034	1	26
656.220	1	25
657.406	1	27
658.593	1	-2
659.779	1	15
660.965	1	18
662.152	1	16
663.338	1	4
664.524	1	6
665.710	1	1
666.896	1	5
668.082	1	12
669.268	1	14
670.454	1	11
671.640	1	9
672.826	1	5
674.011	1	20
675.197	1	14
676.383	1	11
677.569	1	11
678.754	1	14
679.940	1	13
681.125	1	17
682.311	1	23
683.496	1	14
684.682	1	24
685.867	1	22
687.053	1	17
688.238	1	24
688.746	1	24