File: Analysis/GaN_68K_200ms/GaN_sample E_spot4_UVVIS_68 K_200um_200 ms 2x2mm1_361.txt
340.368	1	3
341.565	1	-2
342.763	1	2
343.960	1	4
345.157	1	10
346.354	1	-6
347.552	1	10
348.749	1	10
349.946	1	6
351.143	1	-11
352.340	1	0
353.537	1	-9
354.734	1	1
355.931	1	7
357.127	1	2
358.324	1	7
359.521	1	-1
360.718	1	-1
361.914	1	3
363.111	1	10
364.308	1	1
365.504	1	0
366.701	1	3
367.897	1	8
369.093	1	9
370.290	1	8
371.486	1	10
372.682	1	9
373.879	1	6
375.075	1	5
376.271	1	-3
377.467	1	-3
378.663	1	0
379.859	1	-4
381.055	1	0
382.251	1	4
383.447	1	7
384.643	1	10
385.839	1	13
387.035	1	5
388.230	1	8
389.426	1	14
390.622	1	2
391.817	1	-1
393.013	1	8
394.208	1	19
395.404	1	13
396.599	1	5
397.795	1	13
398.990	1	10
400.186	1	13
401.381	1	15
402.576	1	14
403.771	1	9
404.967	1	6
406.162	1	3
407.357	1	8
408.552	1	9
409.747	1	-4
410.942	1	5
412.137	1	4
413.332	1	-4
414.526	1	7
415.721	1	4
416.916	1	0
418.111	1	-1
419.305	1	-1
420.500	1	8
421.695	1	8
422.889	1	6
424.084	1	2
425.278	1	-5
426.472	1	-1
427.667	1	10
428.861	1	1
430.055	1	0
431.250	1	-3
432.444	1	7
433.638	1	-3
434.832	1	-1
436.026	1	1
437.220	1	8
438.414	1	2
439.608	1	5
440.802	1	8
441.996	1	-3
443.190	1	-9
444.384	1	9
445.578	1	4
446.771	1	0
447.965	1	-1
449.159	1	-8
450.352	1	4
451.546	1	5
452.739	1	4
453.933	1	10
455.126	1	4
456.320	1	2
457.513	1	10
458.706	1	6
459.899	1	11
461.093	1	13
462.286	1	10
463.479	1	6
464.672	1	-1
465.865	1	0
467.058	1	10
468.251	1	-6
469.444	1	-4
470.637	1	11
471.830	1	17
473.023	1	-6
474.215	1	-2
475.408	1	3
476.601	1	0
477.793	1	13
478.986	1	2
480.179	1	4
481.371	1	9
482.564	1	-13
483.756	1	4
484.948	1	2
486.141	1	-6
487.333	1	7
488.525	1	-2
489.718	1	0
490.910	1	1
492.102	1	5
493.294	1	7
494.486	1	2
495.678	1	7
496.870	1	10
498.062	1	4
499.254	1	5
500.446	1	12
501.638	1	5
502.829	1	1
504.021	1	15
505.213	1	-2
506.404	1	-10
507.596	1	4
508.788	1	12
509.979	1	0
511.171	1	14
512.362	1	5
513.553	1	-9
514.745	1	6
515.936	1	10
517.127	1	9
518.319	1	-5
519.510	1	1
520.701	1	12
521.892	1	1
523.083	1	-1
524.274	1	-2
525.465	1	1
526.656	1	21
527.847	1	-9
529.038	1	12
530.229	1	12
531.419	1	12
532.610	1	3
533.801	1	7
534.991	1	7
536.182	1	3
537.373	1	-3
538.563	1	5
539.754	1	-2
540.944	1	-3
542.134	1	8
543.325	1	7
544.515	1	0
545.705	1	8
546.896	1	6
548.086	1	17
549.276	1	9
550.466	1	0
551.656	1	-7
552.846	1	12
554.036	1	9
555.226	1	4
556.416	1	6
557.606	1	-1
558.796	1	5
559.986	1	-4
561.175	1	-2
562.365	1	7
563.555	1	15
564.744	1	8
565.934	1	4
567.123	1	15
568.313	1	-3
569.502	1	0
570.692	1	9
571.881	1	10
573.070	1	3
574.260	1	-6
575.449	1	0
576.638	1	3
577.827	1	17
579.016	1	17
580.205	1	1
581.394	1	8
582.583	1	-6
583.772	1	-4
584.961	1	6
586.150	1	-1
587.339	1	-2
588.528	1	6
589.717	1	1
590.905	1	-1
592.094	1	7
593.283	1	-2
594.471	1	-2
595.660	1	3
596.848	1	2
598.037	1	4
599.225	1	3
600.413	1	3
601.602	1	6
602.790	1	1
603.978	1	7
605.166	1	-10
606.355	1	2
607.543	1	-4
608.731	1	-9
609.919	1	-10
611.107	1	12
612.295	1	-2
613.483	1	7
614.671	1	11
615.858	1	11
617.046	1	8
618.234	1	8
619.422	1	3
620.609	1	3
621.797	1	13
622.985	1	7
624.172	1	13
625.360	1	-3
626.547	1	2
627.735	1	9
628.922	1	6
630.109	1	0
631.297	1	-1
632.484	1	-4
633.671	1	0
634.858	1	9
636.045	1	4
637.232	1	-6
638.419	1	14
639.606	1	13
640.793	1	13
641.980	1	-3
643.167	1	2
644.354	1	-1
645.541	1	-3
646.728	1	9
647.914	1	-6
649.101	1	3
650.288	1	-5
651.474	1	3
652.661	1	10
653.847	1	1
655.034	1	-2
656.220	1	8
657.406	1	2
658.593	1	-4
659.779	1	1
660.965	1	-2
662.152	1	4
663.338	1	-2
664.524	1	-9
665.710	1	0
666.896	1	6
668.082	1	2
669.268	1	-9
670.454	1	-2
671.640	1	-11
672.826	1	-14
674.011	1	0
675.197	1	0
676.383	1	-2
677.569	1	1
678.754	1	-5
679.940	1	-3
681.125	1	7
682.311	1	-5
683.496	1	-2
684.682	1	-1
685.867	1	7
687.053	1	2
688.238	1	-5
688.746	1	0