File: Analysis/GaN_68K_200ms/GaN_sample E_spot4_UVVIS_68 K_200um_200 ms 2x2mm1_272.txt
340.368	1	-1
341.565	1	-7
342.763	1	-1
343.960	1	-2
345.157	1	6
346.354	1	2
347.552	1	-2
348.749	1	2
349.946	1	11
351.143	1	-7
352.340	1	1
353.537	1	5
354.734	1	3
355.931	1	7
357.127	1	13
358.324	1	-4
359.521	1	1
360.718	1	0
361.914	1	9
363.111	1	11
364.308	1	8
365.504	1	4
366.701	1	3
367.897	1	12
369.093	1	7
370.290	1	9
371.486	1	11
372.682	1	4
373.879	1	14
375.075	1	13
376.271	1	4
377.467	1	-1
378.663	1	-8
379.859	1	-4
381.055	1	13
382.251	1	4
383.447	1	13
384.643	1	21
385.839	1	16
387.035	1	7
388.230	1	20
389.426	1	17
390.622	1	13
391.817	1	13
393.013	1	22
394.208	1	14
395.404	1	11
396.599	1	21
397.795	1	18
398.990	1	14
400.186	1	23
401.381	1	13
402.576	1	14
403.771	1	9
404.967	1	15
406.162	1	13
407.357	1	8
408.552	1	12
409.747	1	7
410.942	1	9
412.137	1	8
413.332	1	16
414.526	1	9
415.721	1	11
416.916	1	2
418.111	1	11
419.305	1	9
420.500	1	13
421.695	1	7
422.889	1	6
424.084	1	9
425.278	1	1
426.472	1	8
427.667	1	9
428.861	1	3
430.055	1	5
431.250	1	1
432.444	1	11
433.638	1	0
434.832	1	6
436.026	1	1
437.220	1	15
438.414	1	4
439.608	1	-3
440.802	1	8
441.996	1	6
443.190	1	-7
444.384	1	6
445.578	1	7
446.771	1	-2
447.965	1	-1
449.159	1	-3
450.352	1	12
451.546	1	0
452.739	1	4
453.933	1	10
455.126	1	3
456.320	1	-6
457.513	1	3
458.706	1	8
459.899	1	5
461.093	1	9
462.286	1	5
463.479	1	6
464.672	1	-3
465.865	1	-3
467.058	1	13
468.251	1	7
469.444	1	1
470.637	1	9
471.830	1	22
473.023	1	1
474.215	1	3
475.408	1	0
476.601	1	5
477.793	1	4
478.986	1	5
480.179	1	3
481.371	1	2
482.564	1	-7
483.756	1	14
484.948	1	4
486.141	1	-6
487.333	1	7
488.525	1	6
489.718	1	-1
490.910	1	7
492.102	1	-3
493.294	1	8
494.486	1	5
495.678	1	6
496.870	1	9
498.062	1	4
499.254	1	6
500.446	1	7
501.638	1	12
502.829	1	5
504.021	1	21
505.213	1	2
506.404	1	-8
507.596	1	9
508.788	1	11
509.979	1	2
511.171	1	20
512.362	1	12
513.553	1	8
514.745	1	6
515.936	1	5
517.127	1	9
518.319	1	10
519.510	1	0
520.701	1	7
521.892	1	-2
523.083	1	7
524.274	1	-2
525.465	1	14
526.656	1	23
527.847	1	9
529.038	1	16
530.229	1	13
531.419	1	11
532.610	1	9
533.801	1	9
534.991	1	12
536.182	1	7
537.373	1	1
538.563	1	10
539.754	1	4
540.944	1	-4
542.134	1	19
543.325	1	15
544.515	1	3
545.705	1	7
546.896	1	1
548.086	1	15
549.276	1	15
550.466	1	7
551.656	1	5
552.846	1	12
554.036	1	6
555.226	1	-1
556.416	1	-1
557.606	1	-6
558.796	1	4
559.986	1	6
561.175	1	0
562.365	1	10
563.555	1	14
564.744	1	10
565.934	1	10
567.123	1	20
568.313	1	2
569.502	1	3
570.692	1	10
571.881	1	9
573.070	1	14
574.260	1	16
575.449	1	5
576.638	1	7
577.827	1	6
579.016	1	14
580.205	1	8
581.394	1	0
582.583	1	0
583.772	1	-1
584.961	1	7
586.150	1	5
587.339	1	9
588.528	1	1
589.717	1	8
590.905	1	2
592.094	1	-1
593.283	1	-1
594.471	1	9
595.660	1	11
596.848	1	21
598.037	1	-1
599.225	1	1
600.413	1	8
601.602	1	8
602.790	1	-1
603.978	1	4
605.166	1	-2
606.355	1	7
607.543	1	-5
608.731	1	3
609.919	1	2
611.107	1	10
612.295	1	0
613.483	1	9
614.671	1	3
615.858	1	9
617.046	1	10
618.234	1	4
619.422	1	1
620.609	1	0
621.797	1	-2
622.985	1	9
624.172	1	4
625.360	1	-10
626.547	1	3
627.735	1	3
628.922	1	1
630.109	1	-2
631.297	1	-6
632.484	1	0
633.671	1	6
634.858	1	12
636.045	1	7
637.232	1	-4
638.419	1	13
639.606	1	16
640.793	1	7
641.980	1	5
643.167	1	11
644.354	1	3
645.541	1	-2
646.728	1	6
647.914	1	-6
649.101	1	-3
650.288	1	0
651.474	1	6
652.661	1	10
653.847	1	9
655.034	1	-2
656.220	1	7
657.406	1	-4
658.593	1	-3
659.779	1	0
660.965	1	2
662.152	1	12
663.338	1	-10
664.524	1	-4
665.710	1	-6
666.896	1	3
668.082	1	-7
669.268	1	1
670.454	1	-2
671.640	1	-9
672.826	1	-12
674.011	1	14
675.197	1	-1
676.383	1	-5
677.569	1	-2
678.754	1	-1
679.940	1	1
681.125	1	9
682.311	1	1
683.496	1	-3
684.682	1	4
685.867	1	-1
687.053	1	4
688.238	1	6
688.746	1	2