File: Analysis/GaN_68K_200ms/GaN_sample E_spot4_UVVIS_68 K_200um_200 ms 2x2mm1_140.txt
340.368	1	7
341.565	1	1
342.763	1	5
343.960	1	1
345.157	1	2
346.354	1	5
347.552	1	6
348.749	1	7
349.946	1	7
351.143	1	-6
352.340	1	10
353.537	1	-1
354.734	1	6
355.931	1	15
357.127	1	12
358.324	1	18
359.521	1	22
360.718	1	21
361.914	1	38
363.111	1	64
364.308	1	62
365.504	1	73
366.701	1	82
367.897	1	103
369.093	1	84
370.290	1	69
371.486	1	70
372.682	1	52
373.879	1	46
375.075	1	46
376.271	1	29
377.467	1	28
378.663	1	20
379.859	1	31
381.055	1	34
382.251	1	43
383.447	1	64
384.643	1	70
385.839	1	96
387.035	1	103
388.230	1	90
389.426	1	103
390.622	1	87
391.817	1	84
393.013	1	82
394.208	1	87
395.404	1	95
396.599	1	83
397.795	1	100
398.990	1	102
400.186	1	81
401.381	1	81
402.576	1	66
403.771	1	74
404.967	1	69
406.162	1	54
407.357	1	60
408.552	1	64
409.747	1	51
410.942	1	51
412.137	1	54
413.332	1	53
414.526	1	47
415.721	1	46
416.916	1	28
418.111	1	37
419.305	1	39
420.500	1	33
421.695	1	24
422.889	1	50
424.084	1	28
425.278	1	26
426.472	1	21
427.667	1	32
428.861	1	23
430.055	1	22
431.250	1	17
432.444	1	19
433.638	1	20
434.832	1	9
436.026	1	13
437.220	1	24
438.414	1	21
439.608	1	17
440.802	1	24
441.996	1	10
443.190	1	3
444.384	1	13
445.578	1	21
446.771	1	10
447.965	1	7
449.159	1	6
450.352	1	19
451.546	1	11
452.739	1	20
453.933	1	23
455.126	1	23
456.320	1	15
457.513	1	19
458.706	1	21
459.899	1	14
461.093	1	8
462.286	1	19
463.479	1	20
464.672	1	7
465.865	1	16
467.058	1	17
468.251	1	9
469.444	1	7
470.637	1	16
471.830	1	15
473.023	1	3
474.215	1	8
475.408	1	14
476.601	1	6
477.793	1	19
478.986	1	21
480.179	1	9
481.371	1	10
482.564	1	4
483.756	1	24
484.948	1	9
486.141	1	5
487.333	1	14
488.525	1	11
489.718	1	11
490.910	1	12
492.102	1	10
493.294	1	21
494.486	1	22
495.678	1	32
496.870	1	17
498.062	1	24
499.254	1	27
500.446	1	28
501.638	1	27
502.829	1	36
504.021	1	55
505.213	1	35
506.404	1	40
507.596	1	42
508.788	1	45
509.979	1	52
511.171	1	60
512.362	1	45
513.553	1	47
514.745	1	53
515.936	1	56
517.127	1	55
518.319	1	59
519.510	1	61
520.701	1	59
521.892	1	51
523.083	1	61
524.274	1	66
525.465	1	56
526.656	1	71
527.847	1	61
529.038	1	77
530.229	1	63
531.419	1	67
532.610	1	72
533.801	1	66
534.991	1	73
536.182	1	69
537.373	1	66
538.563	1	65
539.754	1	57
540.944	1	57
542.134	1	55
543.325	1	51
544.515	1	68
545.705	1	67
546.896	1	73
548.086	1	66
549.276	1	64
550.466	1	51
551.656	1	48
552.846	1	62
554.036	1	63
555.226	1	45
556.416	1	45
557.606	1	40
558.796	1	44
559.986	1	40
561.175	1	42
562.365	1	46
563.555	1	49
564.744	1	35
565.934	1	46
567.123	1	51
568.313	1	30
569.502	1	39
570.692	1	31
571.881	1	39
573.070	1	34
574.260	1	27
575.449	1	28
576.638	1	24
577.827	1	35
579.016	1	35
580.205	1	20
581.394	1	23
582.583	1	11
583.772	1	19
584.961	1	21
586.150	1	21
587.339	1	27
588.528	1	15
589.717	1	18
590.905	1	23
592.094	1	12
593.283	1	13
594.471	1	20
595.660	1	11
596.848	1	21
598.037	1	21
599.225	1	19
600.413	1	12
601.602	1	21
602.790	1	11
603.978	1	16
605.166	1	-8
606.355	1	21
607.543	1	4
608.731	1	2
609.919	1	7
611.107	1	11
612.295	1	15
613.483	1	18
614.671	1	9
615.858	1	19
617.046	1	5
618.234	1	12
619.422	1	3
620.609	1	16
621.797	1	12
622.985	1	7
624.172	1	22
625.360	1	1
626.547	1	17
627.735	1	9
628.922	1	3
630.109	1	14
631.297	1	8
632.484	1	-4
633.671	1	10
634.858	1	12
636.045	1	-3
637.232	1	14
638.419	1	12
639.606	1	20
640.793	1	13
641.980	1	7
643.167	1	17
644.354	1	6
645.541	1	-2
646.728	1	18
647.914	1	0
649.101	1	6
650.288	1	-6
651.474	1	14
652.661	1	11
653.847	1	9
655.034	1	10
656.220	1	13
657.406	1	7
658.593	1	5
659.779	1	-4
660.965	1	6
662.152	1	-1
663.338	1	-3
664.524	1	-4
665.710	1	-6
666.896	1	3
668.082	1	6
669.268	1	3
670.454	1	11
671.640	1	-3
672.826	1	-2
674.011	1	10
675.197	1	2
676.383	1	7
677.569	1	3
678.754	1	-2
679.940	1	0
681.125	1	15
682.311	1	19
683.496	1	2
684.682	1	16
685.867	1	-1
687.053	1	8
688.238	1	10
688.746	1	3