File: Analysis/GaN_68K_200ms/GaN_sample E_spot4_UVVIS_68 K_200um_200 ms 2x2mm1_510.txt
340.368	1	4
341.565	1	0
342.763	1	-11
343.960	1	-10
345.157	1	11
346.354	1	-1
347.552	1	4
348.749	1	7
349.946	1	8
351.143	1	-8
352.340	1	-14
353.537	1	-1
354.734	1	-3
355.931	1	-5
357.127	1	-3
358.324	1	2
359.521	1	5
360.718	1	5
361.914	1	-4
363.111	1	9
364.308	1	1
365.504	1	-2
366.701	1	-9
367.897	1	4
369.093	1	-2
370.290	1	-1
371.486	1	7
372.682	1	-2
373.879	1	9
375.075	1	14
376.271	1	-3
377.467	1	6
378.663	1	-2
379.859	1	-10
381.055	1	0
382.251	1	1
383.447	1	4
384.643	1	12
385.839	1	5
387.035	1	5
388.230	1	6
389.426	1	9
390.622	1	-2
391.817	1	2
393.013	1	10
394.208	1	11
395.404	1	18
396.599	1	12
397.795	1	10
398.990	1	8
400.186	1	10
401.381	1	10
402.576	1	12
403.771	1	-5
404.967	1	7
406.162	1	3
407.357	1	-1
408.552	1	10
409.747	1	-1
410.942	1	-4
412.137	1	3
413.332	1	5
414.526	1	6
415.721	1	4
416.916	1	-9
418.111	1	-1
419.305	1	1
420.500	1	8
421.695	1	4
422.889	1	4
424.084	1	7
425.278	1	-8
426.472	1	-6
427.667	1	11
428.861	1	3
430.055	1	4
431.250	1	-9
432.444	1	5
433.638	1	-4
434.832	1	0
436.026	1	-2
437.220	1	10
438.414	1	9
439.608	1	4
440.802	1	2
441.996	1	-9
443.190	1	-11
444.384	1	-2
445.578	1	14
446.771	1	-3
447.965	1	-3
449.159	1	1
450.352	1	5
451.546	1	3
452.739	1	-4
453.933	1	4
455.126	1	3
456.320	1	0
457.513	1	-2
458.706	1	2
459.899	1	6
461.093	1	2
462.286	1	6
463.479	1	15
464.672	1	-3
465.865	1	-5
467.058	1	12
468.251	1	-5
469.444	1	0
470.637	1	3
471.830	1	12
473.023	1	-8
474.215	1	4
475.408	1	7
476.601	1	-5
477.793	1	5
478.986	1	-2
480.179	1	1
481.371	1	1
482.564	1	2
483.756	1	11
484.948	1	0
486.141	1	-5
487.333	1	5
488.525	1	0
489.718	1	-3
490.910	1	3
492.102	1	-4
493.294	1	8
494.486	1	9
495.678	1	-5
496.870	1	1
498.062	1	-1
499.254	1	-2
500.446	1	2
501.638	1	3
502.829	1	3
504.021	1	11
505.213	1	0
506.404	1	-6
507.596	1	7
508.788	1	5
509.979	1	2
511.171	1	7
512.362	1	-2
513.553	1	-6
514.745	1	0
515.936	1	6
517.127	1	-2
518.319	1	3
519.510	1	9
520.701	1	6
521.892	1	-5
523.083	1	3
524.274	1	-3
525.465	1	3
526.656	1	17
527.847	1	-12
529.038	1	9
530.229	1	12
531.419	1	11
532.610	1	9
533.801	1	5
534.991	1	10
536.182	1	-1
537.373	1	2
538.563	1	4
539.754	1	-7
540.944	1	3
542.134	1	5
543.325	1	3
544.515	1	-1
545.705	1	10
546.896	1	2
548.086	1	-2
549.276	1	4
550.466	1	0
551.656	1	-8
552.846	1	-1
554.036	1	1
555.226	1	-4
556.416	1	-1
557.606	1	-12
558.796	1	2
559.986	1	-2
561.175	1	0
562.365	1	-1
563.555	1	23
564.744	1	9
565.934	1	1
567.123	1	20
568.313	1	-9
569.502	1	-5
570.692	1	2
571.881	1	3
573.070	1	6
574.260	1	-3
575.449	1	11
576.638	1	-4
577.827	1	-1
579.016	1	18
580.205	1	2
581.394	1	-3
582.583	1	-9
583.772	1	6
584.961	1	6
586.150	1	2
587.339	1	1
588.528	1	-1
589.717	1	1
590.905	1	0
592.094	1	-5
593.283	1	6
594.471	1	0
595.660	1	-1
596.848	1	-1
598.037	1	6
599.225	1	4
600.413	1	4
601.602	1	10
602.790	1	3
603.978	1	-5
605.166	1	8
606.355	1	11
607.543	1	-2
608.731	1	-13
609.919	1	-7
611.107	1	0
612.295	1	0
613.483	1	13
614.671	1	-1
615.858	1	3
617.046	1	7
618.234	1	3
619.422	1	6
620.609	1	3
621.797	1	1
622.985	1	-9
624.172	1	11
625.360	1	-2
626.547	1	3
627.735	1	7
628.922	1	-3
630.109	1	-7
631.297	1	6
632.484	1	-2
633.671	1	1
634.858	1	7
636.045	1	7
637.232	1	-5
638.419	1	4
639.606	1	6
640.793	1	9
641.980	1	-9
643.167	1	7
644.354	1	0
645.541	1	-8
646.728	1	0
647.914	1	-3
649.101	1	6
650.288	1	-5
651.474	1	2
652.661	1	3
653.847	1	10
655.034	1	-10
656.220	1	7
657.406	1	1
658.593	1	-7
659.779	1	-5
660.965	1	2
662.152	1	3
663.338	1	-3
664.524	1	-2
665.710	1	-6
666.896	1	2
668.082	1	-14
669.268	1	0
670.454	1	18
671.640	1	-9
672.826	1	-14
674.011	1	11
675.197	1	7
676.383	1	5
677.569	1	-2
678.754	1	-8
679.940	1	-5
681.125	1	6
682.311	1	-4
683.496	1	-7
684.682	1	4
685.867	1	2
687.053	1	5
688.238	1	-1
688.746	1	1