File: Analysis/GaN_68K_200ms/GaN_sample E_spot4_UVVIS_68 K_200um_200 ms 2x2mm1_238.txt
340.368	1	4
341.565	1	-8
342.763	1	-3
343.960	1	-7
345.157	1	14
346.354	1	-7
347.552	1	5
348.749	1	11
349.946	1	13
351.143	1	4
352.340	1	0
353.537	1	-2
354.734	1	0
355.931	1	-1
357.127	1	7
358.324	1	7
359.521	1	7
360.718	1	5
361.914	1	11
363.111	1	14
364.308	1	4
365.504	1	7
366.701	1	10
367.897	1	9
369.093	1	10
370.290	1	6
371.486	1	15
372.682	1	11
373.879	1	18
375.075	1	22
376.271	1	7
377.467	1	5
378.663	1	-6
379.859	1	7
381.055	1	2
382.251	1	13
383.447	1	18
384.643	1	22
385.839	1	14
387.035	1	14
388.230	1	21
389.426	1	26
390.622	1	10
391.817	1	10
393.013	1	22
394.208	1	17
395.404	1	17
396.599	1	19
397.795	1	7
398.990	1	23
400.186	1	24
401.381	1	17
402.576	1	21
403.771	1	5
404.967	1	11
406.162	1	8
407.357	1	12
408.552	1	19
409.747	1	3
410.942	1	12
412.137	1	11
413.332	1	12
414.526	1	17
415.721	1	12
416.916	1	7
418.111	1	9
419.305	1	3
420.500	1	11
421.695	1	12
422.889	1	15
424.084	1	12
425.278	1	-3
426.472	1	1
427.667	1	15
428.861	1	5
430.055	1	5
431.250	1	-2
432.444	1	12
433.638	1	-1
434.832	1	4
436.026	1	14
437.220	1	9
438.414	1	-1
439.608	1	6
440.802	1	6
441.996	1	3
443.190	1	-3
444.384	1	9
445.578	1	16
446.771	1	2
447.965	1	-3
449.159	1	2
450.352	1	7
451.546	1	10
452.739	1	11
453.933	1	17
455.126	1	-5
456.320	1	-3
457.513	1	18
458.706	1	5
459.899	1	23
461.093	1	10
462.286	1	10
463.479	1	13
464.672	1	1
465.865	1	-6
467.058	1	11
468.251	1	0
469.444	1	3
470.637	1	13
471.830	1	9
473.023	1	-4
474.215	1	-1
475.408	1	2
476.601	1	7
477.793	1	3
478.986	1	-4
480.179	1	7
481.371	1	10
482.564	1	-6
483.756	1	13
484.948	1	1
486.141	1	-10
487.333	1	0
488.525	1	8
489.718	1	-2
490.910	1	3
492.102	1	2
493.294	1	15
494.486	1	10
495.678	1	17
496.870	1	-4
498.062	1	6
499.254	1	-10
500.446	1	9
501.638	1	13
502.829	1	5
504.021	1	24
505.213	1	6
506.404	1	-4
507.596	1	14
508.788	1	4
509.979	1	13
511.171	1	23
512.362	1	11
513.553	1	0
514.745	1	4
515.936	1	10
517.127	1	12
518.319	1	8
519.510	1	3
520.701	1	16
521.892	1	10
523.083	1	9
524.274	1	6
525.465	1	12
526.656	1	23
527.847	1	1
529.038	1	3
530.229	1	8
531.419	1	18
532.610	1	12
533.801	1	11
534.991	1	19
536.182	1	14
537.373	1	3
538.563	1	4
539.754	1	10
540.944	1	3
542.134	1	18
543.325	1	11
544.515	1	9
545.705	1	14
546.896	1	7
548.086	1	11
549.276	1	19
550.466	1	12
551.656	1	1
552.846	1	14
554.036	1	10
555.226	1	3
556.416	1	2
557.606	1	-3
558.796	1	4
559.986	1	2
561.175	1	2
562.365	1	11
563.555	1	14
564.744	1	9
565.934	1	10
567.123	1	21
568.313	1	8
569.502	1	5
570.692	1	10
571.881	1	12
573.070	1	11
574.260	1	11
575.449	1	9
576.638	1	9
577.827	1	7
579.016	1	20
580.205	1	10
581.394	1	-8
582.583	1	1
583.772	1	7
584.961	1	4
586.150	1	7
587.339	1	4
588.528	1	12
589.717	1	8
590.905	1	1
592.094	1	1
593.283	1	10
594.471	1	3
595.660	1	0
596.848	1	11
598.037	1	8
599.225	1	1
600.413	1	2
601.602	1	4
602.790	1	6
603.978	1	0
605.166	1	0
606.355	1	11
607.543	1	-5
608.731	1	-8
609.919	1	-1
611.107	1	7
612.295	1	9
613.483	1	18
614.671	1	10
615.858	1	15
617.046	1	6
618.234	1	9
619.422	1	0
620.609	1	7
621.797	1	2
622.985	1	5
624.172	1	11
625.360	1	-5
626.547	1	10
627.735	1	9
628.922	1	2
630.109	1	-4
631.297	1	-6
632.484	1	5
633.671	1	2
634.858	1	9
636.045	1	10
637.232	1	9
638.419	1	8
639.606	1	17
640.793	1	9
641.980	1	3
643.167	1	9
644.354	1	5
645.541	1	-14
646.728	1	13
647.914	1	-1
649.101	1	6
650.288	1	-1
651.474	1	4
652.661	1	4
653.847	1	13
655.034	1	2
656.220	1	2
657.406	1	7
658.593	1	-8
659.779	1	-5
660.965	1	1
662.152	1	4
663.338	1	0
664.524	1	-7
665.710	1	0
666.896	1	0
668.082	1	0
669.268	1	0
670.454	1	6
671.640	1	-8
672.826	1	-16
674.011	1	10
675.197	1	-1
676.383	1	-5
677.569	1	-6
678.754	1	0
679.940	1	0
681.125	1	-1
682.311	1	-2
683.496	1	6
684.682	1	1
685.867	1	-2
687.053	1	5
688.238	1	-1
688.746	1	2