File: Analysis/GaN_68K_200ms/GaN_sample E_spot4_UVVIS_68 K_200um_200 ms 2x2mm1_37.txt
340.368	1	-1
341.565	1	-1
342.763	1	-7
343.960	1	-3
345.157	1	1
346.354	1	1
347.552	1	-1
348.749	1	13
349.946	1	9
351.143	1	-5
352.340	1	3
353.537	1	3
354.734	1	0
355.931	1	0
357.127	1	8
358.324	1	-6
359.521	1	0
360.718	1	-3
361.914	1	-3
363.111	1	11
364.308	1	-6
365.504	1	1
366.701	1	1
367.897	1	0
369.093	1	-3
370.290	1	1
371.486	1	14
372.682	1	-8
373.879	1	1
375.075	1	8
376.271	1	-3
377.467	1	-7
378.663	1	-2
379.859	1	-2
381.055	1	6
382.251	1	2
383.447	1	8
384.643	1	2
385.839	1	-3
387.035	1	-3
388.230	1	5
389.426	1	0
390.622	1	-5
391.817	1	-6
393.013	1	8
394.208	1	2
395.404	1	11
396.599	1	4
397.795	1	-5
398.990	1	7
400.186	1	2
401.381	1	7
402.576	1	-1
403.771	1	7
404.967	1	-5
406.162	1	2
407.357	1	3
408.552	1	-1
409.747	1	-10
410.942	1	5
412.137	1	3
413.332	1	-5
414.526	1	8
415.721	1	1
416.916	1	-3
418.111	1	-4
419.305	1	-4
420.500	1	1
421.695	1	-2
422.889	1	4
424.084	1	1
425.278	1	-8
426.472	1	-8
427.667	1	4
428.861	1	-8
430.055	1	4
431.250	1	-12
432.444	1	0
433.638	1	1
434.832	1	1
436.026	1	1
437.220	1	4
438.414	1	2
439.608	1	6
440.802	1	7
441.996	1	0
443.190	1	-11
444.384	1	8
445.578	1	10
446.771	1	4
447.965	1	-2
449.159	1	1
450.352	1	17
451.546	1	4
452.739	1	3
453.933	1	6
455.126	1	-1
456.320	1	7
457.513	1	16
458.706	1	-3
459.899	1	13
461.093	1	9
462.286	1	5
463.479	1	5
464.672	1	2
465.865	1	-6
467.058	1	12
468.251	1	5
469.444	1	1
470.637	1	0
471.830	1	15
473.023	1	-9
474.215	1	-5
475.408	1	2
476.601	1	3
477.793	1	0
478.986	1	17
480.179	1	9
481.371	1	4
482.564	1	-8
483.756	1	17
484.948	1	-2
486.141	1	-3
487.333	1	1
488.525	1	-1
489.718	1	-6
490.910	1	-5
492.102	1	-5
493.294	1	8
494.486	1	8
495.678	1	8
496.870	1	-1
498.062	1	3
499.254	1	1
500.446	1	4
501.638	1	4
502.829	1	7
504.021	1	8
505.213	1	-10
506.404	1	-6
507.596	1	3
508.788	1	-5
509.979	1	4
511.171	1	14
512.362	1	3
513.553	1	-8
514.745	1	0
515.936	1	1
517.127	1	3
518.319	1	-3
519.510	1	8
520.701	1	-1
521.892	1	-14
523.083	1	-5
524.274	1	-5
525.465	1	-1
526.656	1	8
527.847	1	-10
529.038	1	7
530.229	1	-2
531.419	1	8
532.610	1	-5
533.801	1	-1
534.991	1	3
536.182	1	5
537.373	1	-7
538.563	1	0
539.754	1	-4
540.944	1	1
542.134	1	7
543.325	1	-8
544.515	1	-4
545.705	1	6
546.896	1	-2
548.086	1	4
549.276	1	12
550.466	1	-8
551.656	1	-1
552.846	1	10
554.036	1	9
555.226	1	-8
556.416	1	10
557.606	1	-11
558.796	1	1
559.986	1	-8
561.175	1	0
562.365	1	-2
563.555	1	9
564.744	1	9
565.934	1	5
567.123	1	16
568.313	1	-4
569.502	1	1
570.692	1	8
571.881	1	9
573.070	1	0
574.260	1	3
575.449	1	5
576.638	1	-1
577.827	1	12
579.016	1	7
580.205	1	-2
581.394	1	-1
582.583	1	-12
583.772	1	4
584.961	1	6
586.150	1	6
587.339	1	2
588.528	1	1
589.717	1	3
590.905	1	10
592.094	1	-2
593.283	1	5
594.471	1	4
595.660	1	-1
596.848	1	13
598.037	1	-6
599.225	1	7
600.413	1	0
601.602	1	1
602.790	1	-5
603.978	1	-1
605.166	1	-7
606.355	1	6
607.543	1	1
608.731	1	-4
609.919	1	-8
611.107	1	2
612.295	1	4
613.483	1	10
614.671	1	6
615.858	1	0
617.046	1	4
618.234	1	3
619.422	1	5
620.609	1	0
621.797	1	8
622.985	1	7
624.172	1	10
625.360	1	-12
626.547	1	0
627.735	1	5
628.922	1	-2
630.109	1	-3
631.297	1	0
632.484	1	-7
633.671	1	1
634.858	1	9
636.045	1	1
637.232	1	-1
638.419	1	4
639.606	1	9
640.793	1	5
641.980	1	3
643.167	1	2
644.354	1	6
645.541	1	-16
646.728	1	4
647.914	1	-2
649.101	1	0
650.288	1	-11
651.474	1	1
652.661	1	10
653.847	1	5
655.034	1	1
656.220	1	8
657.406	1	1
658.593	1	-3
659.779	1	-1
660.965	1	1
662.152	1	0
663.338	1	2
664.524	1	-6
665.710	1	-4
666.896	1	-1
668.082	1	4
669.268	1	3
670.454	1	3
671.640	1	-8
672.826	1	-11
674.011	1	3
675.197	1	-3
676.383	1	-4
677.569	1	-8
678.754	1	1
679.940	1	0
681.125	1	-3
682.311	1	-7
683.496	1	-6
684.682	1	13
685.867	1	-3
687.053	1	0
688.238	1	-1
688.746	1	-1