File: Analysis/GaN_68K_200ms/GaN_sample E_spot4_UVVIS_68 K_200um_200 ms 2x2mm1_242.txt
340.368	1	-4
341.565	1	-9
342.763	1	3
343.960	1	-3
345.157	1	10
346.354	1	-5
347.552	1	6
348.749	1	4
349.946	1	13
351.143	1	0
352.340	1	-4
353.537	1	1
354.734	1	-4
355.931	1	6
357.127	1	7
358.324	1	3
359.521	1	3
360.718	1	-2
361.914	1	5
363.111	1	13
364.308	1	3
365.504	1	1
366.701	1	-4
367.897	1	13
369.093	1	20
370.290	1	7
371.486	1	15
372.682	1	10
373.879	1	15
375.075	1	2
376.271	1	4
377.467	1	3
378.663	1	4
379.859	1	1
381.055	1	-1
382.251	1	16
383.447	1	15
384.643	1	13
385.839	1	18
387.035	1	13
388.230	1	23
389.426	1	17
390.622	1	4
391.817	1	15
393.013	1	30
394.208	1	21
395.404	1	22
396.599	1	6
397.795	1	12
398.990	1	18
400.186	1	17
401.381	1	9
402.576	1	23
403.771	1	13
404.967	1	19
406.162	1	11
407.357	1	2
408.552	1	16
409.747	1	0
410.942	1	13
412.137	1	25
413.332	1	8
414.526	1	9
415.721	1	3
416.916	1	12
418.111	1	13
419.305	1	5
420.500	1	16
421.695	1	11
422.889	1	8
424.084	1	10
425.278	1	-7
426.472	1	-5
427.667	1	9
428.861	1	-2
430.055	1	1
431.250	1	3
432.444	1	18
433.638	1	8
434.832	1	-2
436.026	1	2
437.220	1	5
438.414	1	7
439.608	1	13
440.802	1	4
441.996	1	9
443.190	1	3
444.384	1	6
445.578	1	4
446.771	1	-3
447.965	1	4
449.159	1	3
450.352	1	15
451.546	1	0
452.739	1	4
453.933	1	7
455.126	1	0
456.320	1	13
457.513	1	9
458.706	1	10
459.899	1	15
461.093	1	16
462.286	1	6
463.479	1	15
464.672	1	10
465.865	1	5
467.058	1	15
468.251	1	0
469.444	1	7
470.637	1	16
471.830	1	22
473.023	1	7
474.215	1	-2
475.408	1	6
476.601	1	7
477.793	1	8
478.986	1	10
480.179	1	5
481.371	1	7
482.564	1	-9
483.756	1	9
484.948	1	-4
486.141	1	-7
487.333	1	11
488.525	1	2
489.718	1	1
490.910	1	0
492.102	1	3
493.294	1	13
494.486	1	6
495.678	1	8
496.870	1	1
498.062	1	-2
499.254	1	1
500.446	1	20
501.638	1	12
502.829	1	15
504.021	1	28
505.213	1	3
506.404	1	4
507.596	1	15
508.788	1	1
509.979	1	7
511.171	1	18
512.362	1	12
513.553	1	7
514.745	1	7
515.936	1	9
517.127	1	7
518.319	1	10
519.510	1	14
520.701	1	14
521.892	1	3
523.083	1	12
524.274	1	7
525.465	1	13
526.656	1	17
527.847	1	2
529.038	1	22
530.229	1	12
531.419	1	15
532.610	1	13
533.801	1	17
534.991	1	0
536.182	1	12
537.373	1	2
538.563	1	9
539.754	1	-2
540.944	1	0
542.134	1	17
543.325	1	7
544.515	1	15
545.705	1	8
546.896	1	6
548.086	1	15
549.276	1	14
550.466	1	1
551.656	1	6
552.846	1	11
554.036	1	10
555.226	1	1
556.416	1	6
557.606	1	1
558.796	1	20
559.986	1	7
561.175	1	6
562.365	1	11
563.555	1	8
564.744	1	13
565.934	1	13
567.123	1	24
568.313	1	3
569.502	1	9
570.692	1	9
571.881	1	18
573.070	1	6
574.260	1	4
575.449	1	5
576.638	1	13
577.827	1	15
579.016	1	22
580.205	1	6
581.394	1	-2
582.583	1	-5
583.772	1	6
584.961	1	10
586.150	1	2
587.339	1	15
588.528	1	9
589.717	1	7
590.905	1	2
592.094	1	4
593.283	1	14
594.471	1	11
595.660	1	1
596.848	1	8
598.037	1	6
599.225	1	7
600.413	1	4
601.602	1	11
602.790	1	9
603.978	1	-1
605.166	1	0
606.355	1	4
607.543	1	7
608.731	1	-8
609.919	1	-5
611.107	1	4
612.295	1	3
613.483	1	10
614.671	1	-1
615.858	1	15
617.046	1	5
618.234	1	11
619.422	1	6
620.609	1	3
621.797	1	8
622.985	1	3
624.172	1	17
625.360	1	-2
626.547	1	7
627.735	1	8
628.922	1	5
630.109	1	-3
631.297	1	3
632.484	1	1
633.671	1	6
634.858	1	12
636.045	1	9
637.232	1	10
638.419	1	8
639.606	1	17
640.793	1	8
641.980	1	9
643.167	1	14
644.354	1	2
645.541	1	0
646.728	1	4
647.914	1	4
649.101	1	8
650.288	1	-7
651.474	1	1
652.661	1	11
653.847	1	6
655.034	1	5
656.220	1	5
657.406	1	9
658.593	1	-5
659.779	1	-3
660.965	1	2
662.152	1	4
663.338	1	-7
664.524	1	-2
665.710	1	-3
666.896	1	-1
668.082	1	1
669.268	1	18
670.454	1	5
671.640	1	-12
672.826	1	-5
674.011	1	3
675.197	1	-4
676.383	1	-3
677.569	1	-1
678.754	1	6
679.940	1	5
681.125	1	9
682.311	1	5
683.496	1	1
684.682	1	9
685.867	1	-1
687.053	1	4
688.238	1	4
688.746	1	8