File: Analysis/GaN_68K_200ms/GaN_sample E_spot4_UVVIS_68 K_200um_200 ms 2x2mm1_66.txt
340.368	1	0
341.565	1	-7
342.763	1	-1
343.960	1	1
345.157	1	4
346.354	1	4
347.552	1	-3
348.749	1	1
349.946	1	6
351.143	1	-8
352.340	1	1
353.537	1	3
354.734	1	3
355.931	1	4
357.127	1	1
358.324	1	4
359.521	1	2
360.718	1	-4
361.914	1	8
363.111	1	9
364.308	1	-2
365.504	1	0
366.701	1	-13
367.897	1	-9
369.093	1	4
370.290	1	-3
371.486	1	10
372.682	1	-6
373.879	1	5
375.075	1	8
376.271	1	2
377.467	1	-5
378.663	1	-9
379.859	1	-4
381.055	1	-1
382.251	1	9
383.447	1	6
384.643	1	6
385.839	1	3
387.035	1	6
388.230	1	-5
389.426	1	8
390.622	1	7
391.817	1	1
393.013	1	12
394.208	1	8
395.404	1	1
396.599	1	-1
397.795	1	11
398.990	1	-1
400.186	1	8
401.381	1	-2
402.576	1	6
403.771	1	4
404.967	1	1
406.162	1	-4
407.357	1	-1
408.552	1	6
409.747	1	-1
410.942	1	7
412.137	1	7
413.332	1	1
414.526	1	-3
415.721	1	3
416.916	1	3
418.111	1	3
419.305	1	4
420.500	1	5
421.695	1	4
422.889	1	5
424.084	1	9
425.278	1	1
426.472	1	-1
427.667	1	11
428.861	1	1
430.055	1	5
431.250	1	-7
432.444	1	17
433.638	1	-5
434.832	1	-7
436.026	1	5
437.220	1	11
438.414	1	-1
439.608	1	0
440.802	1	13
441.996	1	-4
443.190	1	-8
444.384	1	7
445.578	1	6
446.771	1	8
447.965	1	-3
449.159	1	-9
450.352	1	0
451.546	1	0
452.739	1	7
453.933	1	2
455.126	1	7
456.320	1	2
457.513	1	4
458.706	1	8
459.899	1	12
461.093	1	7
462.286	1	8
463.479	1	8
464.672	1	-1
465.865	1	-3
467.058	1	5
468.251	1	-6
469.444	1	0
470.637	1	9
471.830	1	14
473.023	1	-4
474.215	1	-1
475.408	1	6
476.601	1	3
477.793	1	7
478.986	1	3
480.179	1	3
481.371	1	7
482.564	1	-8
483.756	1	8
484.948	1	10
486.141	1	-7
487.333	1	11
488.525	1	1
489.718	1	-3
490.910	1	4
492.102	1	-7
493.294	1	9
494.486	1	6
495.678	1	0
496.870	1	8
498.062	1	-7
499.254	1	6
500.446	1	2
501.638	1	0
502.829	1	4
504.021	1	14
505.213	1	1
506.404	1	3
507.596	1	1
508.788	1	-11
509.979	1	3
511.171	1	14
512.362	1	0
513.553	1	-7
514.745	1	-1
515.936	1	1
517.127	1	5
518.319	1	-1
519.510	1	0
520.701	1	-2
521.892	1	-10
523.083	1	-3
524.274	1	8
525.465	1	3
526.656	1	8
527.847	1	-8
529.038	1	5
530.229	1	4
531.419	1	15
532.610	1	2
533.801	1	4
534.991	1	1
536.182	1	6
537.373	1	-2
538.563	1	-8
539.754	1	0
540.944	1	4
542.134	1	16
543.325	1	-6
544.515	1	0
545.705	1	6
546.896	1	2
548.086	1	3
549.276	1	12
550.466	1	-6
551.656	1	-8
552.846	1	3
554.036	1	7
555.226	1	-4
556.416	1	-9
557.606	1	-6
558.796	1	-2
559.986	1	-2
561.175	1	-9
562.365	1	7
563.555	1	2
564.744	1	7
565.934	1	4
567.123	1	22
568.313	1	2
569.502	1	-1
570.692	1	5
571.881	1	3
573.070	1	6
574.260	1	5
575.449	1	2
576.638	1	7
577.827	1	4
579.016	1	13
580.205	1	0
581.394	1	-10
582.583	1	-1
583.772	1	2
584.961	1	6
586.150	1	6
587.339	1	-1
588.528	1	11
589.717	1	6
590.905	1	1
592.094	1	6
593.283	1	14
594.471	1	0
595.660	1	-7
596.848	1	5
598.037	1	-2
599.225	1	4
600.413	1	-5
601.602	1	5
602.790	1	8
603.978	1	-6
605.166	1	-4
606.355	1	5
607.543	1	-6
608.731	1	-11
609.919	1	-3
611.107	1	6
612.295	1	11
613.483	1	12
614.671	1	-2
615.858	1	7
617.046	1	6
618.234	1	-1
619.422	1	-8
620.609	1	6
621.797	1	-1
622.985	1	0
624.172	1	12
625.360	1	-5
626.547	1	8
627.735	1	2
628.922	1	-1
630.109	1	-5
631.297	1	0
632.484	1	-1
633.671	1	-4
634.858	1	7
636.045	1	5
637.232	1	6
638.419	1	8
639.606	1	11
640.793	1	0
641.980	1	-2
643.167	1	9
644.354	1	1
645.541	1	-8
646.728	1	4
647.914	1	-2
649.101	1	7
650.288	1	2
651.474	1	-2
652.661	1	6
653.847	1	-1
655.034	1	-4
656.220	1	-4
657.406	1	-3
658.593	1	-9
659.779	1	-3
660.965	1	-1
662.152	1	2
663.338	1	-7
664.524	1	-7
665.710	1	0
666.896	1	-2
668.082	1	-3
669.268	1	1
670.454	1	3
671.640	1	-11
672.826	1	-14
674.011	1	2
675.197	1	-3
676.383	1	7
677.569	1	-3
678.754	1	-4
679.940	1	-1
681.125	1	3
682.311	1	5
683.496	1	-4
684.682	1	9
685.867	1	4
687.053	1	9
688.238	1	1
688.746	1	6