File: Analysis/GaN_68K_200ms/GaN_sample E_spot4_UVVIS_68 K_200um_200 ms 2x2mm1_297.txt
340.368	1	3
341.565	1	-2
342.763	1	0
343.960	1	1
345.157	1	7
346.354	1	4
347.552	1	-3
348.749	1	-7
349.946	1	11
351.143	1	-7
352.340	1	-7
353.537	1	1
354.734	1	7
355.931	1	6
357.127	1	0
358.324	1	6
359.521	1	7
360.718	1	-8
361.914	1	-5
363.111	1	13
364.308	1	3
365.504	1	-3
366.701	1	5
367.897	1	13
369.093	1	1
370.290	1	8
371.486	1	13
372.682	1	5
373.879	1	3
375.075	1	10
376.271	1	0
377.467	1	-1
378.663	1	-10
379.859	1	0
381.055	1	0
382.251	1	11
383.447	1	13
384.643	1	18
385.839	1	16
387.035	1	5
388.230	1	6
389.426	1	10
390.622	1	2
391.817	1	12
393.013	1	20
394.208	1	11
395.404	1	12
396.599	1	12
397.795	1	9
398.990	1	12
400.186	1	12
401.381	1	17
402.576	1	16
403.771	1	14
404.967	1	11
406.162	1	1
407.357	1	13
408.552	1	12
409.747	1	3
410.942	1	15
412.137	1	14
413.332	1	4
414.526	1	6
415.721	1	9
416.916	1	-2
418.111	1	4
419.305	1	-3
420.500	1	9
421.695	1	3
422.889	1	8
424.084	1	14
425.278	1	4
426.472	1	-3
427.667	1	13
428.861	1	5
430.055	1	10
431.250	1	-5
432.444	1	10
433.638	1	0
434.832	1	5
436.026	1	5
437.220	1	9
438.414	1	3
439.608	1	2
440.802	1	5
441.996	1	2
443.190	1	-11
444.384	1	-1
445.578	1	14
446.771	1	7
447.965	1	-6
449.159	1	-2
450.352	1	5
451.546	1	7
452.739	1	0
453.933	1	8
455.126	1	4
456.320	1	3
457.513	1	6
458.706	1	5
459.899	1	6
461.093	1	11
462.286	1	10
463.479	1	16
464.672	1	6
465.865	1	-7
467.058	1	12
468.251	1	-9
469.444	1	-8
470.637	1	11
471.830	1	1
473.023	1	-8
474.215	1	9
475.408	1	1
476.601	1	1
477.793	1	4
478.986	1	13
480.179	1	5
481.371	1	4
482.564	1	3
483.756	1	10
484.948	1	3
486.141	1	-3
487.333	1	2
488.525	1	-6
489.718	1	-1
490.910	1	-2
492.102	1	-6
493.294	1	11
494.486	1	6
495.678	1	16
496.870	1	-1
498.062	1	-5
499.254	1	-2
500.446	1	5
501.638	1	13
502.829	1	-1
504.021	1	15
505.213	1	1
506.404	1	3
507.596	1	7
508.788	1	-1
509.979	1	-1
511.171	1	7
512.362	1	4
513.553	1	2
514.745	1	-4
515.936	1	9
517.127	1	11
518.319	1	1
519.510	1	14
520.701	1	13
521.892	1	0
523.083	1	1
524.274	1	-3
525.465	1	7
526.656	1	16
527.847	1	-6
529.038	1	13
530.229	1	13
531.419	1	17
532.610	1	11
533.801	1	8
534.991	1	8
536.182	1	4
537.373	1	2
538.563	1	10
539.754	1	4
540.944	1	6
542.134	1	18
543.325	1	5
544.515	1	13
545.705	1	13
546.896	1	8
548.086	1	10
549.276	1	5
550.466	1	-3
551.656	1	5
552.846	1	1
554.036	1	5
555.226	1	0
556.416	1	13
557.606	1	-4
558.796	1	13
559.986	1	1
561.175	1	1
562.365	1	4
563.555	1	13
564.744	1	-3
565.934	1	7
567.123	1	13
568.313	1	8
569.502	1	2
570.692	1	11
571.881	1	5
573.070	1	7
574.260	1	-5
575.449	1	3
576.638	1	3
577.827	1	17
579.016	1	-3
580.205	1	3
581.394	1	-4
582.583	1	9
583.772	1	-8
584.961	1	1
586.150	1	3
587.339	1	7
588.528	1	9
589.717	1	12
590.905	1	6
592.094	1	9
593.283	1	2
594.471	1	5
595.660	1	-1
596.848	1	11
598.037	1	7
599.225	1	-2
600.413	1	1
601.602	1	7
602.790	1	8
603.978	1	2
605.166	1	4
606.355	1	8
607.543	1	-3
608.731	1	-11
609.919	1	1
611.107	1	3
612.295	1	8
613.483	1	4
614.671	1	-6
615.858	1	11
617.046	1	2
618.234	1	0
619.422	1	0
620.609	1	5
621.797	1	2
622.985	1	2
624.172	1	12
625.360	1	-4
626.547	1	5
627.735	1	5
628.922	1	-2
630.109	1	-1
631.297	1	3
632.484	1	2
633.671	1	-5
634.858	1	12
636.045	1	1
637.232	1	-1
638.419	1	10
639.606	1	14
640.793	1	0
641.980	1	-2
643.167	1	2
644.354	1	1
645.541	1	-4
646.728	1	5
647.914	1	-9
649.101	1	-1
650.288	1	0
651.474	1	-2
652.661	1	5
653.847	1	13
655.034	1	4
656.220	1	0
657.406	1	11
658.593	1	-6
659.779	1	3
660.965	1	2
662.152	1	6
663.338	1	-2
664.524	1	-4
665.710	1	-4
666.896	1	-5
668.082	1	1
669.268	1	6
670.454	1	5
671.640	1	-15
672.826	1	-4
674.011	1	14
675.197	1	-7
676.383	1	5
677.569	1	2
678.754	1	-1
679.940	1	-3
681.125	1	2
682.311	1	-3
683.496	1	-11
684.682	1	18
685.867	1	-1
687.053	1	6
688.238	1	5
688.746	1	4