File: Analysis/GaN_68K_200ms/GaN_sample E_spot4_UVVIS_68 K_200um_200 ms 2x2mm1_251.txt
340.368	1	0
341.565	1	0
342.763	1	1
343.960	1	-3
345.157	1	7
346.354	1	0
347.552	1	14
348.749	1	9
349.946	1	0
351.143	1	-6
352.340	1	-5
353.537	1	6
354.734	1	-6
355.931	1	9
357.127	1	2
358.324	1	4
359.521	1	-2
360.718	1	10
361.914	1	1
363.111	1	12
364.308	1	-1
365.504	1	8
366.701	1	11
367.897	1	18
369.093	1	11
370.290	1	2
371.486	1	10
372.682	1	0
373.879	1	14
375.075	1	13
376.271	1	10
377.467	1	3
378.663	1	1
379.859	1	-2
381.055	1	3
382.251	1	4
383.447	1	19
384.643	1	11
385.839	1	13
387.035	1	23
388.230	1	15
389.426	1	20
390.622	1	14
391.817	1	10
393.013	1	20
394.208	1	20
395.404	1	20
396.599	1	25
397.795	1	14
398.990	1	24
400.186	1	20
401.381	1	15
402.576	1	22
403.771	1	15
404.967	1	9
406.162	1	6
407.357	1	7
408.552	1	11
409.747	1	-1
410.942	1	19
412.137	1	12
413.332	1	1
414.526	1	7
415.721	1	6
416.916	1	-2
418.111	1	8
419.305	1	12
420.500	1	4
421.695	1	12
422.889	1	7
424.084	1	10
425.278	1	1
426.472	1	3
427.667	1	9
428.861	1	7
430.055	1	13
431.250	1	-9
432.444	1	11
433.638	1	4
434.832	1	-6
436.026	1	15
437.220	1	13
438.414	1	2
439.608	1	12
440.802	1	9
441.996	1	5
443.190	1	2
444.384	1	10
445.578	1	5
446.771	1	3
447.965	1	-3
449.159	1	2
450.352	1	7
451.546	1	7
452.739	1	8
453.933	1	2
455.126	1	6
456.320	1	11
457.513	1	10
458.706	1	9
459.899	1	17
461.093	1	9
462.286	1	7
463.479	1	15
464.672	1	0
465.865	1	0
467.058	1	13
468.251	1	-6
469.444	1	3
470.637	1	13
471.830	1	13
473.023	1	-12
474.215	1	-4
475.408	1	5
476.601	1	2
477.793	1	10
478.986	1	-5
480.179	1	15
481.371	1	10
482.564	1	-4
483.756	1	11
484.948	1	-7
486.141	1	-2
487.333	1	3
488.525	1	1
489.718	1	-3
490.910	1	3
492.102	1	5
493.294	1	9
494.486	1	5
495.678	1	12
496.870	1	2
498.062	1	6
499.254	1	2
500.446	1	11
501.638	1	8
502.829	1	-3
504.021	1	27
505.213	1	14
506.404	1	10
507.596	1	7
508.788	1	11
509.979	1	12
511.171	1	25
512.362	1	15
513.553	1	2
514.745	1	1
515.936	1	4
517.127	1	15
518.319	1	1
519.510	1	-6
520.701	1	14
521.892	1	-6
523.083	1	9
524.274	1	4
525.465	1	9
526.656	1	25
527.847	1	4
529.038	1	9
530.229	1	19
531.419	1	13
532.610	1	14
533.801	1	13
534.991	1	1
536.182	1	13
537.373	1	8
538.563	1	4
539.754	1	13
540.944	1	6
542.134	1	10
543.325	1	2
544.515	1	15
545.705	1	14
546.896	1	6
548.086	1	3
549.276	1	10
550.466	1	4
551.656	1	3
552.846	1	-1
554.036	1	13
555.226	1	1
556.416	1	10
557.606	1	-6
558.796	1	8
559.986	1	1
561.175	1	4
562.365	1	10
563.555	1	17
564.744	1	11
565.934	1	10
567.123	1	20
568.313	1	2
569.502	1	5
570.692	1	11
571.881	1	12
573.070	1	9
574.260	1	4
575.449	1	8
576.638	1	7
577.827	1	2
579.016	1	8
580.205	1	14
581.394	1	6
582.583	1	0
583.772	1	2
584.961	1	8
586.150	1	3
587.339	1	18
588.528	1	7
589.717	1	-4
590.905	1	4
592.094	1	0
593.283	1	7
594.471	1	13
595.660	1	0
596.848	1	17
598.037	1	3
599.225	1	5
600.413	1	4
601.602	1	10
602.790	1	5
603.978	1	-5
605.166	1	-4
606.355	1	13
607.543	1	-2
608.731	1	-3
609.919	1	2
611.107	1	8
612.295	1	-1
613.483	1	4
614.671	1	1
615.858	1	9
617.046	1	4
618.234	1	5
619.422	1	3
620.609	1	5
621.797	1	2
622.985	1	5
624.172	1	16
625.360	1	4
626.547	1	2
627.735	1	6
628.922	1	-5
630.109	1	8
631.297	1	-4
632.484	1	-1
633.671	1	13
634.858	1	8
636.045	1	2
637.232	1	2
638.419	1	11
639.606	1	21
640.793	1	5
641.980	1	0
643.167	1	12
644.354	1	-1
645.541	1	-14
646.728	1	2
647.914	1	1
649.101	1	8
650.288	1	0
651.474	1	11
652.661	1	15
653.847	1	4
655.034	1	-1
656.220	1	2
657.406	1	14
658.593	1	4
659.779	1	-2
660.965	1	6
662.152	1	10
663.338	1	2
664.524	1	-13
665.710	1	-10
666.896	1	-2
668.082	1	-1
669.268	1	-1
670.454	1	9
671.640	1	-4
672.826	1	-14
674.011	1	5
675.197	1	0
676.383	1	-2
677.569	1	-6
678.754	1	12
679.940	1	-2
681.125	1	4
682.311	1	6
683.496	1	-5
684.682	1	5
685.867	1	4
687.053	1	12
688.238	1	5
688.746	1	6