File: Analysis/GaN_68K_200ms/GaN_sample E_spot4_UVVIS_68 K_200um_200 ms 2x2mm1_745.txt
340.368	1	-10
341.565	1	-12
342.763	1	-6
343.960	1	-2
345.157	1	-1
346.354	1	3
347.552	1	-7
348.749	1	0
349.946	1	9
351.143	1	-11
352.340	1	-1
353.537	1	-6
354.734	1	-6
355.931	1	2
357.127	1	1
358.324	1	-3
359.521	1	-5
360.718	1	-9
361.914	1	-9
363.111	1	16
364.308	1	-7
365.504	1	-5
366.701	1	-6
367.897	1	-4
369.093	1	2
370.290	1	-2
371.486	1	1
372.682	1	-1
373.879	1	17
375.075	1	8
376.271	1	-4
377.467	1	-11
378.663	1	-7
379.859	1	-12
381.055	1	-4
382.251	1	6
383.447	1	4
384.643	1	8
385.839	1	4
387.035	1	-10
388.230	1	-5
389.426	1	4
390.622	1	2
391.817	1	-3
393.013	1	7
394.208	1	3
395.404	1	8
396.599	1	-3
397.795	1	-1
398.990	1	-1
400.186	1	17
401.381	1	5
402.576	1	9
403.771	1	-4
404.967	1	-2
406.162	1	-4
407.357	1	3
408.552	1	4
409.747	1	-5
410.942	1	-3
412.137	1	9
413.332	1	-1
414.526	1	0
415.721	1	4
416.916	1	-6
418.111	1	0
419.305	1	-10
420.500	1	5
421.695	1	5
422.889	1	3
424.084	1	-2
425.278	1	-16
426.472	1	0
427.667	1	9
428.861	1	-1
430.055	1	0
431.250	1	-10
432.444	1	5
433.638	1	-4
434.832	1	-6
436.026	1	0
437.220	1	5
438.414	1	-1
439.608	1	1
440.802	1	-2
441.996	1	-6
443.190	1	-9
444.384	1	2
445.578	1	8
446.771	1	-2
447.965	1	3
449.159	1	-9
450.352	1	11
451.546	1	3
452.739	1	-5
453.933	1	3
455.126	1	-5
456.320	1	-2
457.513	1	2
458.706	1	5
459.899	1	11
461.093	1	7
462.286	1	6
463.479	1	7
464.672	1	-3
465.865	1	-2
467.058	1	11
468.251	1	-3
469.444	1	-10
470.637	1	16
471.830	1	8
473.023	1	-6
474.215	1	0
475.408	1	-4
476.601	1	-2
477.793	1	2
478.986	1	1
480.179	1	6
481.371	1	6
482.564	1	-8
483.756	1	9
484.948	1	-8
486.141	1	-11
487.333	1	1
488.525	1	-4
489.718	1	5
490.910	1	-9
492.102	1	-4
493.294	1	9
494.486	1	6
495.678	1	13
496.870	1	0
498.062	1	-5
499.254	1	-8
500.446	1	3
501.638	1	1
502.829	1	-7
504.021	1	15
505.213	1	10
506.404	1	0
507.596	1	1
508.788	1	5
509.979	1	0
511.171	1	13
512.362	1	0
513.553	1	-16
514.745	1	4
515.936	1	6
517.127	1	2
518.319	1	-7
519.510	1	4
520.701	1	0
521.892	1	-8
523.083	1	1
524.274	1	-5
525.465	1	-4
526.656	1	17
527.847	1	-4
529.038	1	8
530.229	1	8
531.419	1	7
532.610	1	2
533.801	1	3
534.991	1	8
536.182	1	-3
537.373	1	-2
538.563	1	-11
539.754	1	-9
540.944	1	-10
542.134	1	2
543.325	1	-7
544.515	1	-6
545.705	1	7
546.896	1	-1
548.086	1	-4
549.276	1	3
550.466	1	-8
551.656	1	0
552.846	1	4
554.036	1	2
555.226	1	-8
556.416	1	4
557.606	1	-10
558.796	1	4
559.986	1	-6
561.175	1	-1
562.365	1	6
563.555	1	7
564.744	1	6
565.934	1	7
567.123	1	8
568.313	1	-3
569.502	1	-6
570.692	1	6
571.881	1	3
573.070	1	5
574.260	1	-8
575.449	1	9
576.638	1	-3
577.827	1	9
579.016	1	8
580.205	1	11
581.394	1	-4
582.583	1	-10
583.772	1	2
584.961	1	-2
586.150	1	7
587.339	1	6
588.528	1	-2
589.717	1	3
590.905	1	0
592.094	1	6
593.283	1	5
594.471	1	-2
595.660	1	-10
596.848	1	20
598.037	1	-1
599.225	1	1
600.413	1	3
601.602	1	-1
602.790	1	5
603.978	1	-3
605.166	1	-5
606.355	1	3
607.543	1	-8
608.731	1	-10
609.919	1	1
611.107	1	10
612.295	1	0
613.483	1	8
614.671	1	3
615.858	1	7
617.046	1	4
618.234	1	1
619.422	1	7
620.609	1	5
621.797	1	7
622.985	1	-5
624.172	1	13
625.360	1	-13
626.547	1	1
627.735	1	2
628.922	1	-6
630.109	1	-6
631.297	1	-4
632.484	1	-10
633.671	1	3
634.858	1	8
636.045	1	0
637.232	1	-4
638.419	1	6
639.606	1	13
640.793	1	1
641.980	1	-1
643.167	1	4
644.354	1	-3
645.541	1	-17
646.728	1	7
647.914	1	-1
649.101	1	0
650.288	1	-4
651.474	1	4
652.661	1	5
653.847	1	18
655.034	1	-2
656.220	1	7
657.406	1	15
658.593	1	-6
659.779	1	-16
660.965	1	3
662.152	1	-4
663.338	1	-3
664.524	1	-12
665.710	1	-3
666.896	1	-9
668.082	1	-7
669.268	1	7
670.454	1	2
671.640	1	-20
672.826	1	-11
674.011	1	-1
675.197	1	-6
676.383	1	0
677.569	1	-12
678.754	1	2
679.940	1	-3
681.125	1	0
682.311	1	8
683.496	1	-4
684.682	1	5
685.867	1	0
687.053	1	-4
688.238	1	-3
688.746	1	-1