File: Analysis/GaN_68K_200ms/GaN_sample E_spot4_UVVIS_68 K_200um_200 ms 2x2mm1_234.txt
340.368	1	1
341.565	1	-8
342.763	1	3
343.960	1	-3
345.157	1	7
346.354	1	3
347.552	1	1
348.749	1	4
349.946	1	12
351.143	1	-12
352.340	1	-4
353.537	1	4
354.734	1	4
355.931	1	4
357.127	1	8
358.324	1	1
359.521	1	6
360.718	1	0
361.914	1	6
363.111	1	19
364.308	1	6
365.504	1	5
366.701	1	11
367.897	1	7
369.093	1	12
370.290	1	-1
371.486	1	18
372.682	1	3
373.879	1	12
375.075	1	8
376.271	1	2
377.467	1	11
378.663	1	5
379.859	1	1
381.055	1	5
382.251	1	1
383.447	1	13
384.643	1	14
385.839	1	19
387.035	1	16
388.230	1	18
389.426	1	20
390.622	1	8
391.817	1	17
393.013	1	26
394.208	1	21
395.404	1	17
396.599	1	13
397.795	1	14
398.990	1	16
400.186	1	18
401.381	1	12
402.576	1	26
403.771	1	10
404.967	1	13
406.162	1	6
407.357	1	2
408.552	1	14
409.747	1	9
410.942	1	15
412.137	1	16
413.332	1	13
414.526	1	10
415.721	1	17
416.916	1	2
418.111	1	9
419.305	1	12
420.500	1	20
421.695	1	18
422.889	1	17
424.084	1	15
425.278	1	3
426.472	1	3
427.667	1	14
428.861	1	6
430.055	1	11
431.250	1	-1
432.444	1	16
433.638	1	11
434.832	1	3
436.026	1	1
437.220	1	17
438.414	1	5
439.608	1	6
440.802	1	13
441.996	1	4
443.190	1	-3
444.384	1	19
445.578	1	10
446.771	1	-1
447.965	1	4
449.159	1	-4
450.352	1	10
451.546	1	10
452.739	1	5
453.933	1	11
455.126	1	3
456.320	1	5
457.513	1	14
458.706	1	11
459.899	1	19
461.093	1	4
462.286	1	14
463.479	1	18
464.672	1	10
465.865	1	-6
467.058	1	11
468.251	1	0
469.444	1	2
470.637	1	17
471.830	1	11
473.023	1	4
474.215	1	-1
475.408	1	4
476.601	1	1
477.793	1	10
478.986	1	3
480.179	1	5
481.371	1	5
482.564	1	-8
483.756	1	10
484.948	1	5
486.141	1	0
487.333	1	4
488.525	1	7
489.718	1	4
490.910	1	2
492.102	1	-6
493.294	1	9
494.486	1	3
495.678	1	9
496.870	1	10
498.062	1	13
499.254	1	4
500.446	1	6
501.638	1	1
502.829	1	10
504.021	1	20
505.213	1	2
506.404	1	3
507.596	1	12
508.788	1	10
509.979	1	8
511.171	1	18
512.362	1	7
513.553	1	-6
514.745	1	-1
515.936	1	16
517.127	1	7
518.319	1	5
519.510	1	10
520.701	1	13
521.892	1	-4
523.083	1	7
524.274	1	3
525.465	1	10
526.656	1	23
527.847	1	4
529.038	1	17
530.229	1	6
531.419	1	18
532.610	1	8
533.801	1	10
534.991	1	13
536.182	1	15
537.373	1	4
538.563	1	16
539.754	1	2
540.944	1	7
542.134	1	12
543.325	1	5
544.515	1	5
545.705	1	14
546.896	1	13
548.086	1	19
549.276	1	24
550.466	1	7
551.656	1	-4
552.846	1	23
554.036	1	8
555.226	1	-8
556.416	1	7
557.606	1	-5
558.796	1	-1
559.986	1	0
561.175	1	8
562.365	1	12
563.555	1	12
564.744	1	9
565.934	1	14
567.123	1	17
568.313	1	6
569.502	1	2
570.692	1	12
571.881	1	13
573.070	1	7
574.260	1	7
575.449	1	7
576.638	1	9
577.827	1	13
579.016	1	13
580.205	1	5
581.394	1	-2
582.583	1	-5
583.772	1	11
584.961	1	-1
586.150	1	10
587.339	1	7
588.528	1	10
589.717	1	9
590.905	1	8
592.094	1	5
593.283	1	17
594.471	1	-1
595.660	1	1
596.848	1	7
598.037	1	10
599.225	1	8
600.413	1	1
601.602	1	7
602.790	1	10
603.978	1	2
605.166	1	-2
606.355	1	12
607.543	1	2
608.731	1	9
609.919	1	0
611.107	1	15
612.295	1	13
613.483	1	5
614.671	1	8
615.858	1	6
617.046	1	6
618.234	1	7
619.422	1	1
620.609	1	3
621.797	1	3
622.985	1	10
624.172	1	21
625.360	1	-5
626.547	1	3
627.735	1	8
628.922	1	2
630.109	1	-1
631.297	1	-7
632.484	1	-4
633.671	1	2
634.858	1	10
636.045	1	7
637.232	1	-8
638.419	1	15
639.606	1	13
640.793	1	6
641.980	1	0
643.167	1	9
644.354	1	10
645.541	1	-13
646.728	1	13
647.914	1	1
649.101	1	6
650.288	1	4
651.474	1	10
652.661	1	2
653.847	1	1
655.034	1	-1
656.220	1	11
657.406	1	9
658.593	1	-7
659.779	1	5
660.965	1	1
662.152	1	8
663.338	1	-5
664.524	1	-11
665.710	1	3
666.896	1	-3
668.082	1	-6
669.268	1	-3
670.454	1	-4
671.640	1	-21
672.826	1	-3
674.011	1	4
675.197	1	9
676.383	1	5
677.569	1	6
678.754	1	1
679.940	1	7
681.125	1	14
682.311	1	5
683.496	1	-1
684.682	1	3
685.867	1	0
687.053	1	8
688.238	1	2
688.746	1	3