File: Analysis/GaN_68K_200ms/GaN_sample E_spot4_UVVIS_68 K_200um_200 ms 2x2mm1_162.txt
340.368	1	3
341.565	1	-5
342.763	1	-2
343.960	1	-2
345.157	1	10
346.354	1	-1
347.552	1	5
348.749	1	11
349.946	1	18
351.143	1	-2
352.340	1	10
353.537	1	8
354.734	1	10
355.931	1	7
357.127	1	9
358.324	1	6
359.521	1	18
360.718	1	9
361.914	1	20
363.111	1	25
364.308	1	26
365.504	1	44
366.701	1	42
367.897	1	49
369.093	1	42
370.290	1	36
371.486	1	43
372.682	1	21
373.879	1	29
375.075	1	19
376.271	1	10
377.467	1	11
378.663	1	6
379.859	1	13
381.055	1	21
382.251	1	26
383.447	1	43
384.643	1	51
385.839	1	58
387.035	1	63
388.230	1	56
389.426	1	59
390.622	1	44
391.817	1	52
393.013	1	58
394.208	1	60
395.404	1	48
396.599	1	42
397.795	1	52
398.990	1	55
400.186	1	58
401.381	1	46
402.576	1	47
403.771	1	40
404.967	1	36
406.162	1	35
407.357	1	36
408.552	1	22
409.747	1	27
410.942	1	24
412.137	1	31
413.332	1	26
414.526	1	20
415.721	1	18
416.916	1	19
418.111	1	23
419.305	1	23
420.500	1	22
421.695	1	22
422.889	1	26
424.084	1	18
425.278	1	15
426.472	1	20
427.667	1	15
428.861	1	13
430.055	1	16
431.250	1	1
432.444	1	12
433.638	1	7
434.832	1	2
436.026	1	14
437.220	1	26
438.414	1	16
439.608	1	14
440.802	1	17
441.996	1	8
443.190	1	1
444.384	1	13
445.578	1	11
446.771	1	10
447.965	1	11
449.159	1	0
450.352	1	9
451.546	1	16
452.739	1	12
453.933	1	8
455.126	1	11
456.320	1	14
457.513	1	17
458.706	1	11
459.899	1	14
461.093	1	11
462.286	1	15
463.479	1	17
464.672	1	3
465.865	1	12
467.058	1	12
468.251	1	1
469.444	1	3
470.637	1	17
471.830	1	20
473.023	1	5
474.215	1	0
475.408	1	11
476.601	1	7
477.793	1	15
478.986	1	10
480.179	1	6
481.371	1	17
482.564	1	0
483.756	1	15
484.948	1	9
486.141	1	-2
487.333	1	11
488.525	1	7
489.718	1	5
490.910	1	6
492.102	1	-1
493.294	1	17
494.486	1	3
495.678	1	22
496.870	1	12
498.062	1	9
499.254	1	25
500.446	1	13
501.638	1	23
502.829	1	15
504.021	1	29
505.213	1	20
506.404	1	18
507.596	1	25
508.788	1	13
509.979	1	28
511.171	1	27
512.362	1	22
513.553	1	19
514.745	1	29
515.936	1	26
517.127	1	31
518.319	1	27
519.510	1	42
520.701	1	32
521.892	1	35
523.083	1	32
524.274	1	35
525.465	1	38
526.656	1	54
527.847	1	33
529.038	1	37
530.229	1	39
531.419	1	46
532.610	1	42
533.801	1	37
534.991	1	34
536.182	1	33
537.373	1	29
538.563	1	37
539.754	1	40
540.944	1	30
542.134	1	39
543.325	1	27
544.515	1	33
545.705	1	36
546.896	1	38
548.086	1	38
549.276	1	28
550.466	1	23
551.656	1	28
552.846	1	31
554.036	1	24
555.226	1	15
556.416	1	27
557.606	1	14
558.796	1	26
559.986	1	18
561.175	1	28
562.365	1	18
563.555	1	24
564.744	1	35
565.934	1	20
567.123	1	27
568.313	1	16
569.502	1	15
570.692	1	21
571.881	1	19
573.070	1	19
574.260	1	12
575.449	1	23
576.638	1	16
577.827	1	20
579.016	1	22
580.205	1	17
581.394	1	6
582.583	1	5
583.772	1	17
584.961	1	14
586.150	1	9
587.339	1	15
588.528	1	11
589.717	1	13
590.905	1	12
592.094	1	10
593.283	1	10
594.471	1	10
595.660	1	1
596.848	1	10
598.037	1	7
599.225	1	6
600.413	1	5
601.602	1	20
602.790	1	9
603.978	1	8
605.166	1	3
606.355	1	16
607.543	1	-1
608.731	1	-2
609.919	1	8
611.107	1	15
612.295	1	1
613.483	1	17
614.671	1	8
615.858	1	14
617.046	1	4
618.234	1	0
619.422	1	10
620.609	1	-6
621.797	1	10
622.985	1	7
624.172	1	16
625.360	1	-17
626.547	1	14
627.735	1	20
628.922	1	6
630.109	1	5
631.297	1	-1
632.484	1	3
633.671	1	3
634.858	1	15
636.045	1	7
637.232	1	7
638.419	1	4
639.606	1	10
640.793	1	9
641.980	1	0
643.167	1	11
644.354	1	6
645.541	1	-7
646.728	1	7
647.914	1	-4
649.101	1	12
650.288	1	0
651.474	1	5
652.661	1	9
653.847	1	5
655.034	1	4
656.220	1	6
657.406	1	15
658.593	1	-9
659.779	1	0
660.965	1	5
662.152	1	7
663.338	1	-2
664.524	1	1
665.710	1	1
666.896	1	6
668.082	1	10
669.268	1	9
670.454	1	0
671.640	1	-8
672.826	1	-11
674.011	1	12
675.197	1	1
676.383	1	10
677.569	1	3
678.754	1	1
679.940	1	-2
681.125	1	10
682.311	1	4
683.496	1	5
684.682	1	6
685.867	1	10
687.053	1	5
688.238	1	7
688.746	1	14