File: Analysis/GaN_68K_200ms/GaN_sample E_spot4_UVVIS_68 K_200um_200 ms 2x2mm1_362.txt
340.368	1	3
341.565	1	-16
342.763	1	0
343.960	1	3
345.157	1	15
346.354	1	-5
347.552	1	5
348.749	1	13
349.946	1	2
351.143	1	-2
352.340	1	4
353.537	1	-3
354.734	1	-11
355.931	1	8
357.127	1	5
358.324	1	0
359.521	1	-3
360.718	1	3
361.914	1	4
363.111	1	20
364.308	1	-7
365.504	1	-6
366.701	1	-2
367.897	1	0
369.093	1	6
370.290	1	3
371.486	1	19
372.682	1	7
373.879	1	19
375.075	1	12
376.271	1	2
377.467	1	-5
378.663	1	2
379.859	1	-2
381.055	1	4
382.251	1	6
383.447	1	1
384.643	1	7
385.839	1	12
387.035	1	1
388.230	1	9
389.426	1	8
390.622	1	2
391.817	1	0
393.013	1	13
394.208	1	19
395.404	1	8
396.599	1	14
397.795	1	7
398.990	1	21
400.186	1	14
401.381	1	9
402.576	1	20
403.771	1	4
404.967	1	4
406.162	1	-3
407.357	1	5
408.552	1	4
409.747	1	-3
410.942	1	6
412.137	1	9
413.332	1	-2
414.526	1	7
415.721	1	3
416.916	1	-2
418.111	1	2
419.305	1	8
420.500	1	6
421.695	1	5
422.889	1	4
424.084	1	6
425.278	1	-3
426.472	1	-4
427.667	1	10
428.861	1	5
430.055	1	6
431.250	1	-6
432.444	1	7
433.638	1	-2
434.832	1	-4
436.026	1	5
437.220	1	9
438.414	1	-3
439.608	1	1
440.802	1	16
441.996	1	4
443.190	1	-9
444.384	1	9
445.578	1	11
446.771	1	-4
447.965	1	-4
449.159	1	2
450.352	1	16
451.546	1	3
452.739	1	2
453.933	1	7
455.126	1	1
456.320	1	0
457.513	1	16
458.706	1	1
459.899	1	9
461.093	1	1
462.286	1	4
463.479	1	13
464.672	1	-5
465.865	1	2
467.058	1	1
468.251	1	1
469.444	1	-9
470.637	1	13
471.830	1	10
473.023	1	-1
474.215	1	0
475.408	1	6
476.601	1	-3
477.793	1	6
478.986	1	3
480.179	1	3
481.371	1	4
482.564	1	-6
483.756	1	9
484.948	1	-1
486.141	1	-8
487.333	1	4
488.525	1	-2
489.718	1	6
490.910	1	1
492.102	1	1
493.294	1	5
494.486	1	4
495.678	1	17
496.870	1	-7
498.062	1	7
499.254	1	-1
500.446	1	5
501.638	1	6
502.829	1	2
504.021	1	18
505.213	1	4
506.404	1	-3
507.596	1	3
508.788	1	2
509.979	1	4
511.171	1	12
512.362	1	4
513.553	1	-6
514.745	1	6
515.936	1	10
517.127	1	9
518.319	1	0
519.510	1	2
520.701	1	9
521.892	1	-1
523.083	1	5
524.274	1	-4
525.465	1	8
526.656	1	19
527.847	1	2
529.038	1	12
530.229	1	11
531.419	1	12
532.610	1	8
533.801	1	11
534.991	1	7
536.182	1	4
537.373	1	-8
538.563	1	3
539.754	1	-2
540.944	1	1
542.134	1	15
543.325	1	-2
544.515	1	4
545.705	1	-2
546.896	1	9
548.086	1	12
549.276	1	13
550.466	1	1
551.656	1	-1
552.846	1	-3
554.036	1	1
555.226	1	1
556.416	1	-1
557.606	1	-5
558.796	1	-2
559.986	1	0
561.175	1	2
562.365	1	8
563.555	1	16
564.744	1	3
565.934	1	3
567.123	1	25
568.313	1	-8
569.502	1	-6
570.692	1	12
571.881	1	1
573.070	1	16
574.260	1	6
575.449	1	5
576.638	1	10
577.827	1	8
579.016	1	17
580.205	1	-3
581.394	1	-4
582.583	1	3
583.772	1	3
584.961	1	7
586.150	1	5
587.339	1	-3
588.528	1	11
589.717	1	8
590.905	1	8
592.094	1	10
593.283	1	8
594.471	1	3
595.660	1	1
596.848	1	9
598.037	1	-2
599.225	1	7
600.413	1	1
601.602	1	2
602.790	1	8
603.978	1	6
605.166	1	-8
606.355	1	12
607.543	1	-3
608.731	1	-4
609.919	1	-7
611.107	1	-2
612.295	1	1
613.483	1	14
614.671	1	-5
615.858	1	4
617.046	1	-1
618.234	1	-2
619.422	1	0
620.609	1	6
621.797	1	3
622.985	1	4
624.172	1	8
625.360	1	-4
626.547	1	1
627.735	1	0
628.922	1	8
630.109	1	-1
631.297	1	3
632.484	1	-5
633.671	1	11
634.858	1	3
636.045	1	-2
637.232	1	9
638.419	1	5
639.606	1	9
640.793	1	2
641.980	1	0
643.167	1	13
644.354	1	-3
645.541	1	-12
646.728	1	9
647.914	1	-5
649.101	1	-2
650.288	1	-2
651.474	1	4
652.661	1	7
653.847	1	4
655.034	1	5
656.220	1	11
657.406	1	4
658.593	1	-7
659.779	1	-5
660.965	1	9
662.152	1	5
663.338	1	1
664.524	1	-8
665.710	1	-5
666.896	1	-4
668.082	1	2
669.268	1	4
670.454	1	2
671.640	1	-13
672.826	1	-20
674.011	1	10
675.197	1	0
676.383	1	-4
677.569	1	-4
678.754	1	1
679.940	1	-2
681.125	1	-3
682.311	1	-5
683.496	1	-5
684.682	1	4
685.867	1	1
687.053	1	2
688.238	1	1
688.746	1	-2