File: Analysis/GaN_68K_200ms/GaN_sample E_spot4_UVVIS_68 K_200um_200 ms 2x2mm1_409.txt
340.368	1	4
341.565	1	1
342.763	1	-5
343.960	1	-2
345.157	1	2
346.354	1	2
347.552	1	6
348.749	1	3
349.946	1	15
351.143	1	-1
352.340	1	-1
353.537	1	-3
354.734	1	2
355.931	1	3
357.127	1	9
358.324	1	-4
359.521	1	0
360.718	1	-2
361.914	1	-8
363.111	1	9
364.308	1	8
365.504	1	-3
366.701	1	-8
367.897	1	9
369.093	1	5
370.290	1	-5
371.486	1	17
372.682	1	4
373.879	1	10
375.075	1	5
376.271	1	-2
377.467	1	0
378.663	1	-9
379.859	1	-6
381.055	1	0
382.251	1	4
383.447	1	12
384.643	1	-1
385.839	1	6
387.035	1	4
388.230	1	5
389.426	1	15
390.622	1	11
391.817	1	2
393.013	1	17
394.208	1	14
395.404	1	2
396.599	1	6
397.795	1	4
398.990	1	15
400.186	1	9
401.381	1	12
402.576	1	14
403.771	1	-2
404.967	1	1
406.162	1	1
407.357	1	9
408.552	1	7
409.747	1	2
410.942	1	7
412.137	1	15
413.332	1	4
414.526	1	10
415.721	1	9
416.916	1	2
418.111	1	5
419.305	1	3
420.500	1	13
421.695	1	2
422.889	1	3
424.084	1	9
425.278	1	-19
426.472	1	1
427.667	1	4
428.861	1	0
430.055	1	0
431.250	1	-11
432.444	1	12
433.638	1	-1
434.832	1	-9
436.026	1	5
437.220	1	8
438.414	1	-7
439.608	1	-8
440.802	1	4
441.996	1	2
443.190	1	-3
444.384	1	5
445.578	1	18
446.771	1	-3
447.965	1	7
449.159	1	-10
450.352	1	7
451.546	1	3
452.739	1	-3
453.933	1	4
455.126	1	-5
456.320	1	8
457.513	1	10
458.706	1	4
459.899	1	8
461.093	1	12
462.286	1	13
463.479	1	12
464.672	1	-2
465.865	1	-7
467.058	1	2
468.251	1	-11
469.444	1	3
470.637	1	14
471.830	1	10
473.023	1	-3
474.215	1	6
475.408	1	-3
476.601	1	4
477.793	1	10
478.986	1	10
480.179	1	5
481.371	1	-1
482.564	1	-7
483.756	1	6
484.948	1	-2
486.141	1	-7
487.333	1	0
488.525	1	-1
489.718	1	-2
490.910	1	1
492.102	1	-5
493.294	1	4
494.486	1	12
495.678	1	7
496.870	1	-4
498.062	1	2
499.254	1	-5
500.446	1	11
501.638	1	9
502.829	1	0
504.021	1	19
505.213	1	1
506.404	1	2
507.596	1	5
508.788	1	4
509.979	1	10
511.171	1	9
512.362	1	-3
513.553	1	-7
514.745	1	-6
515.936	1	3
517.127	1	3
518.319	1	0
519.510	1	7
520.701	1	0
521.892	1	3
523.083	1	-1
524.274	1	0
525.465	1	4
526.656	1	23
527.847	1	1
529.038	1	3
530.229	1	2
531.419	1	14
532.610	1	6
533.801	1	8
534.991	1	3
536.182	1	1
537.373	1	3
538.563	1	6
539.754	1	-1
540.944	1	0
542.134	1	2
543.325	1	-5
544.515	1	3
545.705	1	6
546.896	1	10
548.086	1	5
549.276	1	5
550.466	1	-4
551.656	1	-7
552.846	1	5
554.036	1	2
555.226	1	-6
556.416	1	6
557.606	1	-5
558.796	1	-4
559.986	1	-9
561.175	1	5
562.365	1	6
563.555	1	5
564.744	1	7
565.934	1	5
567.123	1	21
568.313	1	-2
569.502	1	4
570.692	1	4
571.881	1	2
573.070	1	3
574.260	1	-2
575.449	1	0
576.638	1	0
577.827	1	12
579.016	1	12
580.205	1	9
581.394	1	-6
582.583	1	-4
583.772	1	-5
584.961	1	6
586.150	1	3
587.339	1	9
588.528	1	3
589.717	1	0
590.905	1	7
592.094	1	3
593.283	1	9
594.471	1	6
595.660	1	2
596.848	1	13
598.037	1	-1
599.225	1	2
600.413	1	-2
601.602	1	12
602.790	1	4
603.978	1	-1
605.166	1	-5
606.355	1	0
607.543	1	0
608.731	1	-17
609.919	1	-10
611.107	1	10
612.295	1	4
613.483	1	4
614.671	1	0
615.858	1	10
617.046	1	12
618.234	1	9
619.422	1	-1
620.609	1	7
621.797	1	4
622.985	1	5
624.172	1	14
625.360	1	-1
626.547	1	1
627.735	1	-1
628.922	1	0
630.109	1	3
631.297	1	-10
632.484	1	-4
633.671	1	9
634.858	1	1
636.045	1	2
637.232	1	1
638.419	1	7
639.606	1	10
640.793	1	2
641.980	1	-5
643.167	1	5
644.354	1	1
645.541	1	-11
646.728	1	5
647.914	1	-2
649.101	1	5
650.288	1	-5
651.474	1	6
652.661	1	6
653.847	1	-4
655.034	1	5
656.220	1	7
657.406	1	10
658.593	1	2
659.779	1	-4
660.965	1	0
662.152	1	6
663.338	1	0
664.524	1	-8
665.710	1	1
666.896	1	4
668.082	1	5
669.268	1	5
670.454	1	7
671.640	1	-15
672.826	1	-16
674.011	1	10
675.197	1	6
676.383	1	-11
677.569	1	4
678.754	1	6
679.940	1	1
681.125	1	7
682.311	1	9
683.496	1	-10
684.682	1	3
685.867	1	-1
687.053	1	-1
688.238	1	4
688.746	1	6