File: Analysis/GaN_68K_200ms/GaN_sample E_spot4_UVVIS_68 K_200um_200 ms 2x2mm1_300.txt
340.368	1	-4
341.565	1	-1
342.763	1	1
343.960	1	-1
345.157	1	0
346.354	1	1
347.552	1	3
348.749	1	-1
349.946	1	4
351.143	1	-11
352.340	1	-5
353.537	1	-3
354.734	1	-2
355.931	1	1
357.127	1	3
358.324	1	4
359.521	1	7
360.718	1	1
361.914	1	11
363.111	1	16
364.308	1	1
365.504	1	-1
366.701	1	4
367.897	1	7
369.093	1	7
370.290	1	6
371.486	1	15
372.682	1	-5
373.879	1	11
375.075	1	15
376.271	1	-1
377.467	1	1
378.663	1	-1
379.859	1	2
381.055	1	4
382.251	1	6
383.447	1	13
384.643	1	16
385.839	1	19
387.035	1	5
388.230	1	1
389.426	1	12
390.622	1	14
391.817	1	8
393.013	1	15
394.208	1	12
395.404	1	11
396.599	1	12
397.795	1	13
398.990	1	11
400.186	1	12
401.381	1	15
402.576	1	17
403.771	1	5
404.967	1	4
406.162	1	8
407.357	1	13
408.552	1	9
409.747	1	4
410.942	1	12
412.137	1	9
413.332	1	10
414.526	1	10
415.721	1	4
416.916	1	3
418.111	1	7
419.305	1	13
420.500	1	10
421.695	1	3
422.889	1	10
424.084	1	4
425.278	1	-3
426.472	1	-7
427.667	1	16
428.861	1	-2
430.055	1	2
431.250	1	-6
432.444	1	5
433.638	1	7
434.832	1	-1
436.026	1	10
437.220	1	13
438.414	1	0
439.608	1	3
440.802	1	7
441.996	1	2
443.190	1	-3
444.384	1	11
445.578	1	6
446.771	1	-1
447.965	1	11
449.159	1	-7
450.352	1	8
451.546	1	3
452.739	1	7
453.933	1	8
455.126	1	2
456.320	1	-1
457.513	1	13
458.706	1	10
459.899	1	13
461.093	1	8
462.286	1	9
463.479	1	11
464.672	1	2
465.865	1	-7
467.058	1	18
468.251	1	2
469.444	1	-7
470.637	1	10
471.830	1	24
473.023	1	-15
474.215	1	3
475.408	1	7
476.601	1	3
477.793	1	10
478.986	1	3
480.179	1	-1
481.371	1	7
482.564	1	-5
483.756	1	13
484.948	1	-4
486.141	1	-9
487.333	1	4
488.525	1	0
489.718	1	-8
490.910	1	-2
492.102	1	2
493.294	1	11
494.486	1	6
495.678	1	13
496.870	1	9
498.062	1	-1
499.254	1	-4
500.446	1	10
501.638	1	6
502.829	1	3
504.021	1	15
505.213	1	2
506.404	1	5
507.596	1	15
508.788	1	0
509.979	1	5
511.171	1	22
512.362	1	2
513.553	1	-20
514.745	1	6
515.936	1	4
517.127	1	3
518.319	1	2
519.510	1	8
520.701	1	6
521.892	1	-10
523.083	1	3
524.274	1	4
525.465	1	7
526.656	1	13
527.847	1	1
529.038	1	20
530.229	1	13
531.419	1	8
532.610	1	9
533.801	1	9
534.991	1	7
536.182	1	6
537.373	1	2
538.563	1	16
539.754	1	0
540.944	1	8
542.134	1	14
543.325	1	3
544.515	1	3
545.705	1	15
546.896	1	7
548.086	1	12
549.276	1	4
550.466	1	3
551.656	1	-3
552.846	1	7
554.036	1	11
555.226	1	-1
556.416	1	10
557.606	1	3
558.796	1	2
559.986	1	2
561.175	1	1
562.365	1	-7
563.555	1	16
564.744	1	14
565.934	1	7
567.123	1	15
568.313	1	-7
569.502	1	-4
570.692	1	10
571.881	1	3
573.070	1	7
574.260	1	4
575.449	1	8
576.638	1	-2
577.827	1	18
579.016	1	9
580.205	1	8
581.394	1	3
582.583	1	-11
583.772	1	2
584.961	1	1
586.150	1	4
587.339	1	10
588.528	1	5
589.717	1	3
590.905	1	4
592.094	1	12
593.283	1	0
594.471	1	3
595.660	1	-1
596.848	1	14
598.037	1	0
599.225	1	-1
600.413	1	2
601.602	1	0
602.790	1	6
603.978	1	3
605.166	1	-2
606.355	1	13
607.543	1	3
608.731	1	-3
609.919	1	-5
611.107	1	2
612.295	1	2
613.483	1	12
614.671	1	12
615.858	1	8
617.046	1	11
618.234	1	3
619.422	1	2
620.609	1	2
621.797	1	2
622.985	1	9
624.172	1	12
625.360	1	-1
626.547	1	8
627.735	1	6
628.922	1	-1
630.109	1	0
631.297	1	-4
632.484	1	5
633.671	1	5
634.858	1	10
636.045	1	4
637.232	1	13
638.419	1	7
639.606	1	7
640.793	1	13
641.980	1	4
643.167	1	2
644.354	1	-2
645.541	1	-10
646.728	1	1
647.914	1	0
649.101	1	-1
650.288	1	-6
651.474	1	-2
652.661	1	1
653.847	1	1
655.034	1	4
656.220	1	5
657.406	1	2
658.593	1	-4
659.779	1	-10
660.965	1	3
662.152	1	-3
663.338	1	-6
664.524	1	-2
665.710	1	2
666.896	1	-10
668.082	1	10
669.268	1	-2
670.454	1	8
671.640	1	-20
672.826	1	-13
674.011	1	7
675.197	1	1
676.383	1	3
677.569	1	-1
678.754	1	-1
679.940	1	-1
681.125	1	7
682.311	1	2
683.496	1	-7
684.682	1	11
685.867	1	1
687.053	1	6
688.238	1	1
688.746	1	7