File: Analysis/GaN_68K_200ms/GaN_sample E_spot4_UVVIS_68 K_200um_200 ms 2x2mm1_224.txt
340.368	1	6
341.565	1	-5
342.763	1	2
343.960	1	6
345.157	1	13
346.354	1	5
347.552	1	7
348.749	1	3
349.946	1	8
351.143	1	2
352.340	1	7
353.537	1	1
354.734	1	0
355.931	1	9
357.127	1	10
358.324	1	4
359.521	1	1
360.718	1	-3
361.914	1	8
363.111	1	10
364.308	1	6
365.504	1	5
366.701	1	10
367.897	1	16
369.093	1	14
370.290	1	3
371.486	1	20
372.682	1	-1
373.879	1	8
375.075	1	20
376.271	1	6
377.467	1	8
378.663	1	6
379.859	1	3
381.055	1	3
382.251	1	9
383.447	1	22
384.643	1	16
385.839	1	25
387.035	1	20
388.230	1	16
389.426	1	16
390.622	1	9
391.817	1	13
393.013	1	26
394.208	1	30
395.404	1	14
396.599	1	21
397.795	1	20
398.990	1	13
400.186	1	18
401.381	1	14
402.576	1	25
403.771	1	16
404.967	1	20
406.162	1	5
407.357	1	18
408.552	1	7
409.747	1	12
410.942	1	16
412.137	1	15
413.332	1	8
414.526	1	10
415.721	1	7
416.916	1	10
418.111	1	9
419.305	1	7
420.500	1	9
421.695	1	9
422.889	1	9
424.084	1	10
425.278	1	9
426.472	1	10
427.667	1	13
428.861	1	2
430.055	1	9
431.250	1	7
432.444	1	16
433.638	1	5
434.832	1	3
436.026	1	8
437.220	1	20
438.414	1	3
439.608	1	12
440.802	1	12
441.996	1	0
443.190	1	-8
444.384	1	8
445.578	1	15
446.771	1	0
447.965	1	4
449.159	1	4
450.352	1	8
451.546	1	4
452.739	1	0
453.933	1	9
455.126	1	-1
456.320	1	11
457.513	1	10
458.706	1	-5
459.899	1	14
461.093	1	0
462.286	1	19
463.479	1	8
464.672	1	-4
465.865	1	4
467.058	1	14
468.251	1	-2
469.444	1	3
470.637	1	24
471.830	1	18
473.023	1	-1
474.215	1	5
475.408	1	10
476.601	1	1
477.793	1	2
478.986	1	4
480.179	1	7
481.371	1	4
482.564	1	-10
483.756	1	10
484.948	1	8
486.141	1	2
487.333	1	9
488.525	1	-2
489.718	1	-3
490.910	1	4
492.102	1	10
493.294	1	16
494.486	1	11
495.678	1	8
496.870	1	7
498.062	1	8
499.254	1	7
500.446	1	17
501.638	1	-2
502.829	1	-2
504.021	1	16
505.213	1	11
506.404	1	3
507.596	1	12
508.788	1	10
509.979	1	1
511.171	1	15
512.362	1	9
513.553	1	11
514.745	1	8
515.936	1	16
517.127	1	8
518.319	1	5
519.510	1	6
520.701	1	11
521.892	1	2
523.083	1	8
524.274	1	5
525.465	1	17
526.656	1	24
527.847	1	14
529.038	1	17
530.229	1	5
531.419	1	19
532.610	1	17
533.801	1	16
534.991	1	14
536.182	1	9
537.373	1	9
538.563	1	16
539.754	1	10
540.944	1	6
542.134	1	18
543.325	1	9
544.515	1	10
545.705	1	21
546.896	1	12
548.086	1	7
549.276	1	16
550.466	1	9
551.656	1	6
552.846	1	16
554.036	1	12
555.226	1	3
556.416	1	0
557.606	1	6
558.796	1	11
559.986	1	6
561.175	1	7
562.365	1	13
563.555	1	17
564.744	1	8
565.934	1	12
567.123	1	24
568.313	1	1
569.502	1	6
570.692	1	6
571.881	1	9
573.070	1	5
574.260	1	1
575.449	1	8
576.638	1	12
577.827	1	8
579.016	1	18
580.205	1	4
581.394	1	5
582.583	1	-1
583.772	1	3
584.961	1	7
586.150	1	5
587.339	1	6
588.528	1	5
589.717	1	0
590.905	1	3
592.094	1	6
593.283	1	7
594.471	1	6
595.660	1	2
596.848	1	20
598.037	1	2
599.225	1	3
600.413	1	3
601.602	1	15
602.790	1	-4
603.978	1	3
605.166	1	-3
606.355	1	11
607.543	1	-1
608.731	1	-5
609.919	1	1
611.107	1	14
612.295	1	8
613.483	1	13
614.671	1	8
615.858	1	6
617.046	1	0
618.234	1	5
619.422	1	2
620.609	1	9
621.797	1	-3
622.985	1	6
624.172	1	14
625.360	1	-2
626.547	1	14
627.735	1	2
628.922	1	0
630.109	1	-1
631.297	1	-5
632.484	1	-3
633.671	1	6
634.858	1	14
636.045	1	2
637.232	1	6
638.419	1	15
639.606	1	17
640.793	1	8
641.980	1	0
643.167	1	14
644.354	1	8
645.541	1	-6
646.728	1	11
647.914	1	2
649.101	1	2
650.288	1	-6
651.474	1	5
652.661	1	-3
653.847	1	7
655.034	1	4
656.220	1	14
657.406	1	16
658.593	1	-2
659.779	1	6
660.965	1	2
662.152	1	-4
663.338	1	-3
664.524	1	-8
665.710	1	-3
666.896	1	1
668.082	1	3
669.268	1	2
670.454	1	-2
671.640	1	-10
672.826	1	-8
674.011	1	7
675.197	1	-10
676.383	1	0
677.569	1	9
678.754	1	3
679.940	1	2
681.125	1	6
682.311	1	3
683.496	1	5
684.682	1	10
685.867	1	17
687.053	1	14
688.238	1	-1
688.746	1	5