File: Analysis/GaN_68K_200ms/GaN_sample E_spot4_UVVIS_68 K_200um_200 ms 2x2mm1_256.txt
340.368	1	-7
341.565	1	-2
342.763	1	0
343.960	1	-4
345.157	1	7
346.354	1	-8
347.552	1	9
348.749	1	11
349.946	1	13
351.143	1	-5
352.340	1	4
353.537	1	-2
354.734	1	4
355.931	1	3
357.127	1	-1
358.324	1	3
359.521	1	-3
360.718	1	-5
361.914	1	3
363.111	1	18
364.308	1	0
365.504	1	12
366.701	1	6
367.897	1	7
369.093	1	17
370.290	1	1
371.486	1	21
372.682	1	11
373.879	1	5
375.075	1	16
376.271	1	2
377.467	1	0
378.663	1	3
379.859	1	8
381.055	1	14
382.251	1	13
383.447	1	14
384.643	1	11
385.839	1	16
387.035	1	10
388.230	1	6
389.426	1	21
390.622	1	13
391.817	1	-2
393.013	1	19
394.208	1	16
395.404	1	14
396.599	1	7
397.795	1	18
398.990	1	17
400.186	1	20
401.381	1	13
402.576	1	17
403.771	1	15
404.967	1	7
406.162	1	10
407.357	1	19
408.552	1	9
409.747	1	2
410.942	1	7
412.137	1	12
413.332	1	6
414.526	1	19
415.721	1	9
416.916	1	5
418.111	1	6
419.305	1	7
420.500	1	8
421.695	1	1
422.889	1	6
424.084	1	12
425.278	1	-4
426.472	1	8
427.667	1	4
428.861	1	4
430.055	1	7
431.250	1	-6
432.444	1	13
433.638	1	6
434.832	1	1
436.026	1	5
437.220	1	8
438.414	1	7
439.608	1	5
440.802	1	0
441.996	1	3
443.190	1	-7
444.384	1	9
445.578	1	10
446.771	1	10
447.965	1	-4
449.159	1	-4
450.352	1	11
451.546	1	0
452.739	1	2
453.933	1	10
455.126	1	1
456.320	1	2
457.513	1	13
458.706	1	1
459.899	1	5
461.093	1	8
462.286	1	14
463.479	1	12
464.672	1	-2
465.865	1	6
467.058	1	6
468.251	1	1
469.444	1	9
470.637	1	21
471.830	1	14
473.023	1	1
474.215	1	-1
475.408	1	4
476.601	1	7
477.793	1	8
478.986	1	-1
480.179	1	7
481.371	1	6
482.564	1	-5
483.756	1	13
484.948	1	3
486.141	1	-4
487.333	1	-3
488.525	1	3
489.718	1	-2
490.910	1	3
492.102	1	1
493.294	1	7
494.486	1	7
495.678	1	6
496.870	1	5
498.062	1	6
499.254	1	13
500.446	1	15
501.638	1	9
502.829	1	4
504.021	1	27
505.213	1	0
506.404	1	1
507.596	1	9
508.788	1	2
509.979	1	11
511.171	1	17
512.362	1	9
513.553	1	-1
514.745	1	6
515.936	1	13
517.127	1	13
518.319	1	1
519.510	1	9
520.701	1	11
521.892	1	9
523.083	1	5
524.274	1	-5
525.465	1	15
526.656	1	14
527.847	1	-1
529.038	1	12
530.229	1	11
531.419	1	17
532.610	1	7
533.801	1	8
534.991	1	4
536.182	1	6
537.373	1	9
538.563	1	1
539.754	1	6
540.944	1	7
542.134	1	13
543.325	1	9
544.515	1	5
545.705	1	16
546.896	1	4
548.086	1	10
549.276	1	15
550.466	1	9
551.656	1	-1
552.846	1	9
554.036	1	4
555.226	1	-1
556.416	1	9
557.606	1	1
558.796	1	8
559.986	1	0
561.175	1	4
562.365	1	7
563.555	1	18
564.744	1	12
565.934	1	10
567.123	1	26
568.313	1	3
569.502	1	2
570.692	1	7
571.881	1	12
573.070	1	6
574.260	1	0
575.449	1	11
576.638	1	0
577.827	1	13
579.016	1	21
580.205	1	0
581.394	1	-4
582.583	1	8
583.772	1	10
584.961	1	2
586.150	1	5
587.339	1	9
588.528	1	9
589.717	1	5
590.905	1	7
592.094	1	6
593.283	1	5
594.471	1	11
595.660	1	0
596.848	1	16
598.037	1	1
599.225	1	3
600.413	1	0
601.602	1	5
602.790	1	-1
603.978	1	-2
605.166	1	-2
606.355	1	11
607.543	1	-3
608.731	1	-5
609.919	1	1
611.107	1	11
612.295	1	6
613.483	1	6
614.671	1	10
615.858	1	14
617.046	1	9
618.234	1	5
619.422	1	9
620.609	1	6
621.797	1	2
622.985	1	8
624.172	1	14
625.360	1	-4
626.547	1	2
627.735	1	12
628.922	1	0
630.109	1	8
631.297	1	2
632.484	1	6
633.671	1	-1
634.858	1	4
636.045	1	5
637.232	1	-3
638.419	1	9
639.606	1	12
640.793	1	14
641.980	1	1
643.167	1	11
644.354	1	-5
645.541	1	0
646.728	1	6
647.914	1	2
649.101	1	4
650.288	1	6
651.474	1	9
652.661	1	2
653.847	1	7
655.034	1	8
656.220	1	7
657.406	1	1
658.593	1	0
659.779	1	3
660.965	1	-6
662.152	1	8
663.338	1	-6
664.524	1	-13
665.710	1	1
666.896	1	5
668.082	1	-4
669.268	1	1
670.454	1	2
671.640	1	-10
672.826	1	-11
674.011	1	7
675.197	1	2
676.383	1	-8
677.569	1	-8
678.754	1	-6
679.940	1	5
681.125	1	10
682.311	1	7
683.496	1	1
684.682	1	7
685.867	1	3
687.053	1	7
688.238	1	6
688.746	1	-1