File: Analysis/GaN_68K_200ms/GaN_sample E_spot4_UVVIS_68 K_200um_200 ms 2x2mm1_443.txt
340.368	1	1
341.565	1	-5
342.763	1	1
343.960	1	4
345.157	1	4
346.354	1	0
347.552	1	7
348.749	1	10
349.946	1	-2
351.143	1	-6
352.340	1	1
353.537	1	2
354.734	1	2
355.931	1	6
357.127	1	-7
358.324	1	3
359.521	1	4
360.718	1	-5
361.914	1	4
363.111	1	5
364.308	1	5
365.504	1	-5
366.701	1	1
367.897	1	1
369.093	1	6
370.290	1	-3
371.486	1	13
372.682	1	-2
373.879	1	9
375.075	1	-4
376.271	1	2
377.467	1	0
378.663	1	1
379.859	1	-5
381.055	1	-2
382.251	1	7
383.447	1	11
384.643	1	1
385.839	1	9
387.035	1	9
388.230	1	9
389.426	1	10
390.622	1	-2
391.817	1	-4
393.013	1	9
394.208	1	3
395.404	1	5
396.599	1	6
397.795	1	1
398.990	1	9
400.186	1	12
401.381	1	12
402.576	1	10
403.771	1	2
404.967	1	12
406.162	1	5
407.357	1	7
408.552	1	-1
409.747	1	-4
410.942	1	9
412.137	1	9
413.332	1	-10
414.526	1	6
415.721	1	8
416.916	1	2
418.111	1	4
419.305	1	-1
420.500	1	6
421.695	1	2
422.889	1	10
424.084	1	0
425.278	1	0
426.472	1	2
427.667	1	7
428.861	1	0
430.055	1	7
431.250	1	-17
432.444	1	7
433.638	1	4
434.832	1	-3
436.026	1	1
437.220	1	7
438.414	1	2
439.608	1	5
440.802	1	-4
441.996	1	2
443.190	1	-2
444.384	1	2
445.578	1	14
446.771	1	0
447.965	1	-12
449.159	1	-3
450.352	1	12
451.546	1	7
452.739	1	0
453.933	1	3
455.126	1	4
456.320	1	7
457.513	1	12
458.706	1	8
459.899	1	16
461.093	1	8
462.286	1	9
463.479	1	6
464.672	1	1
465.865	1	-3
467.058	1	11
468.251	1	-5
469.444	1	2
470.637	1	9
471.830	1	11
473.023	1	-2
474.215	1	-1
475.408	1	6
476.601	1	3
477.793	1	10
478.986	1	0
480.179	1	-4
481.371	1	0
482.564	1	3
483.756	1	3
484.948	1	-2
486.141	1	-7
487.333	1	-3
488.525	1	2
489.718	1	-4
490.910	1	-2
492.102	1	-1
493.294	1	9
494.486	1	1
495.678	1	15
496.870	1	2
498.062	1	-4
499.254	1	5
500.446	1	9
501.638	1	-1
502.829	1	4
504.021	1	7
505.213	1	-7
506.404	1	-5
507.596	1	9
508.788	1	4
509.979	1	-7
511.171	1	14
512.362	1	3
513.553	1	-7
514.745	1	3
515.936	1	3
517.127	1	6
518.319	1	1
519.510	1	-5
520.701	1	5
521.892	1	0
523.083	1	9
524.274	1	0
525.465	1	0
526.656	1	11
527.847	1	-3
529.038	1	6
530.229	1	5
531.419	1	8
532.610	1	2
533.801	1	5
534.991	1	-2
536.182	1	4
537.373	1	-8
538.563	1	4
539.754	1	-6
540.944	1	-7
542.134	1	17
543.325	1	-5
544.515	1	1
545.705	1	-2
546.896	1	1
548.086	1	8
549.276	1	10
550.466	1	0
551.656	1	-3
552.846	1	4
554.036	1	7
555.226	1	-4
556.416	1	4
557.606	1	-5
558.796	1	1
559.986	1	-6
561.175	1	2
562.365	1	6
563.555	1	15
564.744	1	0
565.934	1	0
567.123	1	14
568.313	1	-1
569.502	1	3
570.692	1	8
571.881	1	5
573.070	1	-1
574.260	1	-1
575.449	1	1
576.638	1	4
577.827	1	6
579.016	1	11
580.205	1	-7
581.394	1	-12
582.583	1	-6
583.772	1	7
584.961	1	0
586.150	1	-1
587.339	1	-3
588.528	1	1
589.717	1	-2
590.905	1	5
592.094	1	1
593.283	1	7
594.471	1	12
595.660	1	-2
596.848	1	11
598.037	1	3
599.225	1	5
600.413	1	1
601.602	1	14
602.790	1	-1
603.978	1	0
605.166	1	-6
606.355	1	4
607.543	1	0
608.731	1	-3
609.919	1	-5
611.107	1	0
612.295	1	-6
613.483	1	6
614.671	1	5
615.858	1	-1
617.046	1	1
618.234	1	4
619.422	1	10
620.609	1	3
621.797	1	2
622.985	1	1
624.172	1	1
625.360	1	0
626.547	1	8
627.735	1	6
628.922	1	-7
630.109	1	3
631.297	1	-2
632.484	1	-1
633.671	1	0
634.858	1	1
636.045	1	9
637.232	1	-7
638.419	1	13
639.606	1	9
640.793	1	8
641.980	1	-3
643.167	1	8
644.354	1	-3
645.541	1	-5
646.728	1	2
647.914	1	-1
649.101	1	0
650.288	1	-4
651.474	1	6
652.661	1	10
653.847	1	5
655.034	1	-3
656.220	1	9
657.406	1	10
658.593	1	-13
659.779	1	-1
660.965	1	-1
662.152	1	9
663.338	1	2
664.524	1	-15
665.710	1	-9
666.896	1	2
668.082	1	-1
669.268	1	6
670.454	1	6
671.640	1	-6
672.826	1	-14
674.011	1	5
675.197	1	-4
676.383	1	4
677.569	1	-3
678.754	1	-4
679.940	1	-3
681.125	1	8
682.311	1	-5
683.496	1	1
684.682	1	6
685.867	1	7
687.053	1	0
688.238	1	3
688.746	1	14