File: Analysis/GaN_68K_200ms/GaN_sample E_spot4_UVVIS_68 K_200um_200 ms 2x2mm1_809.txt
340.368	1	-1
341.565	1	-7
342.763	1	-6
343.960	1	-2
345.157	1	8
346.354	1	-1
347.552	1	-1
348.749	1	0
349.946	1	1
351.143	1	1
352.340	1	-6
353.537	1	-3
354.734	1	0
355.931	1	-2
357.127	1	0
358.324	1	-2
359.521	1	2
360.718	1	-3
361.914	1	-9
363.111	1	7
364.308	1	-1
365.504	1	-6
366.701	1	-20
367.897	1	-4
369.093	1	1
370.290	1	-2
371.486	1	2
372.682	1	-9
373.879	1	10
375.075	1	2
376.271	1	-4
377.467	1	-12
378.663	1	-2
379.859	1	-5
381.055	1	-2
382.251	1	2
383.447	1	4
384.643	1	7
385.839	1	9
387.035	1	-4
388.230	1	-4
389.426	1	0
390.622	1	-7
391.817	1	-3
393.013	1	12
394.208	1	13
395.404	1	14
396.599	1	-2
397.795	1	1
398.990	1	3
400.186	1	12
401.381	1	6
402.576	1	6
403.771	1	-7
404.967	1	5
406.162	1	-5
407.357	1	7
408.552	1	7
409.747	1	-8
410.942	1	3
412.137	1	7
413.332	1	-7
414.526	1	1
415.721	1	0
416.916	1	-4
418.111	1	2
419.305	1	2
420.500	1	1
421.695	1	0
422.889	1	1
424.084	1	-3
425.278	1	-7
426.472	1	2
427.667	1	4
428.861	1	0
430.055	1	0
431.250	1	-5
432.444	1	1
433.638	1	6
434.832	1	-10
436.026	1	0
437.220	1	5
438.414	1	1
439.608	1	-3
440.802	1	3
441.996	1	-3
443.190	1	-5
444.384	1	0
445.578	1	10
446.771	1	-10
447.965	1	-13
449.159	1	-7
450.352	1	-2
451.546	1	2
452.739	1	5
453.933	1	-4
455.126	1	-6
456.320	1	3
457.513	1	7
458.706	1	6
459.899	1	11
461.093	1	4
462.286	1	6
463.479	1	7
464.672	1	0
465.865	1	-7
467.058	1	9
468.251	1	1
469.444	1	-4
470.637	1	10
471.830	1	16
473.023	1	-6
474.215	1	-7
475.408	1	3
476.601	1	0
477.793	1	2
478.986	1	4
480.179	1	2
481.371	1	2
482.564	1	-8
483.756	1	5
484.948	1	-4
486.141	1	-15
487.333	1	11
488.525	1	-1
489.718	1	-13
490.910	1	-5
492.102	1	-2
493.294	1	7
494.486	1	4
495.678	1	4
496.870	1	-7
498.062	1	2
499.254	1	0
500.446	1	10
501.638	1	-5
502.829	1	5
504.021	1	15
505.213	1	-2
506.404	1	-9
507.596	1	3
508.788	1	-4
509.979	1	0
511.171	1	9
512.362	1	3
513.553	1	-6
514.745	1	-10
515.936	1	3
517.127	1	5
518.319	1	10
519.510	1	1
520.701	1	3
521.892	1	-12
523.083	1	-5
524.274	1	-1
525.465	1	2
526.656	1	17
527.847	1	-7
529.038	1	5
530.229	1	-2
531.419	1	1
532.610	1	-3
533.801	1	8
534.991	1	-4
536.182	1	3
537.373	1	1
538.563	1	-11
539.754	1	0
540.944	1	-2
542.134	1	11
543.325	1	1
544.515	1	-3
545.705	1	7
546.896	1	-7
548.086	1	5
549.276	1	4
550.466	1	-5
551.656	1	-2
552.846	1	-1
554.036	1	0
555.226	1	-13
556.416	1	4
557.606	1	-11
558.796	1	-5
559.986	1	-8
561.175	1	7
562.365	1	-4
563.555	1	3
564.744	1	-1
565.934	1	5
567.123	1	14
568.313	1	-1
569.502	1	-3
570.692	1	0
571.881	1	1
573.070	1	9
574.260	1	-7
575.449	1	6
576.638	1	9
577.827	1	9
579.016	1	15
580.205	1	8
581.394	1	-4
582.583	1	-3
583.772	1	-5
584.961	1	-3
586.150	1	2
587.339	1	2
588.528	1	-2
589.717	1	6
590.905	1	7
592.094	1	3
593.283	1	1
594.471	1	2
595.660	1	-6
596.848	1	2
598.037	1	4
599.225	1	-8
600.413	1	1
601.602	1	13
602.790	1	-2
603.978	1	-5
605.166	1	-10
606.355	1	-4
607.543	1	-9
608.731	1	-11
609.919	1	-8
611.107	1	-1
612.295	1	-2
613.483	1	6
614.671	1	-3
615.858	1	4
617.046	1	6
618.234	1	0
619.422	1	3
620.609	1	0
621.797	1	1
622.985	1	2
624.172	1	9
625.360	1	-10
626.547	1	6
627.735	1	2
628.922	1	-4
630.109	1	-10
631.297	1	-6
632.484	1	-6
633.671	1	-2
634.858	1	5
636.045	1	5
637.232	1	-1
638.419	1	8
639.606	1	16
640.793	1	6
641.980	1	-2
643.167	1	5
644.354	1	-2
645.541	1	-7
646.728	1	4
647.914	1	-5
649.101	1	1
650.288	1	-7
651.474	1	-6
652.661	1	1
653.847	1	-1
655.034	1	4
656.220	1	15
657.406	1	-2
658.593	1	-6
659.779	1	-10
660.965	1	-6
662.152	1	4
663.338	1	4
664.524	1	1
665.710	1	4
666.896	1	-1
668.082	1	4
669.268	1	-1
670.454	1	-6
671.640	1	-8
672.826	1	-21
674.011	1	8
675.197	1	-4
676.383	1	-4
677.569	1	-7
678.754	1	-5
679.940	1	5
681.125	1	4
682.311	1	0
683.496	1	-6
684.682	1	7
685.867	1	-2
687.053	1	4
688.238	1	-1
688.746	1	5