File: Analysis/GaN_68K_200ms/GaN_sample E_spot4_UVVIS_68 K_200um_200 ms 2x2mm1_139.txt
340.368	1	-1
341.565	1	-11
342.763	1	4
343.960	1	3
345.157	1	8
346.354	1	1
347.552	1	7
348.749	1	17
349.946	1	13
351.143	1	0
352.340	1	6
353.537	1	4
354.734	1	13
355.931	1	13
357.127	1	13
358.324	1	21
359.521	1	19
360.718	1	22
361.914	1	30
363.111	1	57
364.308	1	61
365.504	1	79
366.701	1	104
367.897	1	109
369.093	1	104
370.290	1	85
371.486	1	75
372.682	1	50
373.879	1	63
375.075	1	51
376.271	1	41
377.467	1	39
378.663	1	40
379.859	1	33
381.055	1	42
382.251	1	60
383.447	1	85
384.643	1	98
385.839	1	131
387.035	1	136
388.230	1	118
389.426	1	128
390.622	1	121
391.817	1	120
393.013	1	109
394.208	1	113
395.404	1	118
396.599	1	114
397.795	1	124
398.990	1	121
400.186	1	118
401.381	1	107
402.576	1	89
403.771	1	79
404.967	1	87
406.162	1	84
407.357	1	77
408.552	1	74
409.747	1	80
410.942	1	65
412.137	1	81
413.332	1	49
414.526	1	60
415.721	1	51
416.916	1	50
418.111	1	52
419.305	1	46
420.500	1	42
421.695	1	42
422.889	1	37
424.084	1	45
425.278	1	32
426.472	1	33
427.667	1	34
428.861	1	30
430.055	1	25
431.250	1	10
432.444	1	34
433.638	1	22
434.832	1	13
436.026	1	18
437.220	1	31
438.414	1	20
439.608	1	8
440.802	1	26
441.996	1	15
443.190	1	1
444.384	1	24
445.578	1	27
446.771	1	15
447.965	1	2
449.159	1	7
450.352	1	25
451.546	1	11
452.739	1	5
453.933	1	17
455.126	1	8
456.320	1	15
457.513	1	18
458.706	1	4
459.899	1	15
461.093	1	20
462.286	1	17
463.479	1	12
464.672	1	12
465.865	1	6
467.058	1	25
468.251	1	12
469.444	1	6
470.637	1	13
471.830	1	30
473.023	1	12
474.215	1	0
475.408	1	15
476.601	1	12
477.793	1	18
478.986	1	12
480.179	1	13
481.371	1	24
482.564	1	10
483.756	1	22
484.948	1	18
486.141	1	8
487.333	1	21
488.525	1	7
489.718	1	15
490.910	1	11
492.102	1	23
493.294	1	30
494.486	1	19
495.678	1	20
496.870	1	20
498.062	1	22
499.254	1	29
500.446	1	22
501.638	1	34
502.829	1	45
504.021	1	45
505.213	1	36
506.404	1	44
507.596	1	50
508.788	1	36
509.979	1	48
511.171	1	66
512.362	1	56
513.553	1	52
514.745	1	60
515.936	1	71
517.127	1	63
518.319	1	66
519.510	1	73
520.701	1	66
521.892	1	62
523.083	1	68
524.274	1	63
525.465	1	69
526.656	1	95
527.847	1	67
529.038	1	82
530.229	1	75
531.419	1	90
532.610	1	82
533.801	1	86
534.991	1	84
536.182	1	75
537.373	1	89
538.563	1	76
539.754	1	70
540.944	1	77
542.134	1	85
543.325	1	74
544.515	1	61
545.705	1	71
546.896	1	72
548.086	1	72
549.276	1	74
550.466	1	62
551.656	1	59
552.846	1	63
554.036	1	61
555.226	1	55
556.416	1	53
557.606	1	48
558.796	1	57
559.986	1	51
561.175	1	41
562.365	1	42
563.555	1	48
564.744	1	55
565.934	1	50
567.123	1	58
568.313	1	35
569.502	1	41
570.692	1	37
571.881	1	34
573.070	1	33
574.260	1	30
575.449	1	34
576.638	1	30
577.827	1	35
579.016	1	52
580.205	1	26
581.394	1	17
582.583	1	15
583.772	1	13
584.961	1	17
586.150	1	26
587.339	1	22
588.528	1	27
589.717	1	28
590.905	1	18
592.094	1	29
593.283	1	23
594.471	1	18
595.660	1	16
596.848	1	22
598.037	1	17
599.225	1	25
600.413	1	17
601.602	1	19
602.790	1	20
603.978	1	19
605.166	1	9
606.355	1	21
607.543	1	2
608.731	1	5
609.919	1	14
611.107	1	14
612.295	1	16
613.483	1	16
614.671	1	7
615.858	1	12
617.046	1	14
618.234	1	14
619.422	1	15
620.609	1	23
621.797	1	15
622.985	1	16
624.172	1	29
625.360	1	4
626.547	1	13
627.735	1	15
628.922	1	1
630.109	1	5
631.297	1	12
632.484	1	15
633.671	1	4
634.858	1	15
636.045	1	5
637.232	1	5
638.419	1	12
639.606	1	11
640.793	1	15
641.980	1	-1
643.167	1	7
644.354	1	7
645.541	1	6
646.728	1	15
647.914	1	-3
649.101	1	3
650.288	1	9
651.474	1	15
652.661	1	15
653.847	1	14
655.034	1	12
656.220	1	10
657.406	1	9
658.593	1	-2
659.779	1	2
660.965	1	7
662.152	1	2
663.338	1	4
664.524	1	-6
665.710	1	1
666.896	1	9
668.082	1	-1
669.268	1	8
670.454	1	2
671.640	1	-1
672.826	1	1
674.011	1	8
675.197	1	-2
676.383	1	4
677.569	1	1
678.754	1	1
679.940	1	-1
681.125	1	4
682.311	1	15
683.496	1	4
684.682	1	18
685.867	1	16
687.053	1	11
688.238	1	11
688.746	1	14