File: Analysis/GaN_68K_200ms/GaN_sample E_spot4_UVVIS_68 K_200um_200 ms 2x2mm1_431.txt
340.368	1	-1
341.565	1	-7
342.763	1	7
343.960	1	-5
345.157	1	6
346.354	1	-6
347.552	1	4
348.749	1	-1
349.946	1	14
351.143	1	-6
352.340	1	0
353.537	1	-3
354.734	1	-2
355.931	1	6
357.127	1	3
358.324	1	3
359.521	1	-4
360.718	1	-12
361.914	1	3
363.111	1	14
364.308	1	0
365.504	1	-4
366.701	1	-2
367.897	1	9
369.093	1	9
370.290	1	1
371.486	1	14
372.682	1	-1
373.879	1	12
375.075	1	1
376.271	1	-9
377.467	1	-4
378.663	1	-2
379.859	1	2
381.055	1	2
382.251	1	0
383.447	1	12
384.643	1	8
385.839	1	9
387.035	1	7
388.230	1	4
389.426	1	9
390.622	1	-3
391.817	1	5
393.013	1	9
394.208	1	15
395.404	1	5
396.599	1	14
397.795	1	12
398.990	1	8
400.186	1	9
401.381	1	12
402.576	1	11
403.771	1	-3
404.967	1	5
406.162	1	-1
407.357	1	6
408.552	1	7
409.747	1	-3
410.942	1	8
412.137	1	6
413.332	1	1
414.526	1	7
415.721	1	3
416.916	1	-1
418.111	1	-1
419.305	1	1
420.500	1	5
421.695	1	3
422.889	1	11
424.084	1	8
425.278	1	-9
426.472	1	-7
427.667	1	3
428.861	1	3
430.055	1	8
431.250	1	-4
432.444	1	7
433.638	1	-3
434.832	1	-9
436.026	1	-3
437.220	1	13
438.414	1	-6
439.608	1	3
440.802	1	9
441.996	1	-1
443.190	1	-4
444.384	1	-2
445.578	1	14
446.771	1	-8
447.965	1	-8
449.159	1	4
450.352	1	-6
451.546	1	9
452.739	1	9
453.933	1	11
455.126	1	-6
456.320	1	-1
457.513	1	7
458.706	1	7
459.899	1	10
461.093	1	1
462.286	1	16
463.479	1	12
464.672	1	3
465.865	1	-14
467.058	1	19
468.251	1	1
469.444	1	-2
470.637	1	11
471.830	1	15
473.023	1	0
474.215	1	-5
475.408	1	8
476.601	1	-2
477.793	1	9
478.986	1	3
480.179	1	4
481.371	1	9
482.564	1	-11
483.756	1	9
484.948	1	-3
486.141	1	-6
487.333	1	3
488.525	1	0
489.718	1	3
490.910	1	-6
492.102	1	-2
493.294	1	8
494.486	1	3
495.678	1	10
496.870	1	-9
498.062	1	-8
499.254	1	6
500.446	1	10
501.638	1	7
502.829	1	7
504.021	1	21
505.213	1	4
506.404	1	-6
507.596	1	1
508.788	1	6
509.979	1	-1
511.171	1	15
512.362	1	4
513.553	1	-10
514.745	1	4
515.936	1	11
517.127	1	0
518.319	1	-4
519.510	1	-6
520.701	1	-2
521.892	1	-10
523.083	1	-4
524.274	1	-6
525.465	1	1
526.656	1	16
527.847	1	-3
529.038	1	12
530.229	1	11
531.419	1	9
532.610	1	11
533.801	1	7
534.991	1	2
536.182	1	0
537.373	1	-10
538.563	1	4
539.754	1	-2
540.944	1	0
542.134	1	11
543.325	1	2
544.515	1	-1
545.705	1	5
546.896	1	0
548.086	1	4
549.276	1	8
550.466	1	0
551.656	1	-7
552.846	1	11
554.036	1	2
555.226	1	-2
556.416	1	5
557.606	1	-9
558.796	1	0
559.986	1	-9
561.175	1	-5
562.365	1	3
563.555	1	11
564.744	1	5
565.934	1	11
567.123	1	22
568.313	1	0
569.502	1	6
570.692	1	4
571.881	1	10
573.070	1	4
574.260	1	2
575.449	1	2
576.638	1	10
577.827	1	13
579.016	1	8
580.205	1	6
581.394	1	2
582.583	1	-6
583.772	1	5
584.961	1	1
586.150	1	-3
587.339	1	7
588.528	1	6
589.717	1	7
590.905	1	5
592.094	1	0
593.283	1	10
594.471	1	1
595.660	1	-5
596.848	1	13
598.037	1	1
599.225	1	-3
600.413	1	-5
601.602	1	8
602.790	1	1
603.978	1	4
605.166	1	-1
606.355	1	7
607.543	1	-7
608.731	1	0
609.919	1	-2
611.107	1	10
612.295	1	-6
613.483	1	4
614.671	1	7
615.858	1	7
617.046	1	8
618.234	1	-3
619.422	1	4
620.609	1	-1
621.797	1	-4
622.985	1	6
624.172	1	8
625.360	1	-5
626.547	1	4
627.735	1	12
628.922	1	-4
630.109	1	-5
631.297	1	-5
632.484	1	1
633.671	1	6
634.858	1	10
636.045	1	13
637.232	1	0
638.419	1	9
639.606	1	4
640.793	1	14
641.980	1	0
643.167	1	7
644.354	1	2
645.541	1	-4
646.728	1	2
647.914	1	-5
649.101	1	2
650.288	1	-3
651.474	1	2
652.661	1	4
653.847	1	7
655.034	1	10
656.220	1	13
657.406	1	5
658.593	1	-3
659.779	1	2
660.965	1	1
662.152	1	1
663.338	1	-1
664.524	1	1
665.710	1	-5
666.896	1	4
668.082	1	-3
669.268	1	-2
670.454	1	-6
671.640	1	-6
672.826	1	-14
674.011	1	4
675.197	1	1
676.383	1	-8
677.569	1	-2
678.754	1	-5
679.940	1	-7
681.125	1	3
682.311	1	3
683.496	1	-7
684.682	1	7
685.867	1	4
687.053	1	4
688.238	1	0
688.746	1	4