File: Analysis/GaN_68K_200ms/GaN_sample E_spot4_UVVIS_68 K_200um_200 ms 2x2mm1_195.txt
340.368	1	4
341.565	1	-5
342.763	1	1
343.960	1	-3
345.157	1	1
346.354	1	4
347.552	1	7
348.749	1	5
349.946	1	13
351.143	1	0
352.340	1	3
353.537	1	11
354.734	1	1
355.931	1	0
357.127	1	11
358.324	1	12
359.521	1	1
360.718	1	2
361.914	1	7
363.111	1	25
364.308	1	11
365.504	1	21
366.701	1	18
367.897	1	23
369.093	1	30
370.290	1	23
371.486	1	27
372.682	1	10
373.879	1	20
375.075	1	25
376.271	1	4
377.467	1	9
378.663	1	5
379.859	1	-1
381.055	1	10
382.251	1	17
383.447	1	27
384.643	1	25
385.839	1	31
387.035	1	25
388.230	1	28
389.426	1	39
390.622	1	16
391.817	1	29
393.013	1	33
394.208	1	37
395.404	1	25
396.599	1	27
397.795	1	26
398.990	1	38
400.186	1	31
401.381	1	20
402.576	1	32
403.771	1	23
404.967	1	22
406.162	1	14
407.357	1	20
408.552	1	25
409.747	1	16
410.942	1	13
412.137	1	23
413.332	1	13
414.526	1	18
415.721	1	13
416.916	1	17
418.111	1	18
419.305	1	7
420.500	1	11
421.695	1	14
422.889	1	20
424.084	1	13
425.278	1	9
426.472	1	8
427.667	1	17
428.861	1	14
430.055	1	14
431.250	1	1
432.444	1	8
433.638	1	11
434.832	1	14
436.026	1	17
437.220	1	13
438.414	1	15
439.608	1	6
440.802	1	15
441.996	1	0
443.190	1	-2
444.384	1	8
445.578	1	21
446.771	1	11
447.965	1	4
449.159	1	9
450.352	1	15
451.546	1	4
452.739	1	2
453.933	1	14
455.126	1	16
456.320	1	8
457.513	1	20
458.706	1	11
459.899	1	10
461.093	1	15
462.286	1	16
463.479	1	16
464.672	1	4
465.865	1	-2
467.058	1	13
468.251	1	4
469.444	1	-1
470.637	1	11
471.830	1	12
473.023	1	-1
474.215	1	3
475.408	1	10
476.601	1	2
477.793	1	7
478.986	1	-4
480.179	1	8
481.371	1	13
482.564	1	-4
483.756	1	7
484.948	1	2
486.141	1	-4
487.333	1	4
488.525	1	7
489.718	1	6
490.910	1	6
492.102	1	-4
493.294	1	7
494.486	1	7
495.678	1	17
496.870	1	11
498.062	1	9
499.254	1	14
500.446	1	19
501.638	1	6
502.829	1	6
504.021	1	33
505.213	1	9
506.404	1	7
507.596	1	18
508.788	1	15
509.979	1	14
511.171	1	14
512.362	1	15
513.553	1	13
514.745	1	9
515.936	1	29
517.127	1	19
518.319	1	9
519.510	1	20
520.701	1	16
521.892	1	13
523.083	1	11
524.274	1	14
525.465	1	20
526.656	1	36
527.847	1	12
529.038	1	23
530.229	1	25
531.419	1	27
532.610	1	27
533.801	1	17
534.991	1	22
536.182	1	26
537.373	1	14
538.563	1	22
539.754	1	16
540.944	1	15
542.134	1	20
543.325	1	17
544.515	1	14
545.705	1	20
546.896	1	10
548.086	1	21
549.276	1	29
550.466	1	0
551.656	1	8
552.846	1	19
554.036	1	21
555.226	1	9
556.416	1	15
557.606	1	-3
558.796	1	5
559.986	1	1
561.175	1	-1
562.365	1	16
563.555	1	12
564.744	1	18
565.934	1	23
567.123	1	27
568.313	1	8
569.502	1	19
570.692	1	11
571.881	1	18
573.070	1	24
574.260	1	13
575.449	1	10
576.638	1	9
577.827	1	13
579.016	1	16
580.205	1	7
581.394	1	5
582.583	1	11
583.772	1	11
584.961	1	10
586.150	1	-3
587.339	1	9
588.528	1	16
589.717	1	9
590.905	1	12
592.094	1	4
593.283	1	11
594.471	1	9
595.660	1	8
596.848	1	17
598.037	1	13
599.225	1	4
600.413	1	11
601.602	1	16
602.790	1	3
603.978	1	5
605.166	1	4
606.355	1	10
607.543	1	-4
608.731	1	-2
609.919	1	0
611.107	1	9
612.295	1	11
613.483	1	9
614.671	1	7
615.858	1	-1
617.046	1	0
618.234	1	8
619.422	1	4
620.609	1	10
621.797	1	3
622.985	1	14
624.172	1	7
625.360	1	0
626.547	1	6
627.735	1	11
628.922	1	6
630.109	1	3
631.297	1	11
632.484	1	-1
633.671	1	5
634.858	1	13
636.045	1	9
637.232	1	4
638.419	1	7
639.606	1	13
640.793	1	3
641.980	1	5
643.167	1	11
644.354	1	-5
645.541	1	-4
646.728	1	8
647.914	1	-3
649.101	1	5
650.288	1	-3
651.474	1	1
652.661	1	2
653.847	1	-5
655.034	1	4
656.220	1	11
657.406	1	19
658.593	1	-5
659.779	1	4
660.965	1	1
662.152	1	3
663.338	1	-8
664.524	1	-10
665.710	1	10
666.896	1	-7
668.082	1	4
669.268	1	2
670.454	1	10
671.640	1	-3
672.826	1	-10
674.011	1	14
675.197	1	-7
676.383	1	3
677.569	1	-6
678.754	1	8
679.940	1	5
681.125	1	17
682.311	1	2
683.496	1	-2
684.682	1	3
685.867	1	5
687.053	1	9
688.238	1	6
688.746	1	10