File: Analysis/GaN_68K_200ms/GaN_sample E_spot4_UVVIS_68 K_200um_200 ms 2x2mm1_174.txt
340.368	1	6
341.565	1	-3
342.763	1	-1
343.960	1	1
345.157	1	12
346.354	1	5
347.552	1	8
348.749	1	3
349.946	1	16
351.143	1	-8
352.340	1	2
353.537	1	6
354.734	1	1
355.931	1	8
357.127	1	12
358.324	1	13
359.521	1	11
360.718	1	16
361.914	1	3
363.111	1	20
364.308	1	22
365.504	1	31
366.701	1	38
367.897	1	33
369.093	1	16
370.290	1	24
371.486	1	31
372.682	1	14
373.879	1	26
375.075	1	27
376.271	1	18
377.467	1	-1
378.663	1	10
379.859	1	10
381.055	1	13
382.251	1	20
383.447	1	26
384.643	1	30
385.839	1	23
387.035	1	32
388.230	1	43
389.426	1	44
390.622	1	32
391.817	1	34
393.013	1	37
394.208	1	25
395.404	1	41
396.599	1	33
397.795	1	34
398.990	1	33
400.186	1	38
401.381	1	24
402.576	1	26
403.771	1	31
404.967	1	23
406.162	1	21
407.357	1	21
408.552	1	24
409.747	1	23
410.942	1	22
412.137	1	19
413.332	1	15
414.526	1	21
415.721	1	15
416.916	1	9
418.111	1	10
419.305	1	14
420.500	1	23
421.695	1	17
422.889	1	12
424.084	1	15
425.278	1	4
426.472	1	9
427.667	1	19
428.861	1	17
430.055	1	14
431.250	1	1
432.444	1	22
433.638	1	4
434.832	1	9
436.026	1	11
437.220	1	5
438.414	1	14
439.608	1	7
440.802	1	13
441.996	1	6
443.190	1	-4
444.384	1	5
445.578	1	15
446.771	1	10
447.965	1	-3
449.159	1	-5
450.352	1	20
451.546	1	6
452.739	1	1
453.933	1	16
455.126	1	5
456.320	1	10
457.513	1	12
458.706	1	20
459.899	1	16
461.093	1	8
462.286	1	17
463.479	1	11
464.672	1	5
465.865	1	0
467.058	1	12
468.251	1	9
469.444	1	4
470.637	1	17
471.830	1	23
473.023	1	3
474.215	1	8
475.408	1	5
476.601	1	0
477.793	1	16
478.986	1	7
480.179	1	9
481.371	1	3
482.564	1	-5
483.756	1	13
484.948	1	0
486.141	1	0
487.333	1	18
488.525	1	-3
489.718	1	2
490.910	1	4
492.102	1	0
493.294	1	13
494.486	1	10
495.678	1	20
496.870	1	13
498.062	1	10
499.254	1	16
500.446	1	19
501.638	1	10
502.829	1	18
504.021	1	31
505.213	1	13
506.404	1	16
507.596	1	29
508.788	1	23
509.979	1	21
511.171	1	28
512.362	1	14
513.553	1	8
514.745	1	12
515.936	1	24
517.127	1	23
518.319	1	22
519.510	1	18
520.701	1	24
521.892	1	17
523.083	1	16
524.274	1	21
525.465	1	25
526.656	1	39
527.847	1	19
529.038	1	20
530.229	1	32
531.419	1	30
532.610	1	22
533.801	1	25
534.991	1	33
536.182	1	24
537.373	1	11
538.563	1	30
539.754	1	25
540.944	1	19
542.134	1	29
543.325	1	23
544.515	1	25
545.705	1	25
546.896	1	27
548.086	1	24
549.276	1	24
550.466	1	17
551.656	1	12
552.846	1	17
554.036	1	20
555.226	1	12
556.416	1	10
557.606	1	13
558.796	1	11
559.986	1	15
561.175	1	11
562.365	1	13
563.555	1	25
564.744	1	14
565.934	1	18
567.123	1	31
568.313	1	6
569.502	1	13
570.692	1	13
571.881	1	12
573.070	1	18
574.260	1	7
575.449	1	11
576.638	1	13
577.827	1	11
579.016	1	21
580.205	1	8
581.394	1	5
582.583	1	4
583.772	1	12
584.961	1	8
586.150	1	8
587.339	1	12
588.528	1	14
589.717	1	7
590.905	1	7
592.094	1	3
593.283	1	18
594.471	1	10
595.660	1	6
596.848	1	11
598.037	1	11
599.225	1	13
600.413	1	-3
601.602	1	17
602.790	1	-1
603.978	1	11
605.166	1	-1
606.355	1	12
607.543	1	1
608.731	1	3
609.919	1	-5
611.107	1	9
612.295	1	8
613.483	1	7
614.671	1	11
615.858	1	18
617.046	1	6
618.234	1	5
619.422	1	2
620.609	1	0
621.797	1	4
622.985	1	12
624.172	1	19
625.360	1	-6
626.547	1	17
627.735	1	8
628.922	1	-3
630.109	1	8
631.297	1	8
632.484	1	-6
633.671	1	4
634.858	1	15
636.045	1	1
637.232	1	-1
638.419	1	2
639.606	1	8
640.793	1	12
641.980	1	-1
643.167	1	17
644.354	1	4
645.541	1	7
646.728	1	4
647.914	1	1
649.101	1	2
650.288	1	9
651.474	1	12
652.661	1	9
653.847	1	7
655.034	1	0
656.220	1	6
657.406	1	6
658.593	1	2
659.779	1	5
660.965	1	4
662.152	1	6
663.338	1	0
664.524	1	-1
665.710	1	8
666.896	1	3
668.082	1	-1
669.268	1	6
670.454	1	3
671.640	1	-11
672.826	1	-9
674.011	1	10
675.197	1	11
676.383	1	-6
677.569	1	-8
678.754	1	3
679.940	1	-2
681.125	1	10
682.311	1	12
683.496	1	-5
684.682	1	-1
685.867	1	3
687.053	1	12
688.238	1	5
688.746	1	11