File: Analysis/GaN_68K_200ms/GaN_sample E_spot4_UVVIS_68 K_200um_200 ms 2x2mm1_492.txt
340.368	1	7
341.565	1	-7
342.763	1	-3
343.960	1	-3
345.157	1	9
346.354	1	2
347.552	1	-5
348.749	1	11
349.946	1	11
351.143	1	-2
352.340	1	-2
353.537	1	-1
354.734	1	-7
355.931	1	-1
357.127	1	7
358.324	1	3
359.521	1	2
360.718	1	-6
361.914	1	0
363.111	1	8
364.308	1	-6
365.504	1	3
366.701	1	-9
367.897	1	0
369.093	1	11
370.290	1	1
371.486	1	11
372.682	1	0
373.879	1	12
375.075	1	11
376.271	1	-2
377.467	1	-11
378.663	1	-1
379.859	1	1
381.055	1	5
382.251	1	8
383.447	1	13
384.643	1	6
385.839	1	5
387.035	1	4
388.230	1	3
389.426	1	4
390.622	1	1
391.817	1	5
393.013	1	12
394.208	1	7
395.404	1	7
396.599	1	7
397.795	1	6
398.990	1	10
400.186	1	13
401.381	1	3
402.576	1	9
403.771	1	12
404.967	1	6
406.162	1	4
407.357	1	2
408.552	1	2
409.747	1	-3
410.942	1	11
412.137	1	11
413.332	1	8
414.526	1	12
415.721	1	-7
416.916	1	-5
418.111	1	4
419.305	1	7
420.500	1	13
421.695	1	0
422.889	1	9
424.084	1	2
425.278	1	-15
426.472	1	-7
427.667	1	12
428.861	1	1
430.055	1	3
431.250	1	-16
432.444	1	6
433.638	1	-2
434.832	1	-8
436.026	1	6
437.220	1	7
438.414	1	-7
439.608	1	0
440.802	1	3
441.996	1	0
443.190	1	-7
444.384	1	5
445.578	1	5
446.771	1	2
447.965	1	-4
449.159	1	-10
450.352	1	6
451.546	1	7
452.739	1	1
453.933	1	6
455.126	1	-3
456.320	1	2
457.513	1	2
458.706	1	4
459.899	1	13
461.093	1	11
462.286	1	7
463.479	1	8
464.672	1	5
465.865	1	-2
467.058	1	5
468.251	1	3
469.444	1	-1
470.637	1	13
471.830	1	13
473.023	1	-8
474.215	1	1
475.408	1	5
476.601	1	-3
477.793	1	10
478.986	1	0
480.179	1	7
481.371	1	0
482.564	1	-6
483.756	1	18
484.948	1	-12
486.141	1	-6
487.333	1	4
488.525	1	-6
489.718	1	-4
490.910	1	-4
492.102	1	-1
493.294	1	10
494.486	1	5
495.678	1	7
496.870	1	4
498.062	1	6
499.254	1	4
500.446	1	10
501.638	1	8
502.829	1	4
504.021	1	13
505.213	1	-6
506.404	1	2
507.596	1	9
508.788	1	10
509.979	1	1
511.171	1	8
512.362	1	9
513.553	1	-8
514.745	1	2
515.936	1	3
517.127	1	-3
518.319	1	5
519.510	1	3
520.701	1	-2
521.892	1	-2
523.083	1	-3
524.274	1	-10
525.465	1	4
526.656	1	16
527.847	1	0
529.038	1	7
530.229	1	9
531.419	1	4
532.610	1	13
533.801	1	7
534.991	1	3
536.182	1	-2
537.373	1	-4
538.563	1	3
539.754	1	-2
540.944	1	8
542.134	1	2
543.325	1	-3
544.515	1	1
545.705	1	5
546.896	1	1
548.086	1	3
549.276	1	12
550.466	1	-3
551.656	1	-3
552.846	1	11
554.036	1	-1
555.226	1	-9
556.416	1	-2
557.606	1	-5
558.796	1	-1
559.986	1	-5
561.175	1	10
562.365	1	8
563.555	1	10
564.744	1	14
565.934	1	14
567.123	1	14
568.313	1	-3
569.502	1	4
570.692	1	6
571.881	1	-1
573.070	1	-2
574.260	1	3
575.449	1	9
576.638	1	-6
577.827	1	4
579.016	1	13
580.205	1	1
581.394	1	-4
582.583	1	-9
583.772	1	-5
584.961	1	3
586.150	1	-1
587.339	1	6
588.528	1	3
589.717	1	-3
590.905	1	13
592.094	1	-1
593.283	1	1
594.471	1	5
595.660	1	-3
596.848	1	-6
598.037	1	5
599.225	1	-8
600.413	1	5
601.602	1	8
602.790	1	2
603.978	1	9
605.166	1	5
606.355	1	13
607.543	1	-4
608.731	1	-1
609.919	1	-5
611.107	1	6
612.295	1	4
613.483	1	7
614.671	1	7
615.858	1	10
617.046	1	-1
618.234	1	4
619.422	1	7
620.609	1	-5
621.797	1	0
622.985	1	-3
624.172	1	12
625.360	1	-7
626.547	1	4
627.735	1	-1
628.922	1	-9
630.109	1	-2
631.297	1	0
632.484	1	3
633.671	1	1
634.858	1	15
636.045	1	6
637.232	1	-2
638.419	1	2
639.606	1	9
640.793	1	-2
641.980	1	2
643.167	1	9
644.354	1	2
645.541	1	-14
646.728	1	7
647.914	1	-5
649.101	1	5
650.288	1	-6
651.474	1	8
652.661	1	-3
653.847	1	4
655.034	1	-3
656.220	1	4
657.406	1	-1
658.593	1	-8
659.779	1	-5
660.965	1	13
662.152	1	2
663.338	1	2
664.524	1	-4
665.710	1	-2
666.896	1	-4
668.082	1	-6
669.268	1	5
670.454	1	-3
671.640	1	-12
672.826	1	-7
674.011	1	10
675.197	1	1
676.383	1	-6
677.569	1	-4
678.754	1	-1
679.940	1	2
681.125	1	-1
682.311	1	4
683.496	1	-11
684.682	1	-4
685.867	1	1
687.053	1	5
688.238	1	1
688.746	1	-2