File: Analysis/GaN_68K_200ms/GaN_sample E_spot4_UVVIS_68 K_200um_200 ms 2x2mm1_31.txt
340.368	1	-3
341.565	1	-7
342.763	1	-1
343.960	1	-1
345.157	1	-5
346.354	1	3
347.552	1	4
348.749	1	3
349.946	1	8
351.143	1	-7
352.340	1	9
353.537	1	-6
354.734	1	1
355.931	1	5
357.127	1	-4
358.324	1	2
359.521	1	0
360.718	1	6
361.914	1	4
363.111	1	14
364.308	1	2
365.504	1	-6
366.701	1	-2
367.897	1	-1
369.093	1	0
370.290	1	-1
371.486	1	5
372.682	1	-2
373.879	1	9
375.075	1	9
376.271	1	2
377.467	1	-3
378.663	1	-3
379.859	1	-3
381.055	1	-1
382.251	1	11
383.447	1	11
384.643	1	7
385.839	1	-2
387.035	1	-4
388.230	1	1
389.426	1	7
390.622	1	-11
391.817	1	-3
393.013	1	7
394.208	1	4
395.404	1	7
396.599	1	4
397.795	1	5
398.990	1	1
400.186	1	11
401.381	1	0
402.576	1	11
403.771	1	-1
404.967	1	5
406.162	1	-3
407.357	1	2
408.552	1	-9
409.747	1	5
410.942	1	0
412.137	1	8
413.332	1	-3
414.526	1	-1
415.721	1	1
416.916	1	-2
418.111	1	-2
419.305	1	1
420.500	1	6
421.695	1	7
422.889	1	4
424.084	1	-1
425.278	1	-3
426.472	1	-7
427.667	1	-2
428.861	1	0
430.055	1	-1
431.250	1	-9
432.444	1	13
433.638	1	2
434.832	1	1
436.026	1	12
437.220	1	5
438.414	1	-6
439.608	1	10
440.802	1	14
441.996	1	-3
443.190	1	-14
444.384	1	9
445.578	1	11
446.771	1	5
447.965	1	-1
449.159	1	-5
450.352	1	11
451.546	1	5
452.739	1	6
453.933	1	3
455.126	1	-3
456.320	1	9
457.513	1	9
458.706	1	0
459.899	1	8
461.093	1	11
462.286	1	11
463.479	1	1
464.672	1	-2
465.865	1	-5
467.058	1	8
468.251	1	-9
469.444	1	-4
470.637	1	13
471.830	1	16
473.023	1	-3
474.215	1	-5
475.408	1	4
476.601	1	-6
477.793	1	6
478.986	1	7
480.179	1	11
481.371	1	6
482.564	1	-6
483.756	1	6
484.948	1	-9
486.141	1	-7
487.333	1	7
488.525	1	6
489.718	1	-6
490.910	1	-3
492.102	1	6
493.294	1	11
494.486	1	4
495.678	1	15
496.870	1	-2
498.062	1	-3
499.254	1	3
500.446	1	2
501.638	1	4
502.829	1	12
504.021	1	21
505.213	1	-6
506.404	1	-5
507.596	1	6
508.788	1	4
509.979	1	1
511.171	1	18
512.362	1	0
513.553	1	-1
514.745	1	-5
515.936	1	6
517.127	1	-5
518.319	1	-4
519.510	1	-1
520.701	1	10
521.892	1	-8
523.083	1	-4
524.274	1	-8
525.465	1	-2
526.656	1	9
527.847	1	-7
529.038	1	2
530.229	1	-2
531.419	1	15
532.610	1	0
533.801	1	7
534.991	1	-5
536.182	1	4
537.373	1	-4
538.563	1	9
539.754	1	0
540.944	1	-1
542.134	1	9
543.325	1	-9
544.515	1	3
545.705	1	8
546.896	1	8
548.086	1	11
549.276	1	7
550.466	1	5
551.656	1	-5
552.846	1	8
554.036	1	-1
555.226	1	-2
556.416	1	6
557.606	1	-8
558.796	1	2
559.986	1	-4
561.175	1	7
562.365	1	5
563.555	1	4
564.744	1	1
565.934	1	-4
567.123	1	13
568.313	1	-5
569.502	1	-2
570.692	1	0
571.881	1	7
573.070	1	7
574.260	1	2
575.449	1	11
576.638	1	5
577.827	1	18
579.016	1	19
580.205	1	4
581.394	1	-3
582.583	1	-5
583.772	1	-6
584.961	1	8
586.150	1	13
587.339	1	-1
588.528	1	5
589.717	1	3
590.905	1	5
592.094	1	2
593.283	1	13
594.471	1	3
595.660	1	0
596.848	1	2
598.037	1	-5
599.225	1	-4
600.413	1	3
601.602	1	0
602.790	1	5
603.978	1	-9
605.166	1	-1
606.355	1	11
607.543	1	2
608.731	1	-8
609.919	1	2
611.107	1	8
612.295	1	1
613.483	1	-3
614.671	1	4
615.858	1	5
617.046	1	3
618.234	1	9
619.422	1	3
620.609	1	-6
621.797	1	5
622.985	1	3
624.172	1	13
625.360	1	-7
626.547	1	-1
627.735	1	11
628.922	1	6
630.109	1	0
631.297	1	-2
632.484	1	-3
633.671	1	1
634.858	1	1
636.045	1	5
637.232	1	8
638.419	1	14
639.606	1	12
640.793	1	-1
641.980	1	-3
643.167	1	2
644.354	1	1
645.541	1	-16
646.728	1	11
647.914	1	-6
649.101	1	-4
650.288	1	-5
651.474	1	7
652.661	1	-4
653.847	1	2
655.034	1	3
656.220	1	5
657.406	1	15
658.593	1	-5
659.779	1	1
660.965	1	10
662.152	1	3
663.338	1	-9
664.524	1	-10
665.710	1	-8
666.896	1	1
668.082	1	0
669.268	1	6
670.454	1	0
671.640	1	-16
672.826	1	-16
674.011	1	7
675.197	1	-2
676.383	1	1
677.569	1	-2
678.754	1	7
679.940	1	-5
681.125	1	10
682.311	1	-3
683.496	1	-8
684.682	1	1
685.867	1	-8
687.053	1	4
688.238	1	-6
688.746	1	-3