File: Analysis/GaN_68K_200ms/GaN_sample E_spot4_UVVIS_68 K_200um_200 ms 2x2mm1_550.txt
340.368	1	-3
341.565	1	-6
342.763	1	-13
343.960	1	-11
345.157	1	10
346.354	1	11
347.552	1	-1
348.749	1	5
349.946	1	11
351.143	1	-13
352.340	1	-3
353.537	1	-5
354.734	1	-2
355.931	1	9
357.127	1	-2
358.324	1	3
359.521	1	0
360.718	1	-6
361.914	1	-10
363.111	1	10
364.308	1	1
365.504	1	3
366.701	1	-6
367.897	1	-3
369.093	1	4
370.290	1	0
371.486	1	-1
372.682	1	2
373.879	1	5
375.075	1	12
376.271	1	-7
377.467	1	-7
378.663	1	-7
379.859	1	-2
381.055	1	-4
382.251	1	2
383.447	1	5
384.643	1	2
385.839	1	6
387.035	1	2
388.230	1	-11
389.426	1	4
390.622	1	-3
391.817	1	3
393.013	1	11
394.208	1	7
395.404	1	8
396.599	1	6
397.795	1	6
398.990	1	2
400.186	1	13
401.381	1	-1
402.576	1	4
403.771	1	-6
404.967	1	4
406.162	1	0
407.357	1	8
408.552	1	9
409.747	1	-8
410.942	1	4
412.137	1	9
413.332	1	4
414.526	1	2
415.721	1	-2
416.916	1	-1
418.111	1	4
419.305	1	-4
420.500	1	4
421.695	1	0
422.889	1	4
424.084	1	-2
425.278	1	-4
426.472	1	1
427.667	1	4
428.861	1	3
430.055	1	5
431.250	1	-11
432.444	1	5
433.638	1	-5
434.832	1	-1
436.026	1	5
437.220	1	-3
438.414	1	-1
439.608	1	7
440.802	1	10
441.996	1	1
443.190	1	-9
444.384	1	2
445.578	1	3
446.771	1	-14
447.965	1	-9
449.159	1	-9
450.352	1	16
451.546	1	0
452.739	1	1
453.933	1	2
455.126	1	5
456.320	1	-5
457.513	1	14
458.706	1	4
459.899	1	0
461.093	1	3
462.286	1	16
463.479	1	5
464.672	1	-2
465.865	1	-10
467.058	1	5
468.251	1	-5
469.444	1	-3
470.637	1	9
471.830	1	11
473.023	1	-6
474.215	1	-5
475.408	1	-12
476.601	1	0
477.793	1	15
478.986	1	-4
480.179	1	3
481.371	1	3
482.564	1	2
483.756	1	11
484.948	1	0
486.141	1	-14
487.333	1	1
488.525	1	4
489.718	1	2
490.910	1	2
492.102	1	-5
493.294	1	1
494.486	1	12
495.678	1	7
496.870	1	-7
498.062	1	-1
499.254	1	-2
500.446	1	8
501.638	1	7
502.829	1	3
504.021	1	19
505.213	1	-4
506.404	1	-4
507.596	1	6
508.788	1	6
509.979	1	-2
511.171	1	10
512.362	1	5
513.553	1	-8
514.745	1	2
515.936	1	4
517.127	1	-2
518.319	1	2
519.510	1	1
520.701	1	2
521.892	1	-13
523.083	1	-2
524.274	1	-5
525.465	1	-2
526.656	1	26
527.847	1	-8
529.038	1	5
530.229	1	3
531.419	1	5
532.610	1	4
533.801	1	11
534.991	1	1
536.182	1	4
537.373	1	0
538.563	1	7
539.754	1	-9
540.944	1	-5
542.134	1	6
543.325	1	2
544.515	1	-6
545.705	1	9
546.896	1	-2
548.086	1	-1
549.276	1	0
550.466	1	-5
551.656	1	-1
552.846	1	8
554.036	1	4
555.226	1	-2
556.416	1	5
557.606	1	-9
558.796	1	-5
559.986	1	-15
561.175	1	-7
562.365	1	-2
563.555	1	5
564.744	1	6
565.934	1	7
567.123	1	14
568.313	1	2
569.502	1	-1
570.692	1	6
571.881	1	-2
573.070	1	3
574.260	1	-9
575.449	1	0
576.638	1	3
577.827	1	4
579.016	1	13
580.205	1	2
581.394	1	0
582.583	1	-7
583.772	1	-1
584.961	1	4
586.150	1	-3
587.339	1	0
588.528	1	-1
589.717	1	5
590.905	1	1
592.094	1	9
593.283	1	5
594.471	1	-1
595.660	1	-2
596.848	1	12
598.037	1	6
599.225	1	8
600.413	1	2
601.602	1	5
602.790	1	-5
603.978	1	1
605.166	1	-3
606.355	1	8
607.543	1	-5
608.731	1	-3
609.919	1	-9
611.107	1	9
612.295	1	-3
613.483	1	4
614.671	1	7
615.858	1	7
617.046	1	1
618.234	1	7
619.422	1	4
620.609	1	1
621.797	1	0
622.985	1	2
624.172	1	5
625.360	1	-6
626.547	1	3
627.735	1	8
628.922	1	5
630.109	1	-4
631.297	1	-3
632.484	1	-5
633.671	1	-5
634.858	1	3
636.045	1	4
637.232	1	-5
638.419	1	3
639.606	1	8
640.793	1	6
641.980	1	-4
643.167	1	15
644.354	1	2
645.541	1	-5
646.728	1	7
647.914	1	-3
649.101	1	-3
650.288	1	2
651.474	1	0
652.661	1	12
653.847	1	2
655.034	1	-1
656.220	1	6
657.406	1	10
658.593	1	0
659.779	1	-8
660.965	1	-4
662.152	1	5
663.338	1	-7
664.524	1	7
665.710	1	-10
666.896	1	3
668.082	1	5
669.268	1	-3
670.454	1	2
671.640	1	-12
672.826	1	-10
674.011	1	-4
675.197	1	-1
676.383	1	-5
677.569	1	-1
678.754	1	-6
679.940	1	-6
681.125	1	-7
682.311	1	-4
683.496	1	5
684.682	1	-2
685.867	1	4
687.053	1	-4
688.238	1	4
688.746	1	8