File: Analysis/GaN_68K_200ms/GaN_sample E_spot4_UVVIS_68 K_200um_200 ms 2x2mm1_275.txt
340.368	1	5
341.565	1	-1
342.763	1	13
343.960	1	-6
345.157	1	14
346.354	1	-2
347.552	1	5
348.749	1	3
349.946	1	14
351.143	1	-4
352.340	1	3
353.537	1	0
354.734	1	8
355.931	1	-9
357.127	1	8
358.324	1	4
359.521	1	14
360.718	1	-1
361.914	1	12
363.111	1	6
364.308	1	-1
365.504	1	2
366.701	1	2
367.897	1	7
369.093	1	9
370.290	1	6
371.486	1	16
372.682	1	7
373.879	1	27
375.075	1	18
376.271	1	0
377.467	1	2
378.663	1	-3
379.859	1	1
381.055	1	-3
382.251	1	12
383.447	1	13
384.643	1	16
385.839	1	8
387.035	1	5
388.230	1	15
389.426	1	15
390.622	1	9
391.817	1	11
393.013	1	12
394.208	1	7
395.404	1	23
396.599	1	15
397.795	1	9
398.990	1	23
400.186	1	16
401.381	1	7
402.576	1	18
403.771	1	9
404.967	1	11
406.162	1	-2
407.357	1	13
408.552	1	13
409.747	1	2
410.942	1	5
412.137	1	12
413.332	1	4
414.526	1	10
415.721	1	11
416.916	1	10
418.111	1	4
419.305	1	8
420.500	1	8
421.695	1	4
422.889	1	5
424.084	1	8
425.278	1	-1
426.472	1	-2
427.667	1	13
428.861	1	6
430.055	1	-3
431.250	1	-5
432.444	1	8
433.638	1	5
434.832	1	-1
436.026	1	2
437.220	1	7
438.414	1	6
439.608	1	7
440.802	1	5
441.996	1	-3
443.190	1	-4
444.384	1	3
445.578	1	12
446.771	1	3
447.965	1	-4
449.159	1	-11
450.352	1	7
451.546	1	6
452.739	1	3
453.933	1	15
455.126	1	-3
456.320	1	1
457.513	1	6
458.706	1	-2
459.899	1	12
461.093	1	14
462.286	1	5
463.479	1	2
464.672	1	6
465.865	1	5
467.058	1	6
468.251	1	-1
469.444	1	1
470.637	1	13
471.830	1	16
473.023	1	-1
474.215	1	-2
475.408	1	10
476.601	1	5
477.793	1	6
478.986	1	-2
480.179	1	9
481.371	1	5
482.564	1	-9
483.756	1	4
484.948	1	-5
486.141	1	-1
487.333	1	-1
488.525	1	2
489.718	1	0
490.910	1	0
492.102	1	-2
493.294	1	8
494.486	1	10
495.678	1	14
496.870	1	0
498.062	1	-9
499.254	1	12
500.446	1	4
501.638	1	5
502.829	1	6
504.021	1	24
505.213	1	3
506.404	1	0
507.596	1	0
508.788	1	1
509.979	1	6
511.171	1	16
512.362	1	10
513.553	1	-8
514.745	1	3
515.936	1	15
517.127	1	10
518.319	1	2
519.510	1	9
520.701	1	14
521.892	1	4
523.083	1	6
524.274	1	3
525.465	1	14
526.656	1	14
527.847	1	12
529.038	1	14
530.229	1	9
531.419	1	14
532.610	1	6
533.801	1	13
534.991	1	10
536.182	1	2
537.373	1	2
538.563	1	8
539.754	1	2
540.944	1	4
542.134	1	7
543.325	1	7
544.515	1	5
545.705	1	6
546.896	1	8
548.086	1	12
549.276	1	11
550.466	1	4
551.656	1	1
552.846	1	6
554.036	1	6
555.226	1	-1
556.416	1	10
557.606	1	6
558.796	1	8
559.986	1	0
561.175	1	6
562.365	1	4
563.555	1	14
564.744	1	5
565.934	1	20
567.123	1	11
568.313	1	7
569.502	1	10
570.692	1	2
571.881	1	8
573.070	1	9
574.260	1	3
575.449	1	3
576.638	1	4
577.827	1	9
579.016	1	7
580.205	1	6
581.394	1	-2
582.583	1	-6
583.772	1	7
584.961	1	5
586.150	1	11
587.339	1	6
588.528	1	5
589.717	1	8
590.905	1	-1
592.094	1	7
593.283	1	8
594.471	1	7
595.660	1	1
596.848	1	11
598.037	1	12
599.225	1	-1
600.413	1	5
601.602	1	3
602.790	1	9
603.978	1	-3
605.166	1	3
606.355	1	18
607.543	1	-1
608.731	1	-6
609.919	1	7
611.107	1	8
612.295	1	8
613.483	1	10
614.671	1	-1
615.858	1	13
617.046	1	17
618.234	1	5
619.422	1	7
620.609	1	2
621.797	1	10
622.985	1	5
624.172	1	15
625.360	1	-2
626.547	1	4
627.735	1	11
628.922	1	-3
630.109	1	2
631.297	1	-1
632.484	1	-3
633.671	1	-1
634.858	1	14
636.045	1	4
637.232	1	0
638.419	1	7
639.606	1	12
640.793	1	5
641.980	1	-2
643.167	1	11
644.354	1	-4
645.541	1	-11
646.728	1	6
647.914	1	-5
649.101	1	2
650.288	1	5
651.474	1	1
652.661	1	3
653.847	1	4
655.034	1	3
656.220	1	11
657.406	1	9
658.593	1	-5
659.779	1	1
660.965	1	7
662.152	1	5
663.338	1	1
664.524	1	0
665.710	1	6
666.896	1	-4
668.082	1	8
669.268	1	1
670.454	1	0
671.640	1	-13
672.826	1	-18
674.011	1	8
675.197	1	0
676.383	1	-5
677.569	1	-8
678.754	1	-3
679.940	1	-3
681.125	1	0
682.311	1	8
683.496	1	-9
684.682	1	10
685.867	1	0
687.053	1	10
688.238	1	8
688.746	1	2