File: Analysis/GaN_68K_200ms/GaN_sample E_spot4_UVVIS_68 K_200um_200 ms 2x2mm1_221.txt
340.368	1	-3
341.565	1	-9
342.763	1	-3
343.960	1	1
345.157	1	5
346.354	1	6
347.552	1	1
348.749	1	0
349.946	1	9
351.143	1	-5
352.340	1	-3
353.537	1	0
354.734	1	5
355.931	1	-4
357.127	1	2
358.324	1	1
359.521	1	6
360.718	1	-2
361.914	1	8
363.111	1	10
364.308	1	1
365.504	1	11
366.701	1	9
367.897	1	14
369.093	1	22
370.290	1	6
371.486	1	14
372.682	1	2
373.879	1	15
375.075	1	16
376.271	1	13
377.467	1	0
378.663	1	8
379.859	1	13
381.055	1	9
382.251	1	14
383.447	1	16
384.643	1	20
385.839	1	22
387.035	1	24
388.230	1	13
389.426	1	21
390.622	1	18
391.817	1	9
393.013	1	24
394.208	1	21
395.404	1	19
396.599	1	22
397.795	1	25
398.990	1	25
400.186	1	21
401.381	1	19
402.576	1	22
403.771	1	16
404.967	1	14
406.162	1	9
407.357	1	5
408.552	1	16
409.747	1	7
410.942	1	19
412.137	1	19
413.332	1	15
414.526	1	10
415.721	1	14
416.916	1	8
418.111	1	11
419.305	1	11
420.500	1	15
421.695	1	9
422.889	1	10
424.084	1	11
425.278	1	-4
426.472	1	10
427.667	1	17
428.861	1	5
430.055	1	8
431.250	1	-2
432.444	1	19
433.638	1	5
434.832	1	-4
436.026	1	6
437.220	1	9
438.414	1	5
439.608	1	7
440.802	1	8
441.996	1	5
443.190	1	1
444.384	1	4
445.578	1	22
446.771	1	-6
447.965	1	-5
449.159	1	3
450.352	1	18
451.546	1	4
452.739	1	-3
453.933	1	13
455.126	1	2
456.320	1	6
457.513	1	16
458.706	1	17
459.899	1	13
461.093	1	8
462.286	1	4
463.479	1	15
464.672	1	5
465.865	1	-4
467.058	1	15
468.251	1	6
469.444	1	3
470.637	1	11
471.830	1	21
473.023	1	-1
474.215	1	-4
475.408	1	4
476.601	1	9
477.793	1	16
478.986	1	-1
480.179	1	2
481.371	1	11
482.564	1	-5
483.756	1	13
484.948	1	4
486.141	1	-2
487.333	1	1
488.525	1	-2
489.718	1	2
490.910	1	6
492.102	1	3
493.294	1	17
494.486	1	15
495.678	1	17
496.870	1	0
498.062	1	-1
499.254	1	12
500.446	1	10
501.638	1	13
502.829	1	5
504.021	1	24
505.213	1	4
506.404	1	2
507.596	1	22
508.788	1	14
509.979	1	4
511.171	1	17
512.362	1	7
513.553	1	0
514.745	1	1
515.936	1	13
517.127	1	12
518.319	1	6
519.510	1	13
520.701	1	15
521.892	1	3
523.083	1	4
524.274	1	1
525.465	1	9
526.656	1	24
527.847	1	13
529.038	1	21
530.229	1	17
531.419	1	27
532.610	1	15
533.801	1	13
534.991	1	9
536.182	1	11
537.373	1	-2
538.563	1	11
539.754	1	7
540.944	1	20
542.134	1	12
543.325	1	3
544.515	1	14
545.705	1	13
546.896	1	15
548.086	1	15
549.276	1	6
550.466	1	4
551.656	1	6
552.846	1	13
554.036	1	14
555.226	1	3
556.416	1	10
557.606	1	5
558.796	1	5
559.986	1	11
561.175	1	5
562.365	1	12
563.555	1	19
564.744	1	12
565.934	1	17
567.123	1	23
568.313	1	1
569.502	1	9
570.692	1	8
571.881	1	15
573.070	1	4
574.260	1	6
575.449	1	12
576.638	1	10
577.827	1	6
579.016	1	19
580.205	1	2
581.394	1	2
582.583	1	5
583.772	1	7
584.961	1	9
586.150	1	6
587.339	1	5
588.528	1	11
589.717	1	7
590.905	1	10
592.094	1	2
593.283	1	5
594.471	1	-2
595.660	1	-1
596.848	1	8
598.037	1	2
599.225	1	-2
600.413	1	-2
601.602	1	11
602.790	1	1
603.978	1	8
605.166	1	-6
606.355	1	11
607.543	1	-3
608.731	1	-2
609.919	1	-1
611.107	1	13
612.295	1	3
613.483	1	13
614.671	1	10
615.858	1	14
617.046	1	6
618.234	1	14
619.422	1	2
620.609	1	3
621.797	1	2
622.985	1	7
624.172	1	14
625.360	1	-3
626.547	1	8
627.735	1	9
628.922	1	7
630.109	1	9
631.297	1	2
632.484	1	-5
633.671	1	-1
634.858	1	13
636.045	1	6
637.232	1	13
638.419	1	9
639.606	1	12
640.793	1	8
641.980	1	8
643.167	1	12
644.354	1	3
645.541	1	-5
646.728	1	1
647.914	1	-10
649.101	1	13
650.288	1	6
651.474	1	5
652.661	1	10
653.847	1	7
655.034	1	4
656.220	1	8
657.406	1	0
658.593	1	-6
659.779	1	1
660.965	1	2
662.152	1	-1
663.338	1	1
664.524	1	-7
665.710	1	2
666.896	1	7
668.082	1	-1
669.268	1	2
670.454	1	2
671.640	1	-9
672.826	1	-5
674.011	1	3
675.197	1	3
676.383	1	-3
677.569	1	-5
678.754	1	-11
679.940	1	7
681.125	1	14
682.311	1	8
683.496	1	-8
684.682	1	13
685.867	1	2
687.053	1	6
688.238	1	3
688.746	1	4