File: Analysis/GaN_68K_200ms/GaN_sample E_spot4_UVVIS_68 K_200um_200 ms 2x2mm1_12.txt
340.368	1	-6
341.565	1	-5
342.763	1	0
343.960	1	-4
345.157	1	5
346.354	1	2
347.552	1	-5
348.749	1	2
349.946	1	5
351.143	1	-13
352.340	1	-4
353.537	1	5
354.734	1	4
355.931	1	-1
357.127	1	5
358.324	1	-4
359.521	1	9
360.718	1	-4
361.914	1	-5
363.111	1	12
364.308	1	-6
365.504	1	-3
366.701	1	-14
367.897	1	3
369.093	1	2
370.290	1	-2
371.486	1	0
372.682	1	-1
373.879	1	9
375.075	1	4
376.271	1	-3
377.467	1	-6
378.663	1	-1
379.859	1	-4
381.055	1	-4
382.251	1	0
383.447	1	6
384.643	1	-1
385.839	1	6
387.035	1	-7
388.230	1	6
389.426	1	5
390.622	1	-2
391.817	1	-6
393.013	1	8
394.208	1	2
395.404	1	7
396.599	1	0
397.795	1	5
398.990	1	9
400.186	1	11
401.381	1	2
402.576	1	6
403.771	1	4
404.967	1	1
406.162	1	-3
407.357	1	4
408.552	1	-4
409.747	1	-3
410.942	1	-2
412.137	1	4
413.332	1	7
414.526	1	0
415.721	1	-2
416.916	1	-1
418.111	1	1
419.305	1	0
420.500	1	1
421.695	1	-3
422.889	1	6
424.084	1	3
425.278	1	-4
426.472	1	4
427.667	1	10
428.861	1	4
430.055	1	0
431.250	1	-11
432.444	1	-1
433.638	1	5
434.832	1	-5
436.026	1	5
437.220	1	8
438.414	1	-1
439.608	1	4
440.802	1	5
441.996	1	6
443.190	1	-3
444.384	1	2
445.578	1	7
446.771	1	-3
447.965	1	-8
449.159	1	-7
450.352	1	-3
451.546	1	4
452.739	1	4
453.933	1	11
455.126	1	2
456.320	1	2
457.513	1	1
458.706	1	-1
459.899	1	1
461.093	1	5
462.286	1	3
463.479	1	5
464.672	1	6
465.865	1	-5
467.058	1	2
468.251	1	3
469.444	1	5
470.637	1	14
471.830	1	15
473.023	1	1
474.215	1	-2
475.408	1	8
476.601	1	5
477.793	1	8
478.986	1	3
480.179	1	9
481.371	1	13
482.564	1	-8
483.756	1	2
484.948	1	0
486.141	1	-3
487.333	1	5
488.525	1	0
489.718	1	-2
490.910	1	-3
492.102	1	-1
493.294	1	14
494.486	1	-4
495.678	1	3
496.870	1	2
498.062	1	2
499.254	1	0
500.446	1	2
501.638	1	-1
502.829	1	5
504.021	1	11
505.213	1	4
506.404	1	-3
507.596	1	3
508.788	1	-3
509.979	1	-5
511.171	1	8
512.362	1	-4
513.553	1	-9
514.745	1	-5
515.936	1	-3
517.127	1	2
518.319	1	-5
519.510	1	-6
520.701	1	5
521.892	1	-4
523.083	1	3
524.274	1	-15
525.465	1	-9
526.656	1	7
527.847	1	-3
529.038	1	7
530.229	1	-3
531.419	1	1
532.610	1	0
533.801	1	0
534.991	1	1
536.182	1	3
537.373	1	1
538.563	1	0
539.754	1	2
540.944	1	-5
542.134	1	7
543.325	1	-14
544.515	1	-1
545.705	1	4
546.896	1	-11
548.086	1	3
549.276	1	6
550.466	1	-3
551.656	1	-15
552.846	1	5
554.036	1	-8
555.226	1	0
556.416	1	8
557.606	1	-7
558.796	1	2
559.986	1	-3
561.175	1	0
562.365	1	-2
563.555	1	11
564.744	1	5
565.934	1	6
567.123	1	16
568.313	1	-7
569.502	1	3
570.692	1	7
571.881	1	1
573.070	1	2
574.260	1	-2
575.449	1	0
576.638	1	6
577.827	1	-1
579.016	1	10
580.205	1	-1
581.394	1	-3
582.583	1	-6
583.772	1	-4
584.961	1	1
586.150	1	1
587.339	1	2
588.528	1	-6
589.717	1	3
590.905	1	0
592.094	1	0
593.283	1	5
594.471	1	-2
595.660	1	-13
596.848	1	7
598.037	1	9
599.225	1	3
600.413	1	7
601.602	1	4
602.790	1	7
603.978	1	-1
605.166	1	-6
606.355	1	10
607.543	1	-8
608.731	1	-7
609.919	1	-4
611.107	1	7
612.295	1	2
613.483	1	1
614.671	1	0
615.858	1	-1
617.046	1	5
618.234	1	0
619.422	1	2
620.609	1	5
621.797	1	-3
622.985	1	6
624.172	1	10
625.360	1	-6
626.547	1	-2
627.735	1	6
628.922	1	10
630.109	1	-5
631.297	1	1
632.484	1	-4
633.671	1	-4
634.858	1	15
636.045	1	1
637.232	1	0
638.419	1	9
639.606	1	18
640.793	1	7
641.980	1	0
643.167	1	10
644.354	1	-4
645.541	1	-6
646.728	1	4
647.914	1	-4
649.101	1	-2
650.288	1	6
651.474	1	9
652.661	1	5
653.847	1	-4
655.034	1	-4
656.220	1	7
657.406	1	4
658.593	1	-10
659.779	1	3
660.965	1	4
662.152	1	4
663.338	1	1
664.524	1	-8
665.710	1	2
666.896	1	-5
668.082	1	4
669.268	1	5
670.454	1	-12
671.640	1	-13
672.826	1	-15
674.011	1	-3
675.197	1	-3
676.383	1	-10
677.569	1	-6
678.754	1	2
679.940	1	4
681.125	1	11
682.311	1	7
683.496	1	-12
684.682	1	3
685.867	1	0
687.053	1	-6
688.238	1	-1
688.746	1	-5