File: Analysis/GaN_68K_200ms/GaN_sample E_spot4_UVVIS_68 K_200um_200 ms 2x2mm1_136.txt
340.368	1	2
341.565	1	-7
342.763	1	1
343.960	1	-2
345.157	1	8
346.354	1	7
347.552	1	5
348.749	1	5
349.946	1	9
351.143	1	-3
352.340	1	8
353.537	1	3
354.734	1	11
355.931	1	17
357.127	1	7
358.324	1	19
359.521	1	21
360.718	1	21
361.914	1	37
363.111	1	69
364.308	1	73
365.504	1	99
366.701	1	107
367.897	1	113
369.093	1	104
370.290	1	81
371.486	1	81
372.682	1	69
373.879	1	67
375.075	1	56
376.271	1	40
377.467	1	37
378.663	1	45
379.859	1	40
381.055	1	39
382.251	1	57
383.447	1	80
384.643	1	109
385.839	1	122
387.035	1	128
388.230	1	139
389.426	1	138
390.622	1	118
391.817	1	110
393.013	1	115
394.208	1	102
395.404	1	115
396.599	1	117
397.795	1	125
398.990	1	127
400.186	1	116
401.381	1	103
402.576	1	102
403.771	1	83
404.967	1	88
406.162	1	76
407.357	1	70
408.552	1	68
409.747	1	72
410.942	1	70
412.137	1	74
413.332	1	62
414.526	1	54
415.721	1	47
416.916	1	44
418.111	1	45
419.305	1	45
420.500	1	46
421.695	1	44
422.889	1	40
424.084	1	40
425.278	1	28
426.472	1	17
427.667	1	45
428.861	1	39
430.055	1	20
431.250	1	20
432.444	1	28
433.638	1	20
434.832	1	17
436.026	1	18
437.220	1	24
438.414	1	21
439.608	1	17
440.802	1	26
441.996	1	11
443.190	1	12
444.384	1	21
445.578	1	24
446.771	1	26
447.965	1	10
449.159	1	14
450.352	1	19
451.546	1	12
452.739	1	15
453.933	1	12
455.126	1	17
456.320	1	10
457.513	1	23
458.706	1	12
459.899	1	30
461.093	1	21
462.286	1	14
463.479	1	11
464.672	1	12
465.865	1	6
467.058	1	21
468.251	1	9
469.444	1	10
470.637	1	20
471.830	1	32
473.023	1	5
474.215	1	7
475.408	1	4
476.601	1	14
477.793	1	27
478.986	1	11
480.179	1	26
481.371	1	15
482.564	1	1
483.756	1	23
484.948	1	12
486.141	1	1
487.333	1	27
488.525	1	12
489.718	1	15
490.910	1	17
492.102	1	15
493.294	1	27
494.486	1	21
495.678	1	24
496.870	1	28
498.062	1	36
499.254	1	36
500.446	1	38
501.638	1	44
502.829	1	38
504.021	1	65
505.213	1	47
506.404	1	37
507.596	1	66
508.788	1	49
509.979	1	51
511.171	1	67
512.362	1	53
513.553	1	58
514.745	1	64
515.936	1	70
517.127	1	75
518.319	1	65
519.510	1	84
520.701	1	78
521.892	1	70
523.083	1	76
524.274	1	74
525.465	1	79
526.656	1	101
527.847	1	71
529.038	1	79
530.229	1	82
531.419	1	90
532.610	1	88
533.801	1	88
534.991	1	79
536.182	1	83
537.373	1	84
538.563	1	81
539.754	1	77
540.944	1	74
542.134	1	85
543.325	1	79
544.515	1	68
545.705	1	75
546.896	1	64
548.086	1	71
549.276	1	74
550.466	1	70
551.656	1	68
552.846	1	65
554.036	1	61
555.226	1	57
556.416	1	59
557.606	1	48
558.796	1	42
559.986	1	40
561.175	1	56
562.365	1	45
563.555	1	56
564.744	1	54
565.934	1	45
567.123	1	65
568.313	1	39
569.502	1	34
570.692	1	41
571.881	1	46
573.070	1	45
574.260	1	25
575.449	1	43
576.638	1	26
577.827	1	29
579.016	1	42
580.205	1	25
581.394	1	22
582.583	1	21
583.772	1	26
584.961	1	35
586.150	1	18
587.339	1	19
588.528	1	23
589.717	1	19
590.905	1	26
592.094	1	18
593.283	1	28
594.471	1	12
595.660	1	19
596.848	1	25
598.037	1	17
599.225	1	17
600.413	1	23
601.602	1	18
602.790	1	17
603.978	1	7
605.166	1	6
606.355	1	22
607.543	1	2
608.731	1	9
609.919	1	9
611.107	1	23
612.295	1	17
613.483	1	21
614.671	1	19
615.858	1	19
617.046	1	13
618.234	1	12
619.422	1	15
620.609	1	11
621.797	1	17
622.985	1	9
624.172	1	24
625.360	1	-5
626.547	1	5
627.735	1	18
628.922	1	8
630.109	1	4
631.297	1	12
632.484	1	1
633.671	1	9
634.858	1	8
636.045	1	4
637.232	1	2
638.419	1	13
639.606	1	19
640.793	1	11
641.980	1	14
643.167	1	13
644.354	1	7
645.541	1	2
646.728	1	13
647.914	1	7
649.101	1	6
650.288	1	-3
651.474	1	18
652.661	1	-3
653.847	1	7
655.034	1	3
656.220	1	6
657.406	1	8
658.593	1	-1
659.779	1	0
660.965	1	9
662.152	1	2
663.338	1	-2
664.524	1	2
665.710	1	-2
666.896	1	6
668.082	1	11
669.268	1	7
670.454	1	3
671.640	1	-1
672.826	1	-5
674.011	1	15
675.197	1	2
676.383	1	2
677.569	1	-3
678.754	1	1
679.940	1	12
681.125	1	10
682.311	1	6
683.496	1	5
684.682	1	12
685.867	1	6
687.053	1	15
688.238	1	18
688.746	1	6