File: Analysis/GaN_68K_200ms/GaN_sample E_spot4_UVVIS_68 K_200um_200 ms 2x2mm1_311.txt
340.368	1	7
341.565	1	-5
342.763	1	-5
343.960	1	-5
345.157	1	8
346.354	1	-1
347.552	1	2
348.749	1	16
349.946	1	7
351.143	1	-16
352.340	1	7
353.537	1	-2
354.734	1	-5
355.931	1	11
357.127	1	6
358.324	1	6
359.521	1	1
360.718	1	-2
361.914	1	2
363.111	1	9
364.308	1	0
365.504	1	1
366.701	1	-5
367.897	1	17
369.093	1	6
370.290	1	-8
371.486	1	15
372.682	1	3
373.879	1	11
375.075	1	13
376.271	1	3
377.467	1	2
378.663	1	5
379.859	1	-11
381.055	1	7
382.251	1	13
383.447	1	15
384.643	1	18
385.839	1	7
387.035	1	9
388.230	1	5
389.426	1	9
390.622	1	3
391.817	1	11
393.013	1	16
394.208	1	12
395.404	1	6
396.599	1	15
397.795	1	5
398.990	1	10
400.186	1	19
401.381	1	14
402.576	1	18
403.771	1	11
404.967	1	10
406.162	1	7
407.357	1	13
408.552	1	4
409.747	1	-4
410.942	1	11
412.137	1	12
413.332	1	2
414.526	1	5
415.721	1	9
416.916	1	0
418.111	1	4
419.305	1	9
420.500	1	5
421.695	1	4
422.889	1	11
424.084	1	13
425.278	1	1
426.472	1	0
427.667	1	12
428.861	1	1
430.055	1	3
431.250	1	-3
432.444	1	8
433.638	1	-2
434.832	1	0
436.026	1	8
437.220	1	10
438.414	1	6
439.608	1	6
440.802	1	7
441.996	1	13
443.190	1	-11
444.384	1	0
445.578	1	11
446.771	1	1
447.965	1	-3
449.159	1	-9
450.352	1	11
451.546	1	13
452.739	1	0
453.933	1	7
455.126	1	6
456.320	1	-2
457.513	1	12
458.706	1	7
459.899	1	16
461.093	1	9
462.286	1	9
463.479	1	15
464.672	1	-2
465.865	1	0
467.058	1	13
468.251	1	5
469.444	1	-5
470.637	1	8
471.830	1	19
473.023	1	-1
474.215	1	4
475.408	1	13
476.601	1	-1
477.793	1	10
478.986	1	0
480.179	1	1
481.371	1	9
482.564	1	-5
483.756	1	4
484.948	1	7
486.141	1	3
487.333	1	10
488.525	1	-8
489.718	1	-2
490.910	1	3
492.102	1	0
493.294	1	9
494.486	1	4
495.678	1	8
496.870	1	-2
498.062	1	-2
499.254	1	-6
500.446	1	8
501.638	1	8
502.829	1	6
504.021	1	15
505.213	1	0
506.404	1	9
507.596	1	12
508.788	1	1
509.979	1	-6
511.171	1	18
512.362	1	3
513.553	1	-1
514.745	1	4
515.936	1	7
517.127	1	4
518.319	1	3
519.510	1	2
520.701	1	12
521.892	1	2
523.083	1	4
524.274	1	3
525.465	1	4
526.656	1	13
527.847	1	2
529.038	1	13
530.229	1	7
531.419	1	13
532.610	1	11
533.801	1	3
534.991	1	0
536.182	1	0
537.373	1	-2
538.563	1	8
539.754	1	-1
540.944	1	11
542.134	1	10
543.325	1	0
544.515	1	5
545.705	1	8
546.896	1	-1
548.086	1	6
549.276	1	7
550.466	1	-3
551.656	1	2
552.846	1	12
554.036	1	17
555.226	1	3
556.416	1	1
557.606	1	-6
558.796	1	-6
559.986	1	4
561.175	1	12
562.365	1	5
563.555	1	10
564.744	1	6
565.934	1	8
567.123	1	19
568.313	1	-2
569.502	1	13
570.692	1	11
571.881	1	8
573.070	1	4
574.260	1	6
575.449	1	5
576.638	1	14
577.827	1	12
579.016	1	9
580.205	1	4
581.394	1	-4
582.583	1	-3
583.772	1	1
584.961	1	-4
586.150	1	0
587.339	1	2
588.528	1	6
589.717	1	-1
590.905	1	3
592.094	1	6
593.283	1	6
594.471	1	1
595.660	1	5
596.848	1	10
598.037	1	7
599.225	1	2
600.413	1	16
601.602	1	4
602.790	1	6
603.978	1	5
605.166	1	0
606.355	1	5
607.543	1	-5
608.731	1	-7
609.919	1	-3
611.107	1	10
612.295	1	-5
613.483	1	9
614.671	1	-3
615.858	1	12
617.046	1	8
618.234	1	5
619.422	1	-2
620.609	1	5
621.797	1	6
622.985	1	7
624.172	1	13
625.360	1	-9
626.547	1	-2
627.735	1	10
628.922	1	5
630.109	1	1
631.297	1	-3
632.484	1	2
633.671	1	7
634.858	1	0
636.045	1	6
637.232	1	6
638.419	1	12
639.606	1	12
640.793	1	6
641.980	1	4
643.167	1	8
644.354	1	-4
645.541	1	-4
646.728	1	9
647.914	1	6
649.101	1	11
650.288	1	-1
651.474	1	8
652.661	1	3
653.847	1	10
655.034	1	11
656.220	1	0
657.406	1	5
658.593	1	3
659.779	1	-5
660.965	1	4
662.152	1	-7
663.338	1	-12
664.524	1	-7
665.710	1	2
666.896	1	-3
668.082	1	-2
669.268	1	-4
670.454	1	10
671.640	1	-17
672.826	1	-15
674.011	1	9
675.197	1	4
676.383	1	-2
677.569	1	2
678.754	1	-6
679.940	1	3
681.125	1	3
682.311	1	1
683.496	1	-8
684.682	1	14
685.867	1	3
687.053	1	8
688.238	1	-3
688.746	1	6