File: Analysis/GaN_68K_200ms/GaN_sample E_spot4_UVVIS_68 K_200um_200 ms 2x2mm1_189.txt
340.368	1	6
341.565	1	-12
342.763	1	11
343.960	1	1
345.157	1	7
346.354	1	-1
347.552	1	11
348.749	1	8
349.946	1	14
351.143	1	-9
352.340	1	6
353.537	1	5
354.734	1	14
355.931	1	13
357.127	1	10
358.324	1	5
359.521	1	4
360.718	1	9
361.914	1	11
363.111	1	18
364.308	1	10
365.504	1	17
366.701	1	17
367.897	1	22
369.093	1	16
370.290	1	12
371.486	1	15
372.682	1	22
373.879	1	19
375.075	1	23
376.271	1	9
377.467	1	10
378.663	1	4
379.859	1	5
381.055	1	9
382.251	1	8
383.447	1	31
384.643	1	26
385.839	1	30
387.035	1	22
388.230	1	23
389.426	1	33
390.622	1	20
391.817	1	23
393.013	1	31
394.208	1	29
395.404	1	21
396.599	1	32
397.795	1	33
398.990	1	26
400.186	1	29
401.381	1	25
402.576	1	27
403.771	1	16
404.967	1	24
406.162	1	8
407.357	1	26
408.552	1	24
409.747	1	17
410.942	1	22
412.137	1	27
413.332	1	11
414.526	1	10
415.721	1	9
416.916	1	14
418.111	1	11
419.305	1	8
420.500	1	14
421.695	1	12
422.889	1	21
424.084	1	11
425.278	1	2
426.472	1	8
427.667	1	23
428.861	1	9
430.055	1	8
431.250	1	3
432.444	1	16
433.638	1	2
434.832	1	-7
436.026	1	7
437.220	1	16
438.414	1	8
439.608	1	9
440.802	1	12
441.996	1	4
443.190	1	-6
444.384	1	11
445.578	1	13
446.771	1	3
447.965	1	5
449.159	1	4
450.352	1	12
451.546	1	11
452.739	1	6
453.933	1	15
455.126	1	11
456.320	1	6
457.513	1	6
458.706	1	5
459.899	1	11
461.093	1	12
462.286	1	19
463.479	1	11
464.672	1	8
465.865	1	0
467.058	1	13
468.251	1	-1
469.444	1	3
470.637	1	15
471.830	1	21
473.023	1	2
474.215	1	5
475.408	1	2
476.601	1	11
477.793	1	12
478.986	1	4
480.179	1	10
481.371	1	8
482.564	1	-9
483.756	1	15
484.948	1	-1
486.141	1	-2
487.333	1	12
488.525	1	2
489.718	1	3
490.910	1	1
492.102	1	6
493.294	1	7
494.486	1	7
495.678	1	14
496.870	1	6
498.062	1	6
499.254	1	2
500.446	1	19
501.638	1	12
502.829	1	13
504.021	1	29
505.213	1	2
506.404	1	7
507.596	1	25
508.788	1	20
509.979	1	14
511.171	1	24
512.362	1	12
513.553	1	3
514.745	1	16
515.936	1	16
517.127	1	16
518.319	1	15
519.510	1	14
520.701	1	22
521.892	1	12
523.083	1	11
524.274	1	16
525.465	1	14
526.656	1	32
527.847	1	1
529.038	1	23
530.229	1	32
531.419	1	33
532.610	1	17
533.801	1	18
534.991	1	20
536.182	1	13
537.373	1	10
538.563	1	18
539.754	1	18
540.944	1	13
542.134	1	24
543.325	1	15
544.515	1	17
545.705	1	24
546.896	1	17
548.086	1	18
549.276	1	25
550.466	1	12
551.656	1	7
552.846	1	19
554.036	1	15
555.226	1	5
556.416	1	14
557.606	1	4
558.796	1	21
559.986	1	5
561.175	1	5
562.365	1	16
563.555	1	27
564.744	1	18
565.934	1	20
567.123	1	21
568.313	1	9
569.502	1	7
570.692	1	6
571.881	1	14
573.070	1	8
574.260	1	9
575.449	1	13
576.638	1	7
577.827	1	19
579.016	1	20
580.205	1	10
581.394	1	10
582.583	1	3
583.772	1	11
584.961	1	11
586.150	1	8
587.339	1	9
588.528	1	11
589.717	1	10
590.905	1	10
592.094	1	13
593.283	1	4
594.471	1	14
595.660	1	6
596.848	1	13
598.037	1	15
599.225	1	10
600.413	1	4
601.602	1	5
602.790	1	5
603.978	1	4
605.166	1	-6
606.355	1	6
607.543	1	1
608.731	1	-3
609.919	1	3
611.107	1	10
612.295	1	6
613.483	1	5
614.671	1	8
615.858	1	5
617.046	1	12
618.234	1	1
619.422	1	3
620.609	1	2
621.797	1	8
622.985	1	6
624.172	1	9
625.360	1	-3
626.547	1	5
627.735	1	7
628.922	1	10
630.109	1	11
631.297	1	-3
632.484	1	1
633.671	1	4
634.858	1	11
636.045	1	4
637.232	1	10
638.419	1	7
639.606	1	18
640.793	1	12
641.980	1	3
643.167	1	16
644.354	1	6
645.541	1	0
646.728	1	6
647.914	1	2
649.101	1	11
650.288	1	-1
651.474	1	13
652.661	1	7
653.847	1	4
655.034	1	-2
656.220	1	5
657.406	1	10
658.593	1	-2
659.779	1	-4
660.965	1	-3
662.152	1	2
663.338	1	3
664.524	1	-1
665.710	1	2
666.896	1	4
668.082	1	2
669.268	1	9
670.454	1	6
671.640	1	0
672.826	1	-14
674.011	1	11
675.197	1	-1
676.383	1	3
677.569	1	-9
678.754	1	-1
679.940	1	1
681.125	1	7
682.311	1	11
683.496	1	-8
684.682	1	11
685.867	1	3
687.053	1	2
688.238	1	3
688.746	1	11