File: Analysis/GaN_68K_200ms/GaN_sample E_spot4_UVVIS_68 K_200um_200 ms 2x2mm1_176.txt
340.368	1	2
341.565	1	-6
342.763	1	1
343.960	1	1
345.157	1	-3
346.354	1	3
347.552	1	5
348.749	1	5
349.946	1	13
351.143	1	-8
352.340	1	4
353.537	1	6
354.734	1	7
355.931	1	7
357.127	1	12
358.324	1	7
359.521	1	15
360.718	1	6
361.914	1	21
363.111	1	18
364.308	1	12
365.504	1	31
366.701	1	10
367.897	1	38
369.093	1	34
370.290	1	26
371.486	1	27
372.682	1	9
373.879	1	28
375.075	1	18
376.271	1	10
377.467	1	8
378.663	1	8
379.859	1	6
381.055	1	21
382.251	1	20
383.447	1	22
384.643	1	29
385.839	1	40
387.035	1	46
388.230	1	34
389.426	1	43
390.622	1	35
391.817	1	41
393.013	1	49
394.208	1	52
395.404	1	39
396.599	1	35
397.795	1	39
398.990	1	53
400.186	1	45
401.381	1	38
402.576	1	36
403.771	1	15
404.967	1	37
406.162	1	23
407.357	1	25
408.552	1	30
409.747	1	15
410.942	1	22
412.137	1	25
413.332	1	22
414.526	1	20
415.721	1	19
416.916	1	17
418.111	1	19
419.305	1	24
420.500	1	19
421.695	1	10
422.889	1	17
424.084	1	22
425.278	1	5
426.472	1	8
427.667	1	25
428.861	1	16
430.055	1	12
431.250	1	-1
432.444	1	13
433.638	1	6
434.832	1	8
436.026	1	16
437.220	1	23
438.414	1	20
439.608	1	13
440.802	1	8
441.996	1	2
443.190	1	2
444.384	1	7
445.578	1	17
446.771	1	4
447.965	1	0
449.159	1	2
450.352	1	13
451.546	1	15
452.739	1	8
453.933	1	17
455.126	1	13
456.320	1	10
457.513	1	20
458.706	1	4
459.899	1	11
461.093	1	8
462.286	1	8
463.479	1	16
464.672	1	6
465.865	1	10
467.058	1	7
468.251	1	6
469.444	1	2
470.637	1	22
471.830	1	22
473.023	1	3
474.215	1	-2
475.408	1	12
476.601	1	6
477.793	1	13
478.986	1	0
480.179	1	-1
481.371	1	12
482.564	1	-3
483.756	1	18
484.948	1	2
486.141	1	-5
487.333	1	11
488.525	1	8
489.718	1	6
490.910	1	6
492.102	1	16
493.294	1	9
494.486	1	15
495.678	1	19
496.870	1	5
498.062	1	12
499.254	1	12
500.446	1	20
501.638	1	11
502.829	1	13
504.021	1	28
505.213	1	15
506.404	1	10
507.596	1	16
508.788	1	10
509.979	1	15
511.171	1	28
512.362	1	13
513.553	1	16
514.745	1	16
515.936	1	25
517.127	1	26
518.319	1	24
519.510	1	18
520.701	1	31
521.892	1	11
523.083	1	16
524.274	1	5
525.465	1	22
526.656	1	41
527.847	1	26
529.038	1	32
530.229	1	31
531.419	1	31
532.610	1	24
533.801	1	14
534.991	1	30
536.182	1	32
537.373	1	24
538.563	1	15
539.754	1	17
540.944	1	20
542.134	1	32
543.325	1	19
544.515	1	25
545.705	1	25
546.896	1	19
548.086	1	27
549.276	1	28
550.466	1	16
551.656	1	19
552.846	1	26
554.036	1	28
555.226	1	10
556.416	1	24
557.606	1	9
558.796	1	23
559.986	1	13
561.175	1	17
562.365	1	9
563.555	1	23
564.744	1	24
565.934	1	22
567.123	1	23
568.313	1	13
569.502	1	15
570.692	1	11
571.881	1	11
573.070	1	17
574.260	1	9
575.449	1	18
576.638	1	15
577.827	1	9
579.016	1	19
580.205	1	7
581.394	1	13
582.583	1	14
583.772	1	14
584.961	1	11
586.150	1	8
587.339	1	16
588.528	1	15
589.717	1	3
590.905	1	17
592.094	1	7
593.283	1	11
594.471	1	14
595.660	1	7
596.848	1	12
598.037	1	5
599.225	1	9
600.413	1	8
601.602	1	11
602.790	1	6
603.978	1	9
605.166	1	-2
606.355	1	15
607.543	1	-3
608.731	1	4
609.919	1	5
611.107	1	9
612.295	1	3
613.483	1	10
614.671	1	13
615.858	1	14
617.046	1	8
618.234	1	8
619.422	1	7
620.609	1	4
621.797	1	0
622.985	1	5
624.172	1	13
625.360	1	7
626.547	1	9
627.735	1	6
628.922	1	7
630.109	1	-1
631.297	1	-1
632.484	1	7
633.671	1	5
634.858	1	8
636.045	1	5
637.232	1	1
638.419	1	10
639.606	1	16
640.793	1	7
641.980	1	4
643.167	1	8
644.354	1	7
645.541	1	-1
646.728	1	6
647.914	1	-1
649.101	1	7
650.288	1	-3
651.474	1	10
652.661	1	9
653.847	1	8
655.034	1	9
656.220	1	11
657.406	1	4
658.593	1	-6
659.779	1	-1
660.965	1	3
662.152	1	5
663.338	1	2
664.524	1	5
665.710	1	2
666.896	1	5
668.082	1	6
669.268	1	-2
670.454	1	2
671.640	1	-13
672.826	1	-6
674.011	1	2
675.197	1	0
676.383	1	6
677.569	1	5
678.754	1	4
679.940	1	-7
681.125	1	10
682.311	1	-2
683.496	1	-7
684.682	1	5
685.867	1	1
687.053	1	15
688.238	1	5
688.746	1	9