File: Analysis/GaN_68K_200ms/GaN_sample E_spot4_UVVIS_68 K_200um_200 ms 2x2mm1_436.txt
340.368	1	4
341.565	1	-4
342.763	1	0
343.960	1	-4
345.157	1	3
346.354	1	-6
347.552	1	8
348.749	1	-1
349.946	1	-1
351.143	1	-13
352.340	1	-1
353.537	1	1
354.734	1	0
355.931	1	6
357.127	1	7
358.324	1	-4
359.521	1	-3
360.718	1	-10
361.914	1	-6
363.111	1	9
364.308	1	-6
365.504	1	-8
366.701	1	-2
367.897	1	3
369.093	1	2
370.290	1	-7
371.486	1	12
372.682	1	4
373.879	1	15
375.075	1	6
376.271	1	1
377.467	1	-11
378.663	1	-4
379.859	1	-4
381.055	1	-3
382.251	1	2
383.447	1	8
384.643	1	16
385.839	1	4
387.035	1	-1
388.230	1	7
389.426	1	11
390.622	1	2
391.817	1	6
393.013	1	9
394.208	1	13
395.404	1	6
396.599	1	14
397.795	1	6
398.990	1	-2
400.186	1	11
401.381	1	8
402.576	1	20
403.771	1	2
404.967	1	6
406.162	1	-1
407.357	1	2
408.552	1	6
409.747	1	-5
410.942	1	3
412.137	1	23
413.332	1	-6
414.526	1	2
415.721	1	-1
416.916	1	0
418.111	1	2
419.305	1	3
420.500	1	-3
421.695	1	5
422.889	1	8
424.084	1	-1
425.278	1	0
426.472	1	-6
427.667	1	14
428.861	1	-2
430.055	1	8
431.250	1	-13
432.444	1	10
433.638	1	2
434.832	1	0
436.026	1	6
437.220	1	10
438.414	1	3
439.608	1	9
440.802	1	1
441.996	1	-1
443.190	1	-9
444.384	1	6
445.578	1	10
446.771	1	-8
447.965	1	2
449.159	1	-1
450.352	1	13
451.546	1	3
452.739	1	-2
453.933	1	7
455.126	1	-4
456.320	1	2
457.513	1	11
458.706	1	8
459.899	1	14
461.093	1	10
462.286	1	9
463.479	1	9
464.672	1	-4
465.865	1	3
467.058	1	10
468.251	1	4
469.444	1	-1
470.637	1	5
471.830	1	15
473.023	1	-4
474.215	1	-7
475.408	1	0
476.601	1	-2
477.793	1	8
478.986	1	3
480.179	1	8
481.371	1	3
482.564	1	-8
483.756	1	9
484.948	1	1
486.141	1	-7
487.333	1	7
488.525	1	-1
489.718	1	0
490.910	1	-2
492.102	1	5
493.294	1	4
494.486	1	3
495.678	1	1
496.870	1	0
498.062	1	-4
499.254	1	2
500.446	1	8
501.638	1	1
502.829	1	2
504.021	1	17
505.213	1	1
506.404	1	-4
507.596	1	5
508.788	1	3
509.979	1	-3
511.171	1	13
512.362	1	6
513.553	1	-7
514.745	1	1
515.936	1	3
517.127	1	-5
518.319	1	-6
519.510	1	6
520.701	1	13
521.892	1	-2
523.083	1	9
524.274	1	-10
525.465	1	7
526.656	1	8
527.847	1	-2
529.038	1	1
530.229	1	11
531.419	1	12
532.610	1	9
533.801	1	0
534.991	1	6
536.182	1	4
537.373	1	0
538.563	1	2
539.754	1	7
540.944	1	3
542.134	1	11
543.325	1	-3
544.515	1	10
545.705	1	5
546.896	1	3
548.086	1	14
549.276	1	8
550.466	1	-4
551.656	1	-1
552.846	1	4
554.036	1	6
555.226	1	-8
556.416	1	-2
557.606	1	1
558.796	1	6
559.986	1	-5
561.175	1	-1
562.365	1	4
563.555	1	8
564.744	1	10
565.934	1	6
567.123	1	7
568.313	1	-2
569.502	1	6
570.692	1	7
571.881	1	9
573.070	1	9
574.260	1	1
575.449	1	6
576.638	1	-4
577.827	1	14
579.016	1	16
580.205	1	1
581.394	1	1
582.583	1	-6
583.772	1	5
584.961	1	8
586.150	1	3
587.339	1	9
588.528	1	7
589.717	1	4
590.905	1	0
592.094	1	-1
593.283	1	10
594.471	1	14
595.660	1	3
596.848	1	12
598.037	1	9
599.225	1	4
600.413	1	-5
601.602	1	1
602.790	1	7
603.978	1	1
605.166	1	-11
606.355	1	-1
607.543	1	-7
608.731	1	-6
609.919	1	0
611.107	1	15
612.295	1	7
613.483	1	6
614.671	1	5
615.858	1	9
617.046	1	12
618.234	1	0
619.422	1	3
620.609	1	0
621.797	1	-5
622.985	1	1
624.172	1	15
625.360	1	5
626.547	1	4
627.735	1	0
628.922	1	-2
630.109	1	4
631.297	1	-1
632.484	1	-1
633.671	1	5
634.858	1	5
636.045	1	-3
637.232	1	3
638.419	1	7
639.606	1	13
640.793	1	2
641.980	1	3
643.167	1	9
644.354	1	0
645.541	1	3
646.728	1	2
647.914	1	4
649.101	1	1
650.288	1	-9
651.474	1	12
652.661	1	4
653.847	1	-4
655.034	1	-4
656.220	1	2
657.406	1	-1
658.593	1	-4
659.779	1	-5
660.965	1	5
662.152	1	0
663.338	1	7
664.524	1	-14
665.710	1	-4
666.896	1	4
668.082	1	-9
669.268	1	0
670.454	1	3
671.640	1	-12
672.826	1	-18
674.011	1	6
675.197	1	-3
676.383	1	-2
677.569	1	-8
678.754	1	-6
679.940	1	-1
681.125	1	-1
682.311	1	8
683.496	1	-4
684.682	1	6
685.867	1	9
687.053	1	13
688.238	1	0
688.746	1	5