File: Analysis/GaN_68K_200ms/GaN_sample E_spot4_UVVIS_68 K_200um_200 ms 2x2mm1_124.txt
340.368	1	4
341.565	1	-2
342.763	1	11
343.960	1	4
345.157	1	12
346.354	1	8
347.552	1	3
348.749	1	8
349.946	1	13
351.143	1	9
352.340	1	10
353.537	1	10
354.734	1	13
355.931	1	7
357.127	1	21
358.324	1	16
359.521	1	37
360.718	1	46
361.914	1	66
363.111	1	126
364.308	1	181
365.504	1	266
366.701	1	337
367.897	1	314
369.093	1	274
370.290	1	209
371.486	1	175
372.682	1	134
373.879	1	134
375.075	1	106
376.271	1	88
377.467	1	79
378.663	1	77
379.859	1	81
381.055	1	109
382.251	1	145
383.447	1	234
384.643	1	332
385.839	1	418
387.035	1	478
388.230	1	462
389.426	1	442
390.622	1	429
391.817	1	401
393.013	1	390
394.208	1	368
395.404	1	384
396.599	1	402
397.795	1	434
398.990	1	424
400.186	1	386
401.381	1	329
402.576	1	296
403.771	1	282
404.967	1	281
406.162	1	263
407.357	1	261
408.552	1	248
409.747	1	238
410.942	1	215
412.137	1	219
413.332	1	195
414.526	1	166
415.721	1	148
416.916	1	145
418.111	1	144
419.305	1	142
420.500	1	133
421.695	1	133
422.889	1	108
424.084	1	106
425.278	1	89
426.472	1	81
427.667	1	93
428.861	1	85
430.055	1	78
431.250	1	67
432.444	1	69
433.638	1	62
434.832	1	53
436.026	1	70
437.220	1	64
438.414	1	47
439.608	1	45
440.802	1	56
441.996	1	37
443.190	1	30
444.384	1	50
445.578	1	47
446.771	1	38
447.965	1	38
449.159	1	31
450.352	1	34
451.546	1	35
452.739	1	32
453.933	1	40
455.126	1	37
456.320	1	26
457.513	1	33
458.706	1	26
459.899	1	37
461.093	1	39
462.286	1	25
463.479	1	46
464.672	1	25
465.865	1	12
467.058	1	43
468.251	1	21
469.444	1	24
470.637	1	33
471.830	1	38
473.023	1	13
474.215	1	20
475.408	1	16
476.601	1	21
477.793	1	29
478.986	1	11
480.179	1	23
481.371	1	26
482.564	1	17
483.756	1	37
484.948	1	26
486.141	1	22
487.333	1	42
488.525	1	26
489.718	1	44
490.910	1	44
492.102	1	42
493.294	1	51
494.486	1	53
495.678	1	53
496.870	1	56
498.062	1	57
499.254	1	59
500.446	1	80
501.638	1	76
502.829	1	72
504.021	1	97
505.213	1	90
506.404	1	93
507.596	1	89
508.788	1	102
509.979	1	112
511.171	1	137
512.362	1	123
513.553	1	115
514.745	1	119
515.936	1	123
517.127	1	141
518.319	1	141
519.510	1	148
520.701	1	168
521.892	1	138
523.083	1	155
524.274	1	156
525.465	1	161
526.656	1	184
527.847	1	163
529.038	1	183
530.229	1	173
531.419	1	201
532.610	1	160
533.801	1	184
534.991	1	163
536.182	1	175
537.373	1	161
538.563	1	159
539.754	1	146
540.944	1	151
542.134	1	164
543.325	1	137
544.515	1	149
545.705	1	141
546.896	1	138
548.086	1	144
549.276	1	154
550.466	1	140
551.656	1	139
552.846	1	143
554.036	1	142
555.226	1	120
556.416	1	127
557.606	1	116
558.796	1	111
559.986	1	108
561.175	1	108
562.365	1	105
563.555	1	102
564.744	1	109
565.934	1	90
567.123	1	109
568.313	1	73
569.502	1	94
570.692	1	79
571.881	1	90
573.070	1	79
574.260	1	69
575.449	1	73
576.638	1	77
577.827	1	66
579.016	1	73
580.205	1	62
581.394	1	59
582.583	1	53
583.772	1	64
584.961	1	71
586.150	1	58
587.339	1	51
588.528	1	52
589.717	1	53
590.905	1	48
592.094	1	46
593.283	1	51
594.471	1	49
595.660	1	53
596.848	1	49
598.037	1	41
599.225	1	42
600.413	1	29
601.602	1	47
602.790	1	36
603.978	1	42
605.166	1	25
606.355	1	45
607.543	1	28
608.731	1	34
609.919	1	37
611.107	1	29
612.295	1	27
613.483	1	43
614.671	1	30
615.858	1	30
617.046	1	23
618.234	1	17
619.422	1	27
620.609	1	21
621.797	1	22
622.985	1	21
624.172	1	24
625.360	1	18
626.547	1	24
627.735	1	33
628.922	1	22
630.109	1	12
631.297	1	16
632.484	1	12
633.671	1	24
634.858	1	26
636.045	1	16
637.232	1	22
638.419	1	23
639.606	1	26
640.793	1	15
641.980	1	20
643.167	1	20
644.354	1	11
645.541	1	8
646.728	1	15
647.914	1	12
649.101	1	13
650.288	1	7
651.474	1	20
652.661	1	19
653.847	1	17
655.034	1	19
656.220	1	22
657.406	1	10
658.593	1	5
659.779	1	4
660.965	1	10
662.152	1	19
663.338	1	9
664.524	1	10
665.710	1	7
666.896	1	5
668.082	1	3
669.268	1	16
670.454	1	14
671.640	1	-2
672.826	1	5
674.011	1	11
675.197	1	12
676.383	1	18
677.569	1	10
678.754	1	4
679.940	1	11
681.125	1	16
682.311	1	3
683.496	1	7
684.682	1	18
685.867	1	10
687.053	1	18
688.238	1	27
688.746	1	23