File: Analysis/GaN_68K_200ms/GaN_sample E_spot4_UVVIS_68 K_200um_200 ms 2x2mm1_389.txt
340.368	1	4
341.565	1	-2
342.763	1	-2
343.960	1	-14
345.157	1	2
346.354	1	-5
347.552	1	-4
348.749	1	3
349.946	1	4
351.143	1	-9
352.340	1	-2
353.537	1	-8
354.734	1	-8
355.931	1	-4
357.127	1	5
358.324	1	0
359.521	1	-7
360.718	1	-4
361.914	1	4
363.111	1	8
364.308	1	3
365.504	1	-12
366.701	1	1
367.897	1	-2
369.093	1	-3
370.290	1	3
371.486	1	9
372.682	1	-2
373.879	1	14
375.075	1	11
376.271	1	-2
377.467	1	-4
378.663	1	-7
379.859	1	10
381.055	1	-1
382.251	1	2
383.447	1	13
384.643	1	8
385.839	1	3
387.035	1	5
388.230	1	9
389.426	1	9
390.622	1	-3
391.817	1	9
393.013	1	14
394.208	1	17
395.404	1	19
396.599	1	9
397.795	1	8
398.990	1	3
400.186	1	6
401.381	1	12
402.576	1	14
403.771	1	2
404.967	1	5
406.162	1	-4
407.357	1	5
408.552	1	4
409.747	1	-2
410.942	1	6
412.137	1	7
413.332	1	0
414.526	1	7
415.721	1	6
416.916	1	-3
418.111	1	1
419.305	1	4
420.500	1	4
421.695	1	-1
422.889	1	0
424.084	1	5
425.278	1	-1
426.472	1	3
427.667	1	12
428.861	1	-1
430.055	1	3
431.250	1	-7
432.444	1	6
433.638	1	-5
434.832	1	-3
436.026	1	-2
437.220	1	15
438.414	1	6
439.608	1	7
440.802	1	5
441.996	1	7
443.190	1	-2
444.384	1	4
445.578	1	3
446.771	1	3
447.965	1	5
449.159	1	-4
450.352	1	4
451.546	1	5
452.739	1	1
453.933	1	11
455.126	1	-3
456.320	1	1
457.513	1	7
458.706	1	7
459.899	1	10
461.093	1	3
462.286	1	16
463.479	1	15
464.672	1	3
465.865	1	-7
467.058	1	5
468.251	1	0
469.444	1	5
470.637	1	9
471.830	1	11
473.023	1	-6
474.215	1	2
475.408	1	4
476.601	1	-2
477.793	1	2
478.986	1	2
480.179	1	4
481.371	1	-3
482.564	1	-11
483.756	1	3
484.948	1	-1
486.141	1	-1
487.333	1	5
488.525	1	2
489.718	1	-2
490.910	1	-2
492.102	1	-4
493.294	1	11
494.486	1	3
495.678	1	18
496.870	1	-5
498.062	1	-4
499.254	1	0
500.446	1	11
501.638	1	3
502.829	1	6
504.021	1	15
505.213	1	3
506.404	1	-2
507.596	1	8
508.788	1	-1
509.979	1	3
511.171	1	19
512.362	1	4
513.553	1	1
514.745	1	-3
515.936	1	16
517.127	1	4
518.319	1	11
519.510	1	-4
520.701	1	11
521.892	1	-2
523.083	1	-4
524.274	1	-1
525.465	1	6
526.656	1	17
527.847	1	-3
529.038	1	9
530.229	1	4
531.419	1	10
532.610	1	8
533.801	1	6
534.991	1	11
536.182	1	-4
537.373	1	-2
538.563	1	7
539.754	1	1
540.944	1	2
542.134	1	10
543.325	1	-6
544.515	1	0
545.705	1	14
546.896	1	-4
548.086	1	8
549.276	1	9
550.466	1	2
551.656	1	-5
552.846	1	6
554.036	1	3
555.226	1	-6
556.416	1	0
557.606	1	-9
558.796	1	-3
559.986	1	5
561.175	1	5
562.365	1	5
563.555	1	1
564.744	1	5
565.934	1	13
567.123	1	15
568.313	1	-5
569.502	1	5
570.692	1	3
571.881	1	0
573.070	1	1
574.260	1	-2
575.449	1	0
576.638	1	-6
577.827	1	13
579.016	1	11
580.205	1	-2
581.394	1	-9
582.583	1	-4
583.772	1	10
584.961	1	0
586.150	1	1
587.339	1	11
588.528	1	3
589.717	1	4
590.905	1	13
592.094	1	-6
593.283	1	2
594.471	1	11
595.660	1	-6
596.848	1	7
598.037	1	-2
599.225	1	-1
600.413	1	12
601.602	1	-2
602.790	1	-3
603.978	1	-1
605.166	1	4
606.355	1	21
607.543	1	-8
608.731	1	-11
609.919	1	0
611.107	1	15
612.295	1	4
613.483	1	8
614.671	1	-2
615.858	1	-5
617.046	1	-1
618.234	1	2
619.422	1	6
620.609	1	8
621.797	1	8
622.985	1	-1
624.172	1	11
625.360	1	-3
626.547	1	7
627.735	1	-2
628.922	1	0
630.109	1	1
631.297	1	3
632.484	1	-7
633.671	1	4
634.858	1	15
636.045	1	0
637.232	1	4
638.419	1	2
639.606	1	16
640.793	1	6
641.980	1	1
643.167	1	-2
644.354	1	-3
645.541	1	-7
646.728	1	9
647.914	1	2
649.101	1	3
650.288	1	0
651.474	1	4
652.661	1	4
653.847	1	-2
655.034	1	-4
656.220	1	2
657.406	1	12
658.593	1	-12
659.779	1	-10
660.965	1	-2
662.152	1	-8
663.338	1	4
664.524	1	-10
665.710	1	1
666.896	1	-1
668.082	1	-4
669.268	1	7
670.454	1	2
671.640	1	-15
672.826	1	-9
674.011	1	16
675.197	1	-1
676.383	1	4
677.569	1	2
678.754	1	-3
679.940	1	0
681.125	1	6
682.311	1	6
683.496	1	3
684.682	1	2
685.867	1	-2
687.053	1	0
688.238	1	-3
688.746	1	3