File: Analysis/GaN_68K_200ms/GaN_sample E_spot4_UVVIS_68 K_200um_200 ms 2x2mm1_7.txt
340.368	1	-2
341.565	1	-5
342.763	1	-3
343.960	1	2
345.157	1	11
346.354	1	3
347.552	1	-6
348.749	1	3
349.946	1	8
351.143	1	-5
352.340	1	2
353.537	1	5
354.734	1	-11
355.931	1	0
357.127	1	1
358.324	1	3
359.521	1	-2
360.718	1	2
361.914	1	2
363.111	1	9
364.308	1	1
365.504	1	-10
366.701	1	-4
367.897	1	3
369.093	1	-6
370.290	1	-2
371.486	1	5
372.682	1	-1
373.879	1	6
375.075	1	14
376.271	1	-2
377.467	1	-8
378.663	1	-7
379.859	1	-6
381.055	1	7
382.251	1	3
383.447	1	4
384.643	1	1
385.839	1	8
387.035	1	-1
388.230	1	-2
389.426	1	3
390.622	1	-9
391.817	1	-3
393.013	1	13
394.208	1	7
395.404	1	1
396.599	1	8
397.795	1	-5
398.990	1	6
400.186	1	4
401.381	1	6
402.576	1	13
403.771	1	6
404.967	1	3
406.162	1	-7
407.357	1	7
408.552	1	7
409.747	1	1
410.942	1	7
412.137	1	11
413.332	1	3
414.526	1	6
415.721	1	2
416.916	1	3
418.111	1	-8
419.305	1	-1
420.500	1	-2
421.695	1	3
422.889	1	-3
424.084	1	-3
425.278	1	-2
426.472	1	5
427.667	1	6
428.861	1	1
430.055	1	6
431.250	1	-13
432.444	1	6
433.638	1	-9
434.832	1	-5
436.026	1	0
437.220	1	12
438.414	1	5
439.608	1	-3
440.802	1	10
441.996	1	-4
443.190	1	-4
444.384	1	3
445.578	1	-4
446.771	1	7
447.965	1	-6
449.159	1	-9
450.352	1	3
451.546	1	4
452.739	1	-5
453.933	1	7
455.126	1	2
456.320	1	1
457.513	1	5
458.706	1	10
459.899	1	9
461.093	1	10
462.286	1	5
463.479	1	12
464.672	1	5
465.865	1	-11
467.058	1	7
468.251	1	-2
469.444	1	-5
470.637	1	7
471.830	1	13
473.023	1	-10
474.215	1	2
475.408	1	3
476.601	1	6
477.793	1	13
478.986	1	3
480.179	1	2
481.371	1	3
482.564	1	-4
483.756	1	-1
484.948	1	-2
486.141	1	-9
487.333	1	4
488.525	1	3
489.718	1	1
490.910	1	4
492.102	1	-9
493.294	1	11
494.486	1	8
495.678	1	2
496.870	1	-2
498.062	1	4
499.254	1	-2
500.446	1	4
501.638	1	-4
502.829	1	5
504.021	1	11
505.213	1	2
506.404	1	-1
507.596	1	-5
508.788	1	-4
509.979	1	-3
511.171	1	9
512.362	1	-2
513.553	1	-8
514.745	1	-7
515.936	1	-2
517.127	1	1
518.319	1	-3
519.510	1	4
520.701	1	-3
521.892	1	-10
523.083	1	-10
524.274	1	0
525.465	1	0
526.656	1	18
527.847	1	-3
529.038	1	9
530.229	1	2
531.419	1	5
532.610	1	0
533.801	1	6
534.991	1	5
536.182	1	-1
537.373	1	-6
538.563	1	5
539.754	1	0
540.944	1	2
542.134	1	4
543.325	1	-2
544.515	1	4
545.705	1	0
546.896	1	3
548.086	1	2
549.276	1	5
550.466	1	-3
551.656	1	-2
552.846	1	3
554.036	1	7
555.226	1	-2
556.416	1	7
557.606	1	-10
558.796	1	-8
559.986	1	-6
561.175	1	-2
562.365	1	2
563.555	1	12
564.744	1	6
565.934	1	1
567.123	1	10
568.313	1	7
569.502	1	9
570.692	1	4
571.881	1	4
573.070	1	1
574.260	1	2
575.449	1	2
576.638	1	0
577.827	1	6
579.016	1	18
580.205	1	5
581.394	1	-2
582.583	1	-10
583.772	1	7
584.961	1	3
586.150	1	-2
587.339	1	7
588.528	1	1
589.717	1	0
590.905	1	5
592.094	1	1
593.283	1	12
594.471	1	4
595.660	1	-1
596.848	1	3
598.037	1	5
599.225	1	3
600.413	1	-2
601.602	1	2
602.790	1	2
603.978	1	3
605.166	1	-8
606.355	1	3
607.543	1	-7
608.731	1	-7
609.919	1	-1
611.107	1	10
612.295	1	3
613.483	1	9
614.671	1	5
615.858	1	16
617.046	1	2
618.234	1	-3
619.422	1	5
620.609	1	8
621.797	1	4
622.985	1	6
624.172	1	10
625.360	1	-3
626.547	1	-3
627.735	1	2
628.922	1	-4
630.109	1	-5
631.297	1	2
632.484	1	0
633.671	1	-1
634.858	1	1
636.045	1	-1
637.232	1	2
638.419	1	6
639.606	1	10
640.793	1	4
641.980	1	-4
643.167	1	7
644.354	1	1
645.541	1	-11
646.728	1	3
647.914	1	1
649.101	1	3
650.288	1	0
651.474	1	1
652.661	1	2
653.847	1	-2
655.034	1	-6
656.220	1	2
657.406	1	9
658.593	1	-6
659.779	1	1
660.965	1	3
662.152	1	4
663.338	1	-1
664.524	1	-11
665.710	1	-5
666.896	1	-5
668.082	1	-9
669.268	1	4
670.454	1	3
671.640	1	-10
672.826	1	-10
674.011	1	4
675.197	1	-2
676.383	1	-5
677.569	1	1
678.754	1	-11
679.940	1	-4
681.125	1	8
682.311	1	-2
683.496	1	-13
684.682	1	10
685.867	1	-6
687.053	1	11
688.238	1	9
688.746	1	5