File: Analysis/GaN_68K_200ms/GaN_sample E_spot4_UVVIS_68 K_200um_200 ms 2x2mm1_686.txt
340.368	1	-1
341.565	1	-8
342.763	1	-3
343.960	1	-9
345.157	1	1
346.354	1	1
347.552	1	-4
348.749	1	-1
349.946	1	2
351.143	1	-11
352.340	1	0
353.537	1	1
354.734	1	-1
355.931	1	11
357.127	1	3
358.324	1	-3
359.521	1	-3
360.718	1	4
361.914	1	-3
363.111	1	6
364.308	1	-2
365.504	1	2
366.701	1	0
367.897	1	-8
369.093	1	-1
370.290	1	-8
371.486	1	4
372.682	1	0
373.879	1	18
375.075	1	0
376.271	1	-5
377.467	1	0
378.663	1	-8
379.859	1	-7
381.055	1	7
382.251	1	-5
383.447	1	0
384.643	1	14
385.839	1	7
387.035	1	8
388.230	1	2
389.426	1	3
390.622	1	-2
391.817	1	-3
393.013	1	3
394.208	1	7
395.404	1	-1
396.599	1	0
397.795	1	7
398.990	1	-3
400.186	1	2
401.381	1	17
402.576	1	25
403.771	1	2
404.967	1	7
406.162	1	-3
407.357	1	-3
408.552	1	-3
409.747	1	2
410.942	1	5
412.137	1	10
413.332	1	-1
414.526	1	0
415.721	1	7
416.916	1	-6
418.111	1	-1
419.305	1	-3
420.500	1	1
421.695	1	8
422.889	1	4
424.084	1	3
425.278	1	-14
426.472	1	-5
427.667	1	5
428.861	1	-2
430.055	1	2
431.250	1	-12
432.444	1	5
433.638	1	-3
434.832	1	-11
436.026	1	15
437.220	1	6
438.414	1	-3
439.608	1	-2
440.802	1	3
441.996	1	0
443.190	1	-7
444.384	1	5
445.578	1	-3
446.771	1	5
447.965	1	-8
449.159	1	-10
450.352	1	15
451.546	1	0
452.739	1	-4
453.933	1	0
455.126	1	-3
456.320	1	-1
457.513	1	7
458.706	1	-5
459.899	1	7
461.093	1	5
462.286	1	4
463.479	1	4
464.672	1	7
465.865	1	-5
467.058	1	15
468.251	1	-6
469.444	1	-11
470.637	1	16
471.830	1	-1
473.023	1	-2
474.215	1	-3
475.408	1	9
476.601	1	4
477.793	1	1
478.986	1	0
480.179	1	4
481.371	1	3
482.564	1	-12
483.756	1	12
484.948	1	-5
486.141	1	-7
487.333	1	2
488.525	1	-3
489.718	1	-13
490.910	1	-8
492.102	1	-7
493.294	1	13
494.486	1	-4
495.678	1	17
496.870	1	-5
498.062	1	-6
499.254	1	1
500.446	1	5
501.638	1	2
502.829	1	0
504.021	1	13
505.213	1	2
506.404	1	-3
507.596	1	10
508.788	1	-6
509.979	1	-4
511.171	1	19
512.362	1	-3
513.553	1	-5
514.745	1	-2
515.936	1	-6
517.127	1	6
518.319	1	-8
519.510	1	3
520.701	1	2
521.892	1	-6
523.083	1	1
524.274	1	-8
525.465	1	-2
526.656	1	12
527.847	1	-7
529.038	1	8
530.229	1	3
531.419	1	10
532.610	1	6
533.801	1	3
534.991	1	1
536.182	1	-5
537.373	1	-1
538.563	1	10
539.754	1	-2
540.944	1	-6
542.134	1	4
543.325	1	1
544.515	1	7
545.705	1	4
546.896	1	3
548.086	1	2
549.276	1	10
550.466	1	2
551.656	1	-16
552.846	1	1
554.036	1	5
555.226	1	-8
556.416	1	5
557.606	1	-6
558.796	1	0
559.986	1	-5
561.175	1	0
562.365	1	2
563.555	1	11
564.744	1	-1
565.934	1	1
567.123	1	12
568.313	1	-6
569.502	1	-3
570.692	1	6
571.881	1	6
573.070	1	6
574.260	1	2
575.449	1	2
576.638	1	6
577.827	1	4
579.016	1	8
580.205	1	-2
581.394	1	-1
582.583	1	-7
583.772	1	-2
584.961	1	-2
586.150	1	1
587.339	1	0
588.528	1	4
589.717	1	3
590.905	1	5
592.094	1	3
593.283	1	3
594.471	1	0
595.660	1	-1
596.848	1	7
598.037	1	-5
599.225	1	-4
600.413	1	-6
601.602	1	0
602.790	1	-5
603.978	1	-3
605.166	1	-12
606.355	1	5
607.543	1	-4
608.731	1	-13
609.919	1	-21
611.107	1	2
612.295	1	1
613.483	1	2
614.671	1	2
615.858	1	2
617.046	1	-2
618.234	1	6
619.422	1	7
620.609	1	2
621.797	1	-3
622.985	1	7
624.172	1	4
625.360	1	-2
626.547	1	3
627.735	1	1
628.922	1	0
630.109	1	-1
631.297	1	-5
632.484	1	-4
633.671	1	-7
634.858	1	9
636.045	1	-5
637.232	1	8
638.419	1	11
639.606	1	10
640.793	1	6
641.980	1	1
643.167	1	4
644.354	1	2
645.541	1	-15
646.728	1	2
647.914	1	-16
649.101	1	4
650.288	1	-3
651.474	1	1
652.661	1	1
653.847	1	2
655.034	1	-7
656.220	1	2
657.406	1	15
658.593	1	-10
659.779	1	-6
660.965	1	7
662.152	1	-7
663.338	1	4
664.524	1	-7
665.710	1	-4
666.896	1	-9
668.082	1	-2
669.268	1	-2
670.454	1	-3
671.640	1	-10
672.826	1	-19
674.011	1	-1
675.197	1	-4
676.383	1	-5
677.569	1	-6
678.754	1	-5
679.940	1	1
681.125	1	1
682.311	1	0
683.496	1	3
684.682	1	1
685.867	1	1
687.053	1	-2
688.238	1	0
688.746	1	2