File: Analysis/GaN_68K_200ms/GaN_sample E_spot4_UVVIS_68 K_200um_200 ms 2x2mm1_737.txt
340.368	1	2
341.565	1	-10
342.763	1	-2
343.960	1	-1
345.157	1	10
346.354	1	-2
347.552	1	-1
348.749	1	-5
349.946	1	6
351.143	1	-6
352.340	1	-5
353.537	1	9
354.734	1	-11
355.931	1	4
357.127	1	2
358.324	1	-5
359.521	1	1
360.718	1	-10
361.914	1	-8
363.111	1	0
364.308	1	-5
365.504	1	-5
366.701	1	-4
367.897	1	-1
369.093	1	2
370.290	1	-3
371.486	1	0
372.682	1	-4
373.879	1	7
375.075	1	5
376.271	1	-6
377.467	1	-4
378.663	1	-5
379.859	1	-4
381.055	1	1
382.251	1	7
383.447	1	6
384.643	1	8
385.839	1	8
387.035	1	-5
388.230	1	4
389.426	1	3
390.622	1	1
391.817	1	2
393.013	1	9
394.208	1	7
395.404	1	-5
396.599	1	3
397.795	1	6
398.990	1	7
400.186	1	5
401.381	1	4
402.576	1	9
403.771	1	4
404.967	1	1
406.162	1	-5
407.357	1	-1
408.552	1	2
409.747	1	2
410.942	1	7
412.137	1	8
413.332	1	1
414.526	1	0
415.721	1	-10
416.916	1	-6
418.111	1	1
419.305	1	-6
420.500	1	0
421.695	1	10
422.889	1	3
424.084	1	4
425.278	1	-4
426.472	1	-2
427.667	1	5
428.861	1	-8
430.055	1	-6
431.250	1	-4
432.444	1	6
433.638	1	-4
434.832	1	-8
436.026	1	6
437.220	1	1
438.414	1	0
439.608	1	4
440.802	1	8
441.996	1	6
443.190	1	-8
444.384	1	0
445.578	1	11
446.771	1	-17
447.965	1	-2
449.159	1	-7
450.352	1	6
451.546	1	-10
452.739	1	2
453.933	1	7
455.126	1	-3
456.320	1	4
457.513	1	6
458.706	1	-4
459.899	1	1
461.093	1	10
462.286	1	2
463.479	1	3
464.672	1	-4
465.865	1	-6
467.058	1	6
468.251	1	-5
469.444	1	-1
470.637	1	23
471.830	1	16
473.023	1	-1
474.215	1	-2
475.408	1	5
476.601	1	-7
477.793	1	5
478.986	1	0
480.179	1	9
481.371	1	7
482.564	1	-3
483.756	1	14
484.948	1	-4
486.141	1	-9
487.333	1	4
488.525	1	4
489.718	1	-7
490.910	1	-2
492.102	1	-3
493.294	1	9
494.486	1	12
495.678	1	7
496.870	1	5
498.062	1	-1
499.254	1	6
500.446	1	2
501.638	1	-10
502.829	1	-2
504.021	1	20
505.213	1	3
506.404	1	-8
507.596	1	2
508.788	1	0
509.979	1	-11
511.171	1	9
512.362	1	-1
513.553	1	-7
514.745	1	2
515.936	1	7
517.127	1	-4
518.319	1	-4
519.510	1	-6
520.701	1	5
521.892	1	-12
523.083	1	-8
524.274	1	-4
525.465	1	-3
526.656	1	17
527.847	1	-3
529.038	1	9
530.229	1	-2
531.419	1	8
532.610	1	7
533.801	1	-11
534.991	1	5
536.182	1	5
537.373	1	-5
538.563	1	4
539.754	1	-1
540.944	1	-5
542.134	1	7
543.325	1	9
544.515	1	-3
545.705	1	8
546.896	1	-1
548.086	1	3
549.276	1	3
550.466	1	-4
551.656	1	-1
552.846	1	7
554.036	1	7
555.226	1	-7
556.416	1	-4
557.606	1	-7
558.796	1	1
559.986	1	-3
561.175	1	0
562.365	1	1
563.555	1	7
564.744	1	11
565.934	1	12
567.123	1	12
568.313	1	-6
569.502	1	-3
570.692	1	4
571.881	1	4
573.070	1	4
574.260	1	-6
575.449	1	9
576.638	1	-1
577.827	1	-1
579.016	1	13
580.205	1	0
581.394	1	-8
582.583	1	-6
583.772	1	-4
584.961	1	5
586.150	1	3
587.339	1	1
588.528	1	-1
589.717	1	-4
590.905	1	5
592.094	1	1
593.283	1	1
594.471	1	-4
595.660	1	-8
596.848	1	4
598.037	1	3
599.225	1	0
600.413	1	0
601.602	1	4
602.790	1	3
603.978	1	-1
605.166	1	1
606.355	1	6
607.543	1	-14
608.731	1	-5
609.919	1	3
611.107	1	12
612.295	1	1
613.483	1	11
614.671	1	1
615.858	1	5
617.046	1	-7
618.234	1	-4
619.422	1	3
620.609	1	-5
621.797	1	2
622.985	1	-2
624.172	1	9
625.360	1	-4
626.547	1	1
627.735	1	6
628.922	1	0
630.109	1	2
631.297	1	-1
632.484	1	-5
633.671	1	6
634.858	1	13
636.045	1	0
637.232	1	6
638.419	1	9
639.606	1	15
640.793	1	6
641.980	1	2
643.167	1	1
644.354	1	3
645.541	1	-4
646.728	1	3
647.914	1	-1
649.101	1	-8
650.288	1	2
651.474	1	7
652.661	1	0
653.847	1	3
655.034	1	-6
656.220	1	6
657.406	1	3
658.593	1	-13
659.779	1	-2
660.965	1	-6
662.152	1	4
663.338	1	-2
664.524	1	-5
665.710	1	-14
666.896	1	-1
668.082	1	1
669.268	1	5
670.454	1	0
671.640	1	-9
672.826	1	-16
674.011	1	6
675.197	1	-7
676.383	1	1
677.569	1	0
678.754	1	-2
679.940	1	2
681.125	1	4
682.311	1	-4
683.496	1	-2
684.682	1	8
685.867	1	1
687.053	1	-1
688.238	1	2
688.746	1	1