File: Analysis/GaN_68K_200ms/GaN_sample E_spot4_UVVIS_68 K_200um_200 ms 2x2mm1_165.txt
340.368	1	7
341.565	1	-3
342.763	1	1
343.960	1	-1
345.157	1	14
346.354	1	4
347.552	1	0
348.749	1	2
349.946	1	13
351.143	1	-5
352.340	1	-1
353.537	1	3
354.734	1	6
355.931	1	4
357.127	1	12
358.324	1	17
359.521	1	7
360.718	1	14
361.914	1	15
363.111	1	23
364.308	1	25
365.504	1	26
366.701	1	42
367.897	1	50
369.093	1	45
370.290	1	39
371.486	1	34
372.682	1	22
373.879	1	26
375.075	1	24
376.271	1	19
377.467	1	13
378.663	1	10
379.859	1	10
381.055	1	15
382.251	1	20
383.447	1	28
384.643	1	34
385.839	1	56
387.035	1	57
388.230	1	53
389.426	1	52
390.622	1	38
391.817	1	37
393.013	1	46
394.208	1	41
395.404	1	40
396.599	1	47
397.795	1	52
398.990	1	48
400.186	1	50
401.381	1	45
402.576	1	39
403.771	1	45
404.967	1	37
406.162	1	25
407.357	1	29
408.552	1	36
409.747	1	13
410.942	1	40
412.137	1	33
413.332	1	20
414.526	1	18
415.721	1	20
416.916	1	14
418.111	1	16
419.305	1	22
420.500	1	20
421.695	1	25
422.889	1	32
424.084	1	17
425.278	1	5
426.472	1	15
427.667	1	17
428.861	1	13
430.055	1	20
431.250	1	2
432.444	1	19
433.638	1	7
434.832	1	8
436.026	1	14
437.220	1	17
438.414	1	5
439.608	1	11
440.802	1	13
441.996	1	7
443.190	1	4
444.384	1	10
445.578	1	18
446.771	1	4
447.965	1	5
449.159	1	6
450.352	1	8
451.546	1	10
452.739	1	3
453.933	1	11
455.126	1	4
456.320	1	13
457.513	1	15
458.706	1	5
459.899	1	17
461.093	1	13
462.286	1	9
463.479	1	25
464.672	1	-2
465.865	1	0
467.058	1	19
468.251	1	3
469.444	1	3
470.637	1	21
471.830	1	20
473.023	1	1
474.215	1	0
475.408	1	9
476.601	1	6
477.793	1	10
478.986	1	7
480.179	1	6
481.371	1	7
482.564	1	-2
483.756	1	19
484.948	1	5
486.141	1	-1
487.333	1	17
488.525	1	1
489.718	1	-5
490.910	1	0
492.102	1	12
493.294	1	9
494.486	1	16
495.678	1	24
496.870	1	13
498.062	1	6
499.254	1	16
500.446	1	13
501.638	1	26
502.829	1	15
504.021	1	32
505.213	1	19
506.404	1	24
507.596	1	26
508.788	1	23
509.979	1	18
511.171	1	32
512.362	1	18
513.553	1	20
514.745	1	27
515.936	1	35
517.127	1	37
518.319	1	35
519.510	1	32
520.701	1	30
521.892	1	33
523.083	1	29
524.274	1	33
525.465	1	43
526.656	1	49
527.847	1	32
529.038	1	34
530.229	1	36
531.419	1	48
532.610	1	45
533.801	1	32
534.991	1	27
536.182	1	28
537.373	1	30
538.563	1	26
539.754	1	23
540.944	1	25
542.134	1	30
543.325	1	35
544.515	1	33
545.705	1	31
546.896	1	31
548.086	1	38
549.276	1	35
550.466	1	37
551.656	1	19
552.846	1	28
554.036	1	21
555.226	1	24
556.416	1	25
557.606	1	19
558.796	1	20
559.986	1	15
561.175	1	27
562.365	1	11
563.555	1	27
564.744	1	18
565.934	1	16
567.123	1	36
568.313	1	4
569.502	1	19
570.692	1	14
571.881	1	21
573.070	1	23
574.260	1	12
575.449	1	24
576.638	1	18
577.827	1	17
579.016	1	17
580.205	1	9
581.394	1	8
582.583	1	9
583.772	1	7
584.961	1	16
586.150	1	19
587.339	1	14
588.528	1	14
589.717	1	6
590.905	1	13
592.094	1	12
593.283	1	17
594.471	1	23
595.660	1	-5
596.848	1	14
598.037	1	9
599.225	1	9
600.413	1	4
601.602	1	14
602.790	1	11
603.978	1	6
605.166	1	4
606.355	1	18
607.543	1	-2
608.731	1	3
609.919	1	4
611.107	1	10
612.295	1	12
613.483	1	11
614.671	1	10
615.858	1	10
617.046	1	16
618.234	1	6
619.422	1	1
620.609	1	7
621.797	1	6
622.985	1	8
624.172	1	15
625.360	1	-1
626.547	1	0
627.735	1	9
628.922	1	1
630.109	1	11
631.297	1	0
632.484	1	8
633.671	1	7
634.858	1	19
636.045	1	2
637.232	1	-1
638.419	1	10
639.606	1	20
640.793	1	13
641.980	1	-3
643.167	1	18
644.354	1	7
645.541	1	-5
646.728	1	12
647.914	1	7
649.101	1	6
650.288	1	2
651.474	1	11
652.661	1	11
653.847	1	3
655.034	1	10
656.220	1	5
657.406	1	4
658.593	1	-3
659.779	1	4
660.965	1	7
662.152	1	6
663.338	1	-1
664.524	1	2
665.710	1	0
666.896	1	9
668.082	1	4
669.268	1	2
670.454	1	5
671.640	1	-8
672.826	1	-9
674.011	1	17
675.197	1	-1
676.383	1	4
677.569	1	-3
678.754	1	0
679.940	1	8
681.125	1	8
682.311	1	6
683.496	1	-6
684.682	1	10
685.867	1	2
687.053	1	7
688.238	1	5
688.746	1	-2