File: Analysis/GaN_68K_200ms/GaN_sample E_spot4_UVVIS_68 K_200um_200 ms 2x2mm1_302.txt
340.368	1	-3
341.565	1	-2
342.763	1	-5
343.960	1	-5
345.157	1	7
346.354	1	2
347.552	1	-2
348.749	1	-1
349.946	1	5
351.143	1	-11
352.340	1	4
353.537	1	-1
354.734	1	3
355.931	1	5
357.127	1	6
358.324	1	1
359.521	1	4
360.718	1	0
361.914	1	3
363.111	1	5
364.308	1	3
365.504	1	2
366.701	1	-3
367.897	1	8
369.093	1	6
370.290	1	6
371.486	1	12
372.682	1	-9
373.879	1	13
375.075	1	11
376.271	1	3
377.467	1	0
378.663	1	2
379.859	1	0
381.055	1	9
382.251	1	8
383.447	1	18
384.643	1	7
385.839	1	13
387.035	1	-3
388.230	1	5
389.426	1	17
390.622	1	-2
391.817	1	5
393.013	1	13
394.208	1	14
395.404	1	12
396.599	1	11
397.795	1	13
398.990	1	16
400.186	1	10
401.381	1	18
402.576	1	7
403.771	1	8
404.967	1	12
406.162	1	-2
407.357	1	4
408.552	1	12
409.747	1	6
410.942	1	8
412.137	1	20
413.332	1	7
414.526	1	6
415.721	1	3
416.916	1	7
418.111	1	5
419.305	1	5
420.500	1	8
421.695	1	1
422.889	1	13
424.084	1	6
425.278	1	-1
426.472	1	0
427.667	1	18
428.861	1	3
430.055	1	6
431.250	1	3
432.444	1	8
433.638	1	-2
434.832	1	-4
436.026	1	3
437.220	1	6
438.414	1	6
439.608	1	8
440.802	1	2
441.996	1	-3
443.190	1	-1
444.384	1	3
445.578	1	21
446.771	1	-1
447.965	1	-8
449.159	1	-5
450.352	1	3
451.546	1	12
452.739	1	-1
453.933	1	7
455.126	1	4
456.320	1	-1
457.513	1	12
458.706	1	6
459.899	1	17
461.093	1	12
462.286	1	10
463.479	1	8
464.672	1	5
465.865	1	-7
467.058	1	18
468.251	1	1
469.444	1	3
470.637	1	11
471.830	1	12
473.023	1	-5
474.215	1	0
475.408	1	5
476.601	1	1
477.793	1	1
478.986	1	0
480.179	1	2
481.371	1	8
482.564	1	-1
483.756	1	15
484.948	1	1
486.141	1	-2
487.333	1	9
488.525	1	2
489.718	1	5
490.910	1	2
492.102	1	0
493.294	1	17
494.486	1	0
495.678	1	10
496.870	1	-1
498.062	1	-2
499.254	1	-3
500.446	1	2
501.638	1	10
502.829	1	1
504.021	1	16
505.213	1	1
506.404	1	-7
507.596	1	7
508.788	1	11
509.979	1	10
511.171	1	10
512.362	1	8
513.553	1	-1
514.745	1	-1
515.936	1	6
517.127	1	6
518.319	1	3
519.510	1	-3
520.701	1	6
521.892	1	-1
523.083	1	-2
524.274	1	-10
525.465	1	1
526.656	1	17
527.847	1	3
529.038	1	4
530.229	1	7
531.419	1	13
532.610	1	4
533.801	1	6
534.991	1	15
536.182	1	9
537.373	1	4
538.563	1	-1
539.754	1	-5
540.944	1	0
542.134	1	1
543.325	1	1
544.515	1	3
545.705	1	10
546.896	1	8
548.086	1	10
549.276	1	14
550.466	1	3
551.656	1	-3
552.846	1	8
554.036	1	10
555.226	1	-11
556.416	1	4
557.606	1	-5
558.796	1	9
559.986	1	-4
561.175	1	1
562.365	1	10
563.555	1	17
564.744	1	9
565.934	1	7
567.123	1	26
568.313	1	-7
569.502	1	10
570.692	1	7
571.881	1	4
573.070	1	7
574.260	1	4
575.449	1	10
576.638	1	5
577.827	1	13
579.016	1	10
580.205	1	0
581.394	1	-4
582.583	1	-4
583.772	1	8
584.961	1	11
586.150	1	7
587.339	1	1
588.528	1	7
589.717	1	10
590.905	1	2
592.094	1	4
593.283	1	0
594.471	1	4
595.660	1	2
596.848	1	9
598.037	1	4
599.225	1	6
600.413	1	6
601.602	1	10
602.790	1	5
603.978	1	-2
605.166	1	-5
606.355	1	8
607.543	1	1
608.731	1	-1
609.919	1	3
611.107	1	12
612.295	1	4
613.483	1	0
614.671	1	5
615.858	1	5
617.046	1	3
618.234	1	-5
619.422	1	2
620.609	1	8
621.797	1	-2
622.985	1	5
624.172	1	13
625.360	1	-2
626.547	1	7
627.735	1	4
628.922	1	-2
630.109	1	3
631.297	1	-4
632.484	1	-8
633.671	1	2
634.858	1	8
636.045	1	5
637.232	1	10
638.419	1	11
639.606	1	11
640.793	1	12
641.980	1	1
643.167	1	4
644.354	1	6
645.541	1	-11
646.728	1	9
647.914	1	-7
649.101	1	2
650.288	1	6
651.474	1	4
652.661	1	2
653.847	1	4
655.034	1	3
656.220	1	0
657.406	1	3
658.593	1	-1
659.779	1	-2
660.965	1	9
662.152	1	6
663.338	1	-5
664.524	1	1
665.710	1	-3
666.896	1	-2
668.082	1	-8
669.268	1	0
670.454	1	3
671.640	1	-10
672.826	1	-8
674.011	1	8
675.197	1	-2
676.383	1	3
677.569	1	3
678.754	1	1
679.940	1	3
681.125	1	3
682.311	1	7
683.496	1	-1
684.682	1	0
685.867	1	5
687.053	1	5
688.238	1	-2
688.746	1	-2