File: Analysis/GaN_68K_200ms/GaN_sample E_spot4_UVVIS_68 K_200um_200 ms 2x2mm1_79.txt
340.368	1	-6
341.565	1	-3
342.763	1	1
343.960	1	-6
345.157	1	0
346.354	1	2
347.552	1	1
348.749	1	2
349.946	1	8
351.143	1	-6
352.340	1	2
353.537	1	1
354.734	1	4
355.931	1	3
357.127	1	6
358.324	1	6
359.521	1	-1
360.718	1	-5
361.914	1	1
363.111	1	-1
364.308	1	2
365.504	1	-1
366.701	1	-10
367.897	1	-1
369.093	1	-1
370.290	1	-2
371.486	1	13
372.682	1	2
373.879	1	1
375.075	1	-1
376.271	1	-2
377.467	1	3
378.663	1	4
379.859	1	0
381.055	1	6
382.251	1	6
383.447	1	5
384.643	1	14
385.839	1	4
387.035	1	-5
388.230	1	-1
389.426	1	15
390.622	1	-8
391.817	1	-4
393.013	1	10
394.208	1	11
395.404	1	4
396.599	1	5
397.795	1	8
398.990	1	8
400.186	1	9
401.381	1	13
402.576	1	14
403.771	1	2
404.967	1	3
406.162	1	-3
407.357	1	4
408.552	1	6
409.747	1	-1
410.942	1	0
412.137	1	2
413.332	1	-1
414.526	1	7
415.721	1	1
416.916	1	-13
418.111	1	3
419.305	1	0
420.500	1	7
421.695	1	-2
422.889	1	6
424.084	1	4
425.278	1	-7
426.472	1	-5
427.667	1	8
428.861	1	-9
430.055	1	4
431.250	1	-10
432.444	1	9
433.638	1	7
434.832	1	-9
436.026	1	4
437.220	1	5
438.414	1	1
439.608	1	6
440.802	1	-4
441.996	1	-2
443.190	1	-20
444.384	1	-1
445.578	1	9
446.771	1	-2
447.965	1	-9
449.159	1	-10
450.352	1	7
451.546	1	9
452.739	1	1
453.933	1	8
455.126	1	6
456.320	1	2
457.513	1	8
458.706	1	4
459.899	1	14
461.093	1	9
462.286	1	9
463.479	1	10
464.672	1	8
465.865	1	-5
467.058	1	10
468.251	1	-3
469.444	1	3
470.637	1	8
471.830	1	12
473.023	1	3
474.215	1	-5
475.408	1	10
476.601	1	0
477.793	1	10
478.986	1	-5
480.179	1	-3
481.371	1	4
482.564	1	-5
483.756	1	16
484.948	1	-11
486.141	1	-7
487.333	1	5
488.525	1	-3
489.718	1	-1
490.910	1	-8
492.102	1	-4
493.294	1	13
494.486	1	1
495.678	1	9
496.870	1	0
498.062	1	-1
499.254	1	1
500.446	1	8
501.638	1	0
502.829	1	9
504.021	1	12
505.213	1	-5
506.404	1	-2
507.596	1	2
508.788	1	2
509.979	1	-5
511.171	1	8
512.362	1	5
513.553	1	-3
514.745	1	3
515.936	1	-1
517.127	1	1
518.319	1	2
519.510	1	0
520.701	1	4
521.892	1	-6
523.083	1	6
524.274	1	0
525.465	1	1
526.656	1	9
527.847	1	-4
529.038	1	8
530.229	1	8
531.419	1	-6
532.610	1	10
533.801	1	9
534.991	1	1
536.182	1	-1
537.373	1	-2
538.563	1	0
539.754	1	1
540.944	1	-6
542.134	1	13
543.325	1	1
544.515	1	3
545.705	1	4
546.896	1	7
548.086	1	11
549.276	1	9
550.466	1	-6
551.656	1	-8
552.846	1	1
554.036	1	-1
555.226	1	-2
556.416	1	7
557.606	1	-3
558.796	1	0
559.986	1	2
561.175	1	-13
562.365	1	0
563.555	1	15
564.744	1	7
565.934	1	-1
567.123	1	14
568.313	1	2
569.502	1	6
570.692	1	1
571.881	1	7
573.070	1	8
574.260	1	3
575.449	1	7
576.638	1	11
577.827	1	8
579.016	1	6
580.205	1	-6
581.394	1	5
582.583	1	-11
583.772	1	0
584.961	1	4
586.150	1	14
587.339	1	7
588.528	1	4
589.717	1	9
590.905	1	14
592.094	1	14
593.283	1	1
594.471	1	4
595.660	1	3
596.848	1	7
598.037	1	14
599.225	1	1
600.413	1	-8
601.602	1	12
602.790	1	4
603.978	1	-2
605.166	1	-7
606.355	1	14
607.543	1	-7
608.731	1	-8
609.919	1	-1
611.107	1	8
612.295	1	7
613.483	1	6
614.671	1	0
615.858	1	5
617.046	1	15
618.234	1	4
619.422	1	-2
620.609	1	2
621.797	1	-3
622.985	1	2
624.172	1	13
625.360	1	-8
626.547	1	-4
627.735	1	13
628.922	1	-5
630.109	1	6
631.297	1	0
632.484	1	-6
633.671	1	5
634.858	1	6
636.045	1	4
637.232	1	4
638.419	1	3
639.606	1	17
640.793	1	6
641.980	1	-6
643.167	1	9
644.354	1	-6
645.541	1	-6
646.728	1	7
647.914	1	-5
649.101	1	2
650.288	1	-3
651.474	1	7
652.661	1	-1
653.847	1	-1
655.034	1	-2
656.220	1	3
657.406	1	1
658.593	1	-9
659.779	1	3
660.965	1	1
662.152	1	6
663.338	1	-2
664.524	1	-3
665.710	1	3
666.896	1	9
668.082	1	9
669.268	1	-4
670.454	1	3
671.640	1	-10
672.826	1	-12
674.011	1	13
675.197	1	4
676.383	1	3
677.569	1	0
678.754	1	-2
679.940	1	2
681.125	1	2
682.311	1	0
683.496	1	-6
684.682	1	9
685.867	1	0
687.053	1	7
688.238	1	5
688.746	1	9