File: Analysis/GaN_68K_200ms/GaN_sample E_spot4_UVVIS_68 K_200um_200 ms 2x2mm1_650.txt
340.368	1	-4
341.565	1	4
342.763	1	0
343.960	1	-15
345.157	1	1
346.354	1	-2
347.552	1	-1
348.749	1	5
349.946	1	8
351.143	1	-13
352.340	1	1
353.537	1	-2
354.734	1	-9
355.931	1	-7
357.127	1	-6
358.324	1	-4
359.521	1	-3
360.718	1	0
361.914	1	-7
363.111	1	10
364.308	1	-9
365.504	1	-3
366.701	1	-8
367.897	1	1
369.093	1	-4
370.290	1	-7
371.486	1	0
372.682	1	11
373.879	1	8
375.075	1	10
376.271	1	-6
377.467	1	0
378.663	1	0
379.859	1	-4
381.055	1	-3
382.251	1	2
383.447	1	10
384.643	1	-1
385.839	1	6
387.035	1	0
388.230	1	2
389.426	1	8
390.622	1	-1
391.817	1	-6
393.013	1	15
394.208	1	7
395.404	1	-3
396.599	1	-2
397.795	1	11
398.990	1	-1
400.186	1	11
401.381	1	4
402.576	1	11
403.771	1	1
404.967	1	8
406.162	1	-2
407.357	1	3
408.552	1	1
409.747	1	-7
410.942	1	3
412.137	1	8
413.332	1	2
414.526	1	-1
415.721	1	8
416.916	1	-10
418.111	1	-4
419.305	1	2
420.500	1	-6
421.695	1	0
422.889	1	4
424.084	1	7
425.278	1	-3
426.472	1	3
427.667	1	7
428.861	1	4
430.055	1	1
431.250	1	-7
432.444	1	2
433.638	1	0
434.832	1	-3
436.026	1	8
437.220	1	2
438.414	1	-2
439.608	1	-3
440.802	1	7
441.996	1	-3
443.190	1	-4
444.384	1	2
445.578	1	9
446.771	1	-2
447.965	1	-9
449.159	1	-4
450.352	1	9
451.546	1	1
452.739	1	-3
453.933	1	4
455.126	1	-1
456.320	1	-2
457.513	1	9
458.706	1	-4
459.899	1	3
461.093	1	4
462.286	1	13
463.479	1	5
464.672	1	-8
465.865	1	-7
467.058	1	11
468.251	1	-7
469.444	1	-1
470.637	1	17
471.830	1	19
473.023	1	-4
474.215	1	0
475.408	1	5
476.601	1	-3
477.793	1	7
478.986	1	4
480.179	1	-2
481.371	1	-5
482.564	1	-7
483.756	1	8
484.948	1	-8
486.141	1	-7
487.333	1	7
488.525	1	-5
489.718	1	-12
490.910	1	-3
492.102	1	-4
493.294	1	5
494.486	1	13
495.678	1	10
496.870	1	3
498.062	1	2
499.254	1	-1
500.446	1	9
501.638	1	2
502.829	1	-3
504.021	1	17
505.213	1	-6
506.404	1	-6
507.596	1	-1
508.788	1	-8
509.979	1	-11
511.171	1	0
512.362	1	-13
513.553	1	-6
514.745	1	3
515.936	1	5
517.127	1	9
518.319	1	-4
519.510	1	5
520.701	1	-2
521.892	1	-12
523.083	1	2
524.274	1	-3
525.465	1	-8
526.656	1	17
527.847	1	2
529.038	1	7
530.229	1	6
531.419	1	6
532.610	1	-6
533.801	1	6
534.991	1	3
536.182	1	-8
537.373	1	-10
538.563	1	1
539.754	1	-2
540.944	1	-5
542.134	1	5
543.325	1	-4
544.515	1	-4
545.705	1	8
546.896	1	6
548.086	1	4
549.276	1	9
550.466	1	4
551.656	1	-6
552.846	1	3
554.036	1	3
555.226	1	-3
556.416	1	0
557.606	1	-15
558.796	1	2
559.986	1	-6
561.175	1	3
562.365	1	-2
563.555	1	10
564.744	1	7
565.934	1	-3
567.123	1	13
568.313	1	-8
569.502	1	2
570.692	1	6
571.881	1	7
573.070	1	1
574.260	1	4
575.449	1	0
576.638	1	3
577.827	1	12
579.016	1	7
580.205	1	-3
581.394	1	0
582.583	1	-26
583.772	1	-4
584.961	1	2
586.150	1	-5
587.339	1	6
588.528	1	1
589.717	1	3
590.905	1	9
592.094	1	3
593.283	1	8
594.471	1	2
595.660	1	-11
596.848	1	-1
598.037	1	-7
599.225	1	5
600.413	1	-5
601.602	1	0
602.790	1	6
603.978	1	-6
605.166	1	-7
606.355	1	16
607.543	1	-9
608.731	1	-4
609.919	1	-6
611.107	1	14
612.295	1	8
613.483	1	2
614.671	1	3
615.858	1	10
617.046	1	9
618.234	1	0
619.422	1	4
620.609	1	2
621.797	1	-6
622.985	1	-6
624.172	1	14
625.360	1	-7
626.547	1	5
627.735	1	5
628.922	1	-10
630.109	1	-11
631.297	1	-5
632.484	1	-5
633.671	1	4
634.858	1	3
636.045	1	-7
637.232	1	6
638.419	1	7
639.606	1	7
640.793	1	6
641.980	1	11
643.167	1	14
644.354	1	-2
645.541	1	-11
646.728	1	1
647.914	1	-1
649.101	1	-1
650.288	1	-3
651.474	1	7
652.661	1	-1
653.847	1	7
655.034	1	3
656.220	1	-2
657.406	1	-2
658.593	1	-6
659.779	1	-6
660.965	1	-9
662.152	1	2
663.338	1	-9
664.524	1	-10
665.710	1	-5
666.896	1	-7
668.082	1	-5
669.268	1	4
670.454	1	-1
671.640	1	-13
672.826	1	-12
674.011	1	3
675.197	1	-2
676.383	1	-3
677.569	1	-2
678.754	1	0
679.940	1	-11
681.125	1	0
682.311	1	1
683.496	1	6
684.682	1	8
685.867	1	-3
687.053	1	1
688.238	1	4
688.746	1	4