File: Analysis/GaN_68K_200ms/GaN_sample E_spot4_UVVIS_68 K_200um_200 ms 2x2mm1_378.txt
340.368	1	10
341.565	1	-2
342.763	1	-5
343.960	1	-4
345.157	1	6
346.354	1	7
347.552	1	2
348.749	1	2
349.946	1	10
351.143	1	-7
352.340	1	0
353.537	1	3
354.734	1	4
355.931	1	4
357.127	1	1
358.324	1	-4
359.521	1	-5
360.718	1	-7
361.914	1	3
363.111	1	19
364.308	1	-9
365.504	1	0
366.701	1	-2
367.897	1	2
369.093	1	7
370.290	1	3
371.486	1	13
372.682	1	0
373.879	1	10
375.075	1	9
376.271	1	2
377.467	1	5
378.663	1	-4
379.859	1	2
381.055	1	3
382.251	1	5
383.447	1	18
384.643	1	4
385.839	1	10
387.035	1	7
388.230	1	-5
389.426	1	8
390.622	1	-3
391.817	1	-4
393.013	1	10
394.208	1	15
395.404	1	17
396.599	1	11
397.795	1	8
398.990	1	14
400.186	1	13
401.381	1	9
402.576	1	10
403.771	1	9
404.967	1	9
406.162	1	3
407.357	1	9
408.552	1	6
409.747	1	2
410.942	1	3
412.137	1	15
413.332	1	0
414.526	1	5
415.721	1	-1
416.916	1	-5
418.111	1	8
419.305	1	1
420.500	1	6
421.695	1	-4
422.889	1	8
424.084	1	0
425.278	1	0
426.472	1	-12
427.667	1	13
428.861	1	0
430.055	1	0
431.250	1	-10
432.444	1	7
433.638	1	9
434.832	1	-6
436.026	1	6
437.220	1	13
438.414	1	7
439.608	1	-1
440.802	1	3
441.996	1	2
443.190	1	-9
444.384	1	4
445.578	1	5
446.771	1	-3
447.965	1	-4
449.159	1	-9
450.352	1	4
451.546	1	-5
452.739	1	17
453.933	1	6
455.126	1	1
456.320	1	-5
457.513	1	-5
458.706	1	-1
459.899	1	8
461.093	1	1
462.286	1	13
463.479	1	4
464.672	1	-1
465.865	1	-3
467.058	1	15
468.251	1	1
469.444	1	-4
470.637	1	15
471.830	1	23
473.023	1	1
474.215	1	4
475.408	1	1
476.601	1	-2
477.793	1	5
478.986	1	1
480.179	1	-1
481.371	1	2
482.564	1	-10
483.756	1	12
484.948	1	-3
486.141	1	-2
487.333	1	2
488.525	1	-2
489.718	1	-7
490.910	1	-2
492.102	1	-1
493.294	1	0
494.486	1	11
495.678	1	16
496.870	1	3
498.062	1	1
499.254	1	4
500.446	1	17
501.638	1	7
502.829	1	8
504.021	1	19
505.213	1	4
506.404	1	-5
507.596	1	12
508.788	1	6
509.979	1	1
511.171	1	19
512.362	1	5
513.553	1	-2
514.745	1	-1
515.936	1	0
517.127	1	11
518.319	1	5
519.510	1	2
520.701	1	3
521.892	1	-3
523.083	1	8
524.274	1	-2
525.465	1	0
526.656	1	22
527.847	1	-10
529.038	1	7
530.229	1	7
531.419	1	8
532.610	1	9
533.801	1	2
534.991	1	8
536.182	1	2
537.373	1	5
538.563	1	1
539.754	1	8
540.944	1	-3
542.134	1	9
543.325	1	0
544.515	1	0
545.705	1	3
546.896	1	2
548.086	1	8
549.276	1	6
550.466	1	1
551.656	1	-1
552.846	1	9
554.036	1	1
555.226	1	-6
556.416	1	6
557.606	1	-5
558.796	1	2
559.986	1	0
561.175	1	0
562.365	1	0
563.555	1	11
564.744	1	-3
565.934	1	6
567.123	1	14
568.313	1	3
569.502	1	8
570.692	1	3
571.881	1	3
573.070	1	6
574.260	1	1
575.449	1	10
576.638	1	12
577.827	1	5
579.016	1	11
580.205	1	-3
581.394	1	-3
582.583	1	2
583.772	1	0
584.961	1	9
586.150	1	-2
587.339	1	11
588.528	1	3
589.717	1	7
590.905	1	0
592.094	1	5
593.283	1	9
594.471	1	11
595.660	1	-1
596.848	1	8
598.037	1	-1
599.225	1	2
600.413	1	0
601.602	1	1
602.790	1	-2
603.978	1	1
605.166	1	0
606.355	1	11
607.543	1	-5
608.731	1	-9
609.919	1	-2
611.107	1	6
612.295	1	3
613.483	1	-4
614.671	1	-1
615.858	1	7
617.046	1	6
618.234	1	-2
619.422	1	3
620.609	1	-5
621.797	1	5
622.985	1	-6
624.172	1	18
625.360	1	-9
626.547	1	2
627.735	1	5
628.922	1	-1
630.109	1	-4
631.297	1	-9
632.484	1	-5
633.671	1	3
634.858	1	13
636.045	1	2
637.232	1	2
638.419	1	3
639.606	1	8
640.793	1	9
641.980	1	-3
643.167	1	16
644.354	1	6
645.541	1	-8
646.728	1	3
647.914	1	-6
649.101	1	5
650.288	1	-6
651.474	1	9
652.661	1	8
653.847	1	0
655.034	1	-3
656.220	1	8
657.406	1	4
658.593	1	-7
659.779	1	1
660.965	1	-4
662.152	1	-2
663.338	1	-5
664.524	1	-9
665.710	1	1
666.896	1	7
668.082	1	-11
669.268	1	1
670.454	1	5
671.640	1	-16
672.826	1	-2
674.011	1	7
675.197	1	2
676.383	1	-2
677.569	1	-3
678.754	1	-8
679.940	1	-4
681.125	1	3
682.311	1	-2
683.496	1	-1
684.682	1	12
685.867	1	1
687.053	1	6
688.238	1	0
688.746	1	-1