File: Analysis/GaN_68K_200ms/GaN_sample E_spot4_UVVIS_68 K_200um_200 ms 2x2mm1_230.txt
340.368	1	16
341.565	1	0
342.763	1	2
343.960	1	8
345.157	1	11
346.354	1	5
347.552	1	2
348.749	1	4
349.946	1	8
351.143	1	1
352.340	1	9
353.537	1	2
354.734	1	0
355.931	1	4
357.127	1	14
358.324	1	5
359.521	1	0
360.718	1	2
361.914	1	7
363.111	1	20
364.308	1	8
365.504	1	3
366.701	1	12
367.897	1	16
369.093	1	6
370.290	1	5
371.486	1	14
372.682	1	2
373.879	1	15
375.075	1	15
376.271	1	18
377.467	1	4
378.663	1	5
379.859	1	2
381.055	1	1
382.251	1	14
383.447	1	17
384.643	1	13
385.839	1	22
387.035	1	25
388.230	1	13
389.426	1	17
390.622	1	14
391.817	1	12
393.013	1	23
394.208	1	23
395.404	1	23
396.599	1	15
397.795	1	27
398.990	1	18
400.186	1	20
401.381	1	20
402.576	1	29
403.771	1	16
404.967	1	12
406.162	1	10
407.357	1	11
408.552	1	11
409.747	1	15
410.942	1	10
412.137	1	15
413.332	1	2
414.526	1	18
415.721	1	5
416.916	1	11
418.111	1	7
419.305	1	6
420.500	1	7
421.695	1	9
422.889	1	18
424.084	1	11
425.278	1	15
426.472	1	10
427.667	1	15
428.861	1	5
430.055	1	14
431.250	1	-4
432.444	1	12
433.638	1	5
434.832	1	5
436.026	1	6
437.220	1	10
438.414	1	10
439.608	1	5
440.802	1	8
441.996	1	4
443.190	1	-9
444.384	1	9
445.578	1	9
446.771	1	-8
447.965	1	1
449.159	1	6
450.352	1	5
451.546	1	5
452.739	1	3
453.933	1	17
455.126	1	9
456.320	1	10
457.513	1	9
458.706	1	1
459.899	1	15
461.093	1	6
462.286	1	14
463.479	1	11
464.672	1	6
465.865	1	0
467.058	1	17
468.251	1	-3
469.444	1	-3
470.637	1	23
471.830	1	27
473.023	1	4
474.215	1	-2
475.408	1	2
476.601	1	8
477.793	1	13
478.986	1	4
480.179	1	10
481.371	1	4
482.564	1	-8
483.756	1	14
484.948	1	-3
486.141	1	8
487.333	1	6
488.525	1	1
489.718	1	-2
490.910	1	0
492.102	1	9
493.294	1	17
494.486	1	7
495.678	1	10
496.870	1	3
498.062	1	5
499.254	1	9
500.446	1	20
501.638	1	6
502.829	1	13
504.021	1	22
505.213	1	2
506.404	1	5
507.596	1	11
508.788	1	14
509.979	1	14
511.171	1	20
512.362	1	9
513.553	1	1
514.745	1	12
515.936	1	9
517.127	1	7
518.319	1	15
519.510	1	8
520.701	1	7
521.892	1	11
523.083	1	11
524.274	1	4
525.465	1	10
526.656	1	33
527.847	1	1
529.038	1	17
530.229	1	15
531.419	1	23
532.610	1	22
533.801	1	12
534.991	1	11
536.182	1	2
537.373	1	8
538.563	1	9
539.754	1	7
540.944	1	14
542.134	1	15
543.325	1	2
544.515	1	11
545.705	1	9
546.896	1	8
548.086	1	13
549.276	1	10
550.466	1	12
551.656	1	6
552.846	1	12
554.036	1	1
555.226	1	1
556.416	1	8
557.606	1	2
558.796	1	5
559.986	1	8
561.175	1	6
562.365	1	18
563.555	1	10
564.744	1	16
565.934	1	4
567.123	1	15
568.313	1	6
569.502	1	9
570.692	1	11
571.881	1	6
573.070	1	7
574.260	1	-2
575.449	1	20
576.638	1	4
577.827	1	8
579.016	1	17
580.205	1	4
581.394	1	3
582.583	1	4
583.772	1	0
584.961	1	2
586.150	1	6
587.339	1	3
588.528	1	8
589.717	1	5
590.905	1	8
592.094	1	8
593.283	1	9
594.471	1	15
595.660	1	2
596.848	1	17
598.037	1	5
599.225	1	1
600.413	1	3
601.602	1	15
602.790	1	7
603.978	1	4
605.166	1	0
606.355	1	13
607.543	1	-2
608.731	1	-3
609.919	1	-3
611.107	1	10
612.295	1	10
613.483	1	10
614.671	1	11
615.858	1	3
617.046	1	3
618.234	1	12
619.422	1	3
620.609	1	0
621.797	1	5
622.985	1	13
624.172	1	9
625.360	1	-1
626.547	1	4
627.735	1	4
628.922	1	2
630.109	1	-4
631.297	1	1
632.484	1	8
633.671	1	6
634.858	1	10
636.045	1	3
637.232	1	6
638.419	1	10
639.606	1	9
640.793	1	6
641.980	1	-3
643.167	1	6
644.354	1	2
645.541	1	-6
646.728	1	3
647.914	1	-1
649.101	1	6
650.288	1	-8
651.474	1	6
652.661	1	3
653.847	1	10
655.034	1	2
656.220	1	9
657.406	1	6
658.593	1	-11
659.779	1	4
660.965	1	6
662.152	1	13
663.338	1	1
664.524	1	-10
665.710	1	-2
666.896	1	8
668.082	1	-10
669.268	1	14
670.454	1	1
671.640	1	-15
672.826	1	-7
674.011	1	5
675.197	1	9
676.383	1	4
677.569	1	0
678.754	1	-1
679.940	1	-5
681.125	1	11
682.311	1	6
683.496	1	-10
684.682	1	15
685.867	1	-3
687.053	1	7
688.238	1	7
688.746	1	5