File: Analysis/GaN_68K_200ms/GaN_sample E_spot4_UVVIS_68 K_200um_200 ms 2x2mm1_324.txt
340.368	1	3
341.565	1	-6
342.763	1	2
343.960	1	-6
345.157	1	8
346.354	1	-4
347.552	1	-3
348.749	1	1
349.946	1	19
351.143	1	-10
352.340	1	5
353.537	1	3
354.734	1	0
355.931	1	2
357.127	1	8
358.324	1	0
359.521	1	9
360.718	1	-2
361.914	1	-1
363.111	1	13
364.308	1	9
365.504	1	2
366.701	1	3
367.897	1	11
369.093	1	2
370.290	1	-1
371.486	1	11
372.682	1	4
373.879	1	14
375.075	1	6
376.271	1	-3
377.467	1	6
378.663	1	-4
379.859	1	6
381.055	1	-2
382.251	1	12
383.447	1	17
384.643	1	13
385.839	1	1
387.035	1	8
388.230	1	9
389.426	1	23
390.622	1	1
391.817	1	17
393.013	1	9
394.208	1	11
395.404	1	5
396.599	1	9
397.795	1	13
398.990	1	7
400.186	1	23
401.381	1	8
402.576	1	16
403.771	1	8
404.967	1	12
406.162	1	-2
407.357	1	6
408.552	1	6
409.747	1	9
410.942	1	10
412.137	1	-1
413.332	1	-1
414.526	1	14
415.721	1	10
416.916	1	14
418.111	1	2
419.305	1	0
420.500	1	2
421.695	1	3
422.889	1	2
424.084	1	4
425.278	1	-8
426.472	1	-11
427.667	1	11
428.861	1	4
430.055	1	-1
431.250	1	-8
432.444	1	8
433.638	1	6
434.832	1	3
436.026	1	6
437.220	1	13
438.414	1	6
439.608	1	9
440.802	1	7
441.996	1	-1
443.190	1	-4
444.384	1	1
445.578	1	7
446.771	1	2
447.965	1	-5
449.159	1	3
450.352	1	0
451.546	1	-2
452.739	1	9
453.933	1	8
455.126	1	3
456.320	1	-2
457.513	1	7
458.706	1	3
459.899	1	9
461.093	1	8
462.286	1	11
463.479	1	22
464.672	1	2
465.865	1	1
467.058	1	17
468.251	1	6
469.444	1	-1
470.637	1	18
471.830	1	14
473.023	1	-6
474.215	1	-2
475.408	1	0
476.601	1	1
477.793	1	5
478.986	1	-3
480.179	1	10
481.371	1	2
482.564	1	-16
483.756	1	8
484.948	1	-7
486.141	1	-2
487.333	1	2
488.525	1	8
489.718	1	2
490.910	1	3
492.102	1	4
493.294	1	7
494.486	1	4
495.678	1	10
496.870	1	7
498.062	1	3
499.254	1	-9
500.446	1	11
501.638	1	4
502.829	1	2
504.021	1	22
505.213	1	6
506.404	1	3
507.596	1	19
508.788	1	1
509.979	1	5
511.171	1	22
512.362	1	3
513.553	1	-2
514.745	1	3
515.936	1	1
517.127	1	11
518.319	1	4
519.510	1	17
520.701	1	4
521.892	1	3
523.083	1	3
524.274	1	1
525.465	1	-1
526.656	1	16
527.847	1	6
529.038	1	10
530.229	1	4
531.419	1	20
532.610	1	2
533.801	1	5
534.991	1	2
536.182	1	8
537.373	1	4
538.563	1	6
539.754	1	-2
540.944	1	3
542.134	1	18
543.325	1	4
544.515	1	9
545.705	1	9
546.896	1	6
548.086	1	4
549.276	1	5
550.466	1	-3
551.656	1	-1
552.846	1	5
554.036	1	8
555.226	1	-4
556.416	1	3
557.606	1	-4
558.796	1	-1
559.986	1	-4
561.175	1	2
562.365	1	1
563.555	1	13
564.744	1	7
565.934	1	11
567.123	1	12
568.313	1	-3
569.502	1	4
570.692	1	6
571.881	1	2
573.070	1	12
574.260	1	1
575.449	1	14
576.638	1	3
577.827	1	13
579.016	1	12
580.205	1	-2
581.394	1	-1
582.583	1	-4
583.772	1	7
584.961	1	0
586.150	1	5
587.339	1	5
588.528	1	8
589.717	1	4
590.905	1	7
592.094	1	1
593.283	1	9
594.471	1	2
595.660	1	-3
596.848	1	11
598.037	1	-4
599.225	1	0
600.413	1	-2
601.602	1	5
602.790	1	4
603.978	1	-4
605.166	1	0
606.355	1	9
607.543	1	-6
608.731	1	-3
609.919	1	-6
611.107	1	7
612.295	1	9
613.483	1	13
614.671	1	0
615.858	1	2
617.046	1	2
618.234	1	8
619.422	1	5
620.609	1	4
621.797	1	-2
622.985	1	0
624.172	1	12
625.360	1	-10
626.547	1	7
627.735	1	11
628.922	1	3
630.109	1	-1
631.297	1	-1
632.484	1	8
633.671	1	1
634.858	1	7
636.045	1	1
637.232	1	-2
638.419	1	2
639.606	1	9
640.793	1	1
641.980	1	-2
643.167	1	13
644.354	1	-2
645.541	1	-12
646.728	1	7
647.914	1	3
649.101	1	-1
650.288	1	-5
651.474	1	0
652.661	1	6
653.847	1	4
655.034	1	6
656.220	1	5
657.406	1	4
658.593	1	-16
659.779	1	-1
660.965	1	1
662.152	1	-2
663.338	1	-5
664.524	1	-6
665.710	1	-1
666.896	1	-1
668.082	1	5
669.268	1	3
670.454	1	0
671.640	1	-17
672.826	1	-7
674.011	1	8
675.197	1	4
676.383	1	5
677.569	1	-1
678.754	1	-6
679.940	1	-3
681.125	1	8
682.311	1	-7
683.496	1	-3
684.682	1	4
685.867	1	5
687.053	1	4
688.238	1	0
688.746	1	-2