File: Analysis/GaN_68K_200ms/GaN_sample E_spot4_UVVIS_68 K_200um_200 ms 2x2mm1_358.txt
340.368	1	5
341.565	1	0
342.763	1	-8
343.960	1	-4
345.157	1	-3
346.354	1	1
347.552	1	-1
348.749	1	-1
349.946	1	7
351.143	1	-10
352.340	1	5
353.537	1	7
354.734	1	-4
355.931	1	0
357.127	1	7
358.324	1	-4
359.521	1	3
360.718	1	-5
361.914	1	-1
363.111	1	3
364.308	1	-1
365.504	1	-6
366.701	1	-2
367.897	1	3
369.093	1	10
370.290	1	-5
371.486	1	8
372.682	1	-5
373.879	1	14
375.075	1	4
376.271	1	5
377.467	1	-4
378.663	1	1
379.859	1	3
381.055	1	0
382.251	1	3
383.447	1	13
384.643	1	12
385.839	1	11
387.035	1	5
388.230	1	-2
389.426	1	9
390.622	1	-2
391.817	1	5
393.013	1	14
394.208	1	8
395.404	1	6
396.599	1	19
397.795	1	6
398.990	1	16
400.186	1	10
401.381	1	12
402.576	1	17
403.771	1	5
404.967	1	5
406.162	1	10
407.357	1	14
408.552	1	5
409.747	1	1
410.942	1	7
412.137	1	9
413.332	1	-4
414.526	1	16
415.721	1	-1
416.916	1	3
418.111	1	4
419.305	1	1
420.500	1	7
421.695	1	3
422.889	1	10
424.084	1	2
425.278	1	-3
426.472	1	3
427.667	1	14
428.861	1	7
430.055	1	-3
431.250	1	-3
432.444	1	1
433.638	1	-1
434.832	1	-5
436.026	1	8
437.220	1	8
438.414	1	1
439.608	1	-1
440.802	1	8
441.996	1	7
443.190	1	-4
444.384	1	10
445.578	1	20
446.771	1	-2
447.965	1	-12
449.159	1	-2
450.352	1	7
451.546	1	2
452.739	1	6
453.933	1	9
455.126	1	4
456.320	1	-1
457.513	1	10
458.706	1	7
459.899	1	10
461.093	1	3
462.286	1	7
463.479	1	13
464.672	1	6
465.865	1	-11
467.058	1	8
468.251	1	-4
469.444	1	5
470.637	1	22
471.830	1	13
473.023	1	-16
474.215	1	7
475.408	1	8
476.601	1	0
477.793	1	4
478.986	1	1
480.179	1	6
481.371	1	0
482.564	1	-13
483.756	1	3
484.948	1	0
486.141	1	-9
487.333	1	2
488.525	1	-14
489.718	1	9
490.910	1	-3
492.102	1	2
493.294	1	6
494.486	1	3
495.678	1	12
496.870	1	1
498.062	1	-5
499.254	1	17
500.446	1	14
501.638	1	3
502.829	1	2
504.021	1	25
505.213	1	-1
506.404	1	-2
507.596	1	4
508.788	1	-2
509.979	1	-4
511.171	1	9
512.362	1	5
513.553	1	-14
514.745	1	1
515.936	1	13
517.127	1	7
518.319	1	-1
519.510	1	0
520.701	1	10
521.892	1	0
523.083	1	7
524.274	1	-2
525.465	1	6
526.656	1	17
527.847	1	-9
529.038	1	7
530.229	1	2
531.419	1	16
532.610	1	7
533.801	1	11
534.991	1	0
536.182	1	2
537.373	1	9
538.563	1	12
539.754	1	-3
540.944	1	-4
542.134	1	9
543.325	1	-6
544.515	1	9
545.705	1	13
546.896	1	6
548.086	1	2
549.276	1	7
550.466	1	2
551.656	1	-3
552.846	1	9
554.036	1	5
555.226	1	6
556.416	1	1
557.606	1	1
558.796	1	-3
559.986	1	-4
561.175	1	-7
562.365	1	11
563.555	1	10
564.744	1	12
565.934	1	7
567.123	1	11
568.313	1	1
569.502	1	2
570.692	1	3
571.881	1	10
573.070	1	8
574.260	1	-5
575.449	1	8
576.638	1	1
577.827	1	13
579.016	1	12
580.205	1	7
581.394	1	-3
582.583	1	2
583.772	1	2
584.961	1	7
586.150	1	-2
587.339	1	1
588.528	1	-2
589.717	1	1
590.905	1	5
592.094	1	5
593.283	1	12
594.471	1	11
595.660	1	-5
596.848	1	2
598.037	1	6
599.225	1	-5
600.413	1	3
601.602	1	3
602.790	1	2
603.978	1	-1
605.166	1	0
606.355	1	7
607.543	1	-7
608.731	1	3
609.919	1	-1
611.107	1	10
612.295	1	2
613.483	1	7
614.671	1	3
615.858	1	1
617.046	1	4
618.234	1	6
619.422	1	-3
620.609	1	9
621.797	1	2
622.985	1	4
624.172	1	21
625.360	1	-7
626.547	1	6
627.735	1	8
628.922	1	5
630.109	1	-10
631.297	1	-7
632.484	1	-6
633.671	1	-8
634.858	1	15
636.045	1	-1
637.232	1	-3
638.419	1	12
639.606	1	12
640.793	1	2
641.980	1	-5
643.167	1	13
644.354	1	-1
645.541	1	-9
646.728	1	12
647.914	1	1
649.101	1	-2
650.288	1	1
651.474	1	3
652.661	1	0
653.847	1	6
655.034	1	9
656.220	1	5
657.406	1	3
658.593	1	-6
659.779	1	-2
660.965	1	9
662.152	1	-2
663.338	1	3
664.524	1	-10
665.710	1	-5
666.896	1	3
668.082	1	-2
669.268	1	-5
670.454	1	-2
671.640	1	-6
672.826	1	-10
674.011	1	11
675.197	1	-4
676.383	1	0
677.569	1	-2
678.754	1	-3
679.940	1	-4
681.125	1	-6
682.311	1	-3
683.496	1	-4
684.682	1	6
685.867	1	2
687.053	1	11
688.238	1	2
688.746	1	2