File: Analysis/GaN_68K_200ms/GaN_sample E_spot4_UVVIS_68 K_200um_200 ms 2x2mm1_204.txt
340.368	1	-2
341.565	1	-3
342.763	1	-1
343.960	1	-3
345.157	1	1
346.354	1	0
347.552	1	6
348.749	1	3
349.946	1	12
351.143	1	-8
352.340	1	0
353.537	1	4
354.734	1	7
355.931	1	11
357.127	1	1
358.324	1	13
359.521	1	5
360.718	1	-1
361.914	1	5
363.111	1	21
364.308	1	4
365.504	1	15
366.701	1	14
367.897	1	14
369.093	1	16
370.290	1	17
371.486	1	12
372.682	1	6
373.879	1	24
375.075	1	11
376.271	1	4
377.467	1	3
378.663	1	5
379.859	1	-1
381.055	1	11
382.251	1	14
383.447	1	23
384.643	1	25
385.839	1	28
387.035	1	24
388.230	1	19
389.426	1	21
390.622	1	17
391.817	1	24
393.013	1	29
394.208	1	22
395.404	1	23
396.599	1	33
397.795	1	20
398.990	1	30
400.186	1	34
401.381	1	14
402.576	1	27
403.771	1	16
404.967	1	22
406.162	1	6
407.357	1	19
408.552	1	20
409.747	1	11
410.942	1	21
412.137	1	17
413.332	1	19
414.526	1	15
415.721	1	8
416.916	1	5
418.111	1	11
419.305	1	4
420.500	1	16
421.695	1	20
422.889	1	13
424.084	1	11
425.278	1	6
426.472	1	1
427.667	1	12
428.861	1	10
430.055	1	10
431.250	1	1
432.444	1	12
433.638	1	5
434.832	1	11
436.026	1	12
437.220	1	5
438.414	1	16
439.608	1	14
440.802	1	0
441.996	1	8
443.190	1	-10
444.384	1	2
445.578	1	18
446.771	1	2
447.965	1	-6
449.159	1	-4
450.352	1	14
451.546	1	11
452.739	1	4
453.933	1	8
455.126	1	12
456.320	1	-1
457.513	1	16
458.706	1	12
459.899	1	19
461.093	1	11
462.286	1	16
463.479	1	8
464.672	1	4
465.865	1	6
467.058	1	15
468.251	1	3
469.444	1	-4
470.637	1	21
471.830	1	13
473.023	1	-6
474.215	1	5
475.408	1	1
476.601	1	6
477.793	1	8
478.986	1	7
480.179	1	7
481.371	1	15
482.564	1	-8
483.756	1	24
484.948	1	-3
486.141	1	-1
487.333	1	8
488.525	1	12
489.718	1	-4
490.910	1	4
492.102	1	-3
493.294	1	11
494.486	1	13
495.678	1	20
496.870	1	7
498.062	1	9
499.254	1	12
500.446	1	19
501.638	1	16
502.829	1	14
504.021	1	24
505.213	1	9
506.404	1	5
507.596	1	14
508.788	1	11
509.979	1	19
511.171	1	17
512.362	1	7
513.553	1	3
514.745	1	10
515.936	1	19
517.127	1	17
518.319	1	12
519.510	1	21
520.701	1	15
521.892	1	6
523.083	1	7
524.274	1	11
525.465	1	10
526.656	1	27
527.847	1	16
529.038	1	20
530.229	1	16
531.419	1	30
532.610	1	15
533.801	1	21
534.991	1	19
536.182	1	20
537.373	1	13
538.563	1	11
539.754	1	9
540.944	1	12
542.134	1	22
543.325	1	15
544.515	1	19
545.705	1	19
546.896	1	15
548.086	1	20
549.276	1	25
550.466	1	6
551.656	1	4
552.846	1	13
554.036	1	7
555.226	1	2
556.416	1	7
557.606	1	1
558.796	1	7
559.986	1	13
561.175	1	12
562.365	1	10
563.555	1	15
564.744	1	12
565.934	1	17
567.123	1	18
568.313	1	6
569.502	1	8
570.692	1	13
571.881	1	6
573.070	1	14
574.260	1	6
575.449	1	5
576.638	1	12
577.827	1	19
579.016	1	21
580.205	1	11
581.394	1	-6
582.583	1	-1
583.772	1	9
584.961	1	12
586.150	1	10
587.339	1	8
588.528	1	14
589.717	1	1
590.905	1	2
592.094	1	6
593.283	1	9
594.471	1	5
595.660	1	0
596.848	1	14
598.037	1	-1
599.225	1	3
600.413	1	12
601.602	1	11
602.790	1	2
603.978	1	0
605.166	1	-3
606.355	1	15
607.543	1	1
608.731	1	-5
609.919	1	4
611.107	1	14
612.295	1	1
613.483	1	7
614.671	1	13
615.858	1	8
617.046	1	5
618.234	1	5
619.422	1	4
620.609	1	6
621.797	1	9
622.985	1	2
624.172	1	16
625.360	1	-7
626.547	1	3
627.735	1	12
628.922	1	2
630.109	1	4
631.297	1	5
632.484	1	1
633.671	1	1
634.858	1	15
636.045	1	4
637.232	1	0
638.419	1	13
639.606	1	19
640.793	1	14
641.980	1	2
643.167	1	11
644.354	1	-7
645.541	1	1
646.728	1	5
647.914	1	1
649.101	1	1
650.288	1	1
651.474	1	7
652.661	1	6
653.847	1	6
655.034	1	6
656.220	1	10
657.406	1	11
658.593	1	5
659.779	1	-2
660.965	1	0
662.152	1	10
663.338	1	2
664.524	1	-7
665.710	1	-5
666.896	1	5
668.082	1	2
669.268	1	6
670.454	1	6
671.640	1	-3
672.826	1	-6
674.011	1	4
675.197	1	6
676.383	1	0
677.569	1	0
678.754	1	-1
679.940	1	-3
681.125	1	4
682.311	1	8
683.496	1	0
684.682	1	17
685.867	1	3
687.053	1	5
688.238	1	8
688.746	1	6