File: Analysis/GaN_68K_200ms/GaN_sample E_spot4_UVVIS_68 K_200um_200 ms 2x2mm1_32.txt
340.368	1	3
341.565	1	-5
342.763	1	-1
343.960	1	0
345.157	1	8
346.354	1	-4
347.552	1	-6
348.749	1	-2
349.946	1	7
351.143	1	-8
352.340	1	-1
353.537	1	-2
354.734	1	4
355.931	1	6
357.127	1	6
358.324	1	3
359.521	1	4
360.718	1	6
361.914	1	3
363.111	1	9
364.308	1	-2
365.504	1	6
366.701	1	-6
367.897	1	2
369.093	1	2
370.290	1	-6
371.486	1	13
372.682	1	-2
373.879	1	12
375.075	1	9
376.271	1	-2
377.467	1	1
378.663	1	-1
379.859	1	0
381.055	1	6
382.251	1	-2
383.447	1	5
384.643	1	12
385.839	1	3
387.035	1	-8
388.230	1	-9
389.426	1	7
390.622	1	-5
391.817	1	-1
393.013	1	5
394.208	1	9
395.404	1	12
396.599	1	6
397.795	1	11
398.990	1	6
400.186	1	7
401.381	1	-5
402.576	1	5
403.771	1	3
404.967	1	3
406.162	1	0
407.357	1	4
408.552	1	6
409.747	1	0
410.942	1	1
412.137	1	3
413.332	1	-5
414.526	1	4
415.721	1	0
416.916	1	-3
418.111	1	-5
419.305	1	4
420.500	1	4
421.695	1	7
422.889	1	-1
424.084	1	6
425.278	1	3
426.472	1	-9
427.667	1	14
428.861	1	-2
430.055	1	-6
431.250	1	-7
432.444	1	8
433.638	1	2
434.832	1	-3
436.026	1	10
437.220	1	5
438.414	1	2
439.608	1	6
440.802	1	9
441.996	1	1
443.190	1	-4
444.384	1	6
445.578	1	13
446.771	1	-1
447.965	1	-6
449.159	1	2
450.352	1	4
451.546	1	-3
452.739	1	4
453.933	1	5
455.126	1	-2
456.320	1	3
457.513	1	13
458.706	1	-3
459.899	1	8
461.093	1	10
462.286	1	9
463.479	1	3
464.672	1	1
465.865	1	-3
467.058	1	14
468.251	1	-3
469.444	1	6
470.637	1	14
471.830	1	16
473.023	1	-6
474.215	1	1
475.408	1	0
476.601	1	2
477.793	1	8
478.986	1	9
480.179	1	6
481.371	1	1
482.564	1	-11
483.756	1	9
484.948	1	-5
486.141	1	-3
487.333	1	-2
488.525	1	-6
489.718	1	3
490.910	1	1
492.102	1	-6
493.294	1	4
494.486	1	15
495.678	1	13
496.870	1	4
498.062	1	4
499.254	1	2
500.446	1	9
501.638	1	-5
502.829	1	-9
504.021	1	12
505.213	1	9
506.404	1	-14
507.596	1	2
508.788	1	-2
509.979	1	-5
511.171	1	6
512.362	1	-6
513.553	1	1
514.745	1	0
515.936	1	3
517.127	1	2
518.319	1	-1
519.510	1	1
520.701	1	-2
521.892	1	-13
523.083	1	10
524.274	1	-11
525.465	1	3
526.656	1	12
527.847	1	-1
529.038	1	-1
530.229	1	3
531.419	1	7
532.610	1	2
533.801	1	-5
534.991	1	-8
536.182	1	-5
537.373	1	0
538.563	1	-5
539.754	1	-3
540.944	1	4
542.134	1	10
543.325	1	3
544.515	1	-5
545.705	1	0
546.896	1	3
548.086	1	3
549.276	1	4
550.466	1	-4
551.656	1	-13
552.846	1	-6
554.036	1	8
555.226	1	-15
556.416	1	2
557.606	1	-7
558.796	1	0
559.986	1	-2
561.175	1	-5
562.365	1	0
563.555	1	-1
564.744	1	6
565.934	1	4
567.123	1	15
568.313	1	-2
569.502	1	8
570.692	1	3
571.881	1	5
573.070	1	12
574.260	1	-2
575.449	1	3
576.638	1	1
577.827	1	14
579.016	1	5
580.205	1	8
581.394	1	-5
582.583	1	-7
583.772	1	1
584.961	1	3
586.150	1	0
587.339	1	-1
588.528	1	3
589.717	1	10
590.905	1	7
592.094	1	3
593.283	1	-5
594.471	1	7
595.660	1	-7
596.848	1	8
598.037	1	-2
599.225	1	8
600.413	1	0
601.602	1	3
602.790	1	3
603.978	1	-1
605.166	1	-2
606.355	1	3
607.543	1	-10
608.731	1	2
609.919	1	-10
611.107	1	12
612.295	1	-3
613.483	1	15
614.671	1	0
615.858	1	10
617.046	1	7
618.234	1	0
619.422	1	5
620.609	1	3
621.797	1	6
622.985	1	5
624.172	1	11
625.360	1	0
626.547	1	2
627.735	1	1
628.922	1	0
630.109	1	-7
631.297	1	-4
632.484	1	-2
633.671	1	9
634.858	1	6
636.045	1	5
637.232	1	2
638.419	1	2
639.606	1	17
640.793	1	6
641.980	1	-1
643.167	1	11
644.354	1	-2
645.541	1	-10
646.728	1	7
647.914	1	-4
649.101	1	-6
650.288	1	-4
651.474	1	9
652.661	1	7
653.847	1	-1
655.034	1	6
656.220	1	2
657.406	1	0
658.593	1	1
659.779	1	0
660.965	1	7
662.152	1	-1
663.338	1	-6
664.524	1	-11
665.710	1	9
666.896	1	-1
668.082	1	6
669.268	1	0
670.454	1	0
671.640	1	-16
672.826	1	-8
674.011	1	6
675.197	1	-4
676.383	1	1
677.569	1	-3
678.754	1	-7
679.940	1	-8
681.125	1	6
682.311	1	0
683.496	1	3
684.682	1	11
685.867	1	0
687.053	1	6
688.238	1	4
688.746	1	14