File: Analysis/GaN_68K_200ms/GaN_sample E_spot4_UVVIS_68 K_200um_200 ms 2x2mm1_197.txt
340.368	1	1
341.565	1	0
342.763	1	6
343.960	1	-5
345.157	1	9
346.354	1	-2
347.552	1	6
348.749	1	6
349.946	1	3
351.143	1	-5
352.340	1	1
353.537	1	-4
354.734	1	3
355.931	1	16
357.127	1	12
358.324	1	-3
359.521	1	9
360.718	1	11
361.914	1	10
363.111	1	18
364.308	1	10
365.504	1	11
366.701	1	16
367.897	1	26
369.093	1	21
370.290	1	13
371.486	1	27
372.682	1	11
373.879	1	17
375.075	1	12
376.271	1	17
377.467	1	11
378.663	1	1
379.859	1	5
381.055	1	6
382.251	1	10
383.447	1	21
384.643	1	16
385.839	1	22
387.035	1	27
388.230	1	32
389.426	1	27
390.622	1	26
391.817	1	22
393.013	1	29
394.208	1	31
395.404	1	31
396.599	1	23
397.795	1	27
398.990	1	25
400.186	1	29
401.381	1	20
402.576	1	20
403.771	1	22
404.967	1	15
406.162	1	14
407.357	1	18
408.552	1	21
409.747	1	6
410.942	1	18
412.137	1	26
413.332	1	19
414.526	1	12
415.721	1	17
416.916	1	11
418.111	1	15
419.305	1	12
420.500	1	19
421.695	1	17
422.889	1	15
424.084	1	17
425.278	1	1
426.472	1	16
427.667	1	23
428.861	1	2
430.055	1	-3
431.250	1	0
432.444	1	12
433.638	1	9
434.832	1	0
436.026	1	14
437.220	1	13
438.414	1	6
439.608	1	2
440.802	1	13
441.996	1	4
443.190	1	-4
444.384	1	6
445.578	1	8
446.771	1	3
447.965	1	-5
449.159	1	-2
450.352	1	9
451.546	1	0
452.739	1	8
453.933	1	6
455.126	1	5
456.320	1	8
457.513	1	12
458.706	1	8
459.899	1	13
461.093	1	11
462.286	1	13
463.479	1	10
464.672	1	5
465.865	1	0
467.058	1	10
468.251	1	7
469.444	1	6
470.637	1	12
471.830	1	9
473.023	1	3
474.215	1	1
475.408	1	5
476.601	1	5
477.793	1	12
478.986	1	8
480.179	1	7
481.371	1	0
482.564	1	-7
483.756	1	6
484.948	1	-4
486.141	1	2
487.333	1	14
488.525	1	9
489.718	1	3
490.910	1	6
492.102	1	8
493.294	1	10
494.486	1	6
495.678	1	15
496.870	1	7
498.062	1	9
499.254	1	12
500.446	1	10
501.638	1	10
502.829	1	7
504.021	1	31
505.213	1	9
506.404	1	0
507.596	1	15
508.788	1	14
509.979	1	21
511.171	1	24
512.362	1	10
513.553	1	0
514.745	1	11
515.936	1	8
517.127	1	18
518.319	1	17
519.510	1	10
520.701	1	24
521.892	1	21
523.083	1	18
524.274	1	6
525.465	1	21
526.656	1	29
527.847	1	16
529.038	1	21
530.229	1	28
531.419	1	33
532.610	1	15
533.801	1	12
534.991	1	13
536.182	1	18
537.373	1	11
538.563	1	13
539.754	1	13
540.944	1	5
542.134	1	15
543.325	1	15
544.515	1	15
545.705	1	24
546.896	1	21
548.086	1	23
549.276	1	18
550.466	1	13
551.656	1	8
552.846	1	20
554.036	1	18
555.226	1	15
556.416	1	16
557.606	1	6
558.796	1	7
559.986	1	9
561.175	1	16
562.365	1	22
563.555	1	23
564.744	1	20
565.934	1	10
567.123	1	19
568.313	1	10
569.502	1	15
570.692	1	13
571.881	1	14
573.070	1	10
574.260	1	8
575.449	1	13
576.638	1	7
577.827	1	9
579.016	1	9
580.205	1	6
581.394	1	-6
582.583	1	7
583.772	1	3
584.961	1	9
586.150	1	13
587.339	1	8
588.528	1	4
589.717	1	14
590.905	1	10
592.094	1	11
593.283	1	12
594.471	1	16
595.660	1	2
596.848	1	15
598.037	1	6
599.225	1	-1
600.413	1	3
601.602	1	18
602.790	1	13
603.978	1	6
605.166	1	7
606.355	1	11
607.543	1	1
608.731	1	2
609.919	1	-1
611.107	1	13
612.295	1	10
613.483	1	8
614.671	1	4
615.858	1	9
617.046	1	4
618.234	1	7
619.422	1	16
620.609	1	2
621.797	1	2
622.985	1	4
624.172	1	17
625.360	1	-4
626.547	1	10
627.735	1	3
628.922	1	4
630.109	1	1
631.297	1	-7
632.484	1	6
633.671	1	11
634.858	1	12
636.045	1	6
637.232	1	7
638.419	1	10
639.606	1	12
640.793	1	4
641.980	1	8
643.167	1	8
644.354	1	3
645.541	1	-1
646.728	1	1
647.914	1	-7
649.101	1	13
650.288	1	2
651.474	1	15
652.661	1	9
653.847	1	19
655.034	1	4
656.220	1	13
657.406	1	4
658.593	1	-8
659.779	1	4
660.965	1	11
662.152	1	7
663.338	1	4
664.524	1	-5
665.710	1	0
666.896	1	3
668.082	1	9
669.268	1	-3
670.454	1	4
671.640	1	-9
672.826	1	-8
674.011	1	5
675.197	1	7
676.383	1	-3
677.569	1	1
678.754	1	4
679.940	1	0
681.125	1	2
682.311	1	3
683.496	1	2
684.682	1	2
685.867	1	-1
687.053	1	11
688.238	1	4
688.746	1	6