File: Analysis/GaN_68K_200ms/GaN_sample E_spot4_UVVIS_68 K_200um_200 ms 2x2mm1_206.txt
340.368	1	-2
341.565	1	-8
342.763	1	-5
343.960	1	-1
345.157	1	2
346.354	1	4
347.552	1	14
348.749	1	6
349.946	1	15
351.143	1	1
352.340	1	5
353.537	1	2
354.734	1	-1
355.931	1	-3
357.127	1	2
358.324	1	4
359.521	1	6
360.718	1	3
361.914	1	7
363.111	1	25
364.308	1	15
365.504	1	5
366.701	1	15
367.897	1	17
369.093	1	16
370.290	1	12
371.486	1	19
372.682	1	8
373.879	1	26
375.075	1	17
376.271	1	11
377.467	1	8
378.663	1	9
379.859	1	0
381.055	1	4
382.251	1	10
383.447	1	24
384.643	1	18
385.839	1	19
387.035	1	21
388.230	1	14
389.426	1	28
390.622	1	20
391.817	1	15
393.013	1	27
394.208	1	24
395.404	1	20
396.599	1	19
397.795	1	17
398.990	1	12
400.186	1	30
401.381	1	19
402.576	1	36
403.771	1	21
404.967	1	12
406.162	1	4
407.357	1	18
408.552	1	12
409.747	1	10
410.942	1	12
412.137	1	21
413.332	1	7
414.526	1	13
415.721	1	7
416.916	1	8
418.111	1	14
419.305	1	8
420.500	1	16
421.695	1	10
422.889	1	13
424.084	1	8
425.278	1	4
426.472	1	0
427.667	1	11
428.861	1	15
430.055	1	9
431.250	1	-2
432.444	1	8
433.638	1	2
434.832	1	6
436.026	1	10
437.220	1	7
438.414	1	10
439.608	1	7
440.802	1	9
441.996	1	1
443.190	1	-9
444.384	1	16
445.578	1	19
446.771	1	15
447.965	1	1
449.159	1	8
450.352	1	15
451.546	1	10
452.739	1	9
453.933	1	15
455.126	1	7
456.320	1	7
457.513	1	18
458.706	1	0
459.899	1	8
461.093	1	6
462.286	1	12
463.479	1	11
464.672	1	3
465.865	1	2
467.058	1	10
468.251	1	6
469.444	1	3
470.637	1	16
471.830	1	19
473.023	1	1
474.215	1	6
475.408	1	9
476.601	1	-4
477.793	1	15
478.986	1	0
480.179	1	11
481.371	1	8
482.564	1	2
483.756	1	13
484.948	1	-4
486.141	1	3
487.333	1	13
488.525	1	1
489.718	1	-6
490.910	1	-1
492.102	1	-1
493.294	1	11
494.486	1	10
495.678	1	12
496.870	1	8
498.062	1	4
499.254	1	6
500.446	1	10
501.638	1	12
502.829	1	12
504.021	1	25
505.213	1	2
506.404	1	6
507.596	1	15
508.788	1	7
509.979	1	8
511.171	1	21
512.362	1	12
513.553	1	1
514.745	1	12
515.936	1	14
517.127	1	6
518.319	1	12
519.510	1	9
520.701	1	19
521.892	1	2
523.083	1	12
524.274	1	12
525.465	1	17
526.656	1	31
527.847	1	12
529.038	1	16
530.229	1	20
531.419	1	25
532.610	1	16
533.801	1	11
534.991	1	26
536.182	1	16
537.373	1	9
538.563	1	20
539.754	1	10
540.944	1	7
542.134	1	25
543.325	1	1
544.515	1	8
545.705	1	22
546.896	1	5
548.086	1	10
549.276	1	25
550.466	1	3
551.656	1	6
552.846	1	12
554.036	1	16
555.226	1	1
556.416	1	3
557.606	1	2
558.796	1	6
559.986	1	7
561.175	1	11
562.365	1	17
563.555	1	17
564.744	1	10
565.934	1	19
567.123	1	20
568.313	1	3
569.502	1	8
570.692	1	4
571.881	1	7
573.070	1	6
574.260	1	11
575.449	1	11
576.638	1	11
577.827	1	17
579.016	1	22
580.205	1	16
581.394	1	-6
582.583	1	-3
583.772	1	11
584.961	1	7
586.150	1	4
587.339	1	9
588.528	1	16
589.717	1	13
590.905	1	4
592.094	1	-2
593.283	1	10
594.471	1	10
595.660	1	0
596.848	1	14
598.037	1	3
599.225	1	13
600.413	1	11
601.602	1	9
602.790	1	5
603.978	1	7
605.166	1	1
606.355	1	9
607.543	1	-6
608.731	1	-6
609.919	1	-3
611.107	1	7
612.295	1	1
613.483	1	14
614.671	1	13
615.858	1	12
617.046	1	6
618.234	1	5
619.422	1	2
620.609	1	-7
621.797	1	8
622.985	1	4
624.172	1	22
625.360	1	-4
626.547	1	6
627.735	1	7
628.922	1	5
630.109	1	3
631.297	1	5
632.484	1	0
633.671	1	0
634.858	1	10
636.045	1	4
637.232	1	0
638.419	1	9
639.606	1	10
640.793	1	3
641.980	1	1
643.167	1	11
644.354	1	5
645.541	1	-2
646.728	1	4
647.914	1	-1
649.101	1	3
650.288	1	5
651.474	1	7
652.661	1	6
653.847	1	6
655.034	1	9
656.220	1	9
657.406	1	17
658.593	1	-6
659.779	1	11
660.965	1	1
662.152	1	4
663.338	1	-5
664.524	1	3
665.710	1	-6
666.896	1	-1
668.082	1	3
669.268	1	1
670.454	1	15
671.640	1	-5
672.826	1	-11
674.011	1	16
675.197	1	4
676.383	1	-4
677.569	1	3
678.754	1	4
679.940	1	-3
681.125	1	5
682.311	1	10
683.496	1	-2
684.682	1	13
685.867	1	9
687.053	1	3
688.238	1	6
688.746	1	4