File: Analysis/GaN_68K_200ms/GaN_sample E_spot4_UVVIS_68 K_200um_200 ms 2x2mm1_514.txt
340.368	1	-3
341.565	1	-6
342.763	1	-6
343.960	1	3
345.157	1	10
346.354	1	-4
347.552	1	-7
348.749	1	-4
349.946	1	4
351.143	1	-5
352.340	1	-5
353.537	1	-3
354.734	1	1
355.931	1	4
357.127	1	7
358.324	1	0
359.521	1	5
360.718	1	0
361.914	1	5
363.111	1	8
364.308	1	-1
365.504	1	-2
366.701	1	-1
367.897	1	6
369.093	1	-3
370.290	1	4
371.486	1	7
372.682	1	-3
373.879	1	11
375.075	1	10
376.271	1	0
377.467	1	-5
378.663	1	-4
379.859	1	3
381.055	1	-2
382.251	1	4
383.447	1	11
384.643	1	7
385.839	1	9
387.035	1	-9
388.230	1	-3
389.426	1	11
390.622	1	2
391.817	1	11
393.013	1	13
394.208	1	9
395.404	1	-1
396.599	1	11
397.795	1	12
398.990	1	11
400.186	1	7
401.381	1	2
402.576	1	18
403.771	1	6
404.967	1	15
406.162	1	1
407.357	1	6
408.552	1	1
409.747	1	-6
410.942	1	1
412.137	1	19
413.332	1	5
414.526	1	-1
415.721	1	0
416.916	1	-3
418.111	1	4
419.305	1	-2
420.500	1	0
421.695	1	6
422.889	1	10
424.084	1	6
425.278	1	-4
426.472	1	-7
427.667	1	9
428.861	1	1
430.055	1	-1
431.250	1	-11
432.444	1	-5
433.638	1	5
434.832	1	4
436.026	1	6
437.220	1	10
438.414	1	-1
439.608	1	-1
440.802	1	7
441.996	1	1
443.190	1	-4
444.384	1	-1
445.578	1	11
446.771	1	1
447.965	1	-8
449.159	1	-5
450.352	1	4
451.546	1	4
452.739	1	-2
453.933	1	5
455.126	1	11
456.320	1	3
457.513	1	6
458.706	1	-6
459.899	1	15
461.093	1	6
462.286	1	2
463.479	1	2
464.672	1	-10
465.865	1	-4
467.058	1	13
468.251	1	-4
469.444	1	-6
470.637	1	17
471.830	1	11
473.023	1	-2
474.215	1	10
475.408	1	4
476.601	1	1
477.793	1	7
478.986	1	6
480.179	1	-6
481.371	1	1
482.564	1	-5
483.756	1	8
484.948	1	-2
486.141	1	-9
487.333	1	10
488.525	1	0
489.718	1	1
490.910	1	-3
492.102	1	-1
493.294	1	10
494.486	1	4
495.678	1	9
496.870	1	5
498.062	1	-3
499.254	1	4
500.446	1	4
501.638	1	-6
502.829	1	3
504.021	1	21
505.213	1	-1
506.404	1	-1
507.596	1	9
508.788	1	-2
509.979	1	3
511.171	1	2
512.362	1	-3
513.553	1	-9
514.745	1	0
515.936	1	3
517.127	1	5
518.319	1	-1
519.510	1	4
520.701	1	0
521.892	1	-5
523.083	1	1
524.274	1	1
525.465	1	-3
526.656	1	15
527.847	1	-8
529.038	1	4
530.229	1	-1
531.419	1	12
532.610	1	12
533.801	1	-2
534.991	1	2
536.182	1	3
537.373	1	6
538.563	1	4
539.754	1	0
540.944	1	-3
542.134	1	5
543.325	1	-3
544.515	1	-6
545.705	1	-2
546.896	1	-1
548.086	1	7
549.276	1	13
550.466	1	3
551.656	1	-9
552.846	1	6
554.036	1	11
555.226	1	-7
556.416	1	2
557.606	1	-6
558.796	1	-5
559.986	1	-3
561.175	1	7
562.365	1	10
563.555	1	7
564.744	1	10
565.934	1	7
567.123	1	18
568.313	1	-3
569.502	1	2
570.692	1	3
571.881	1	1
573.070	1	7
574.260	1	-10
575.449	1	12
576.638	1	3
577.827	1	1
579.016	1	13
580.205	1	4
581.394	1	-6
582.583	1	-13
583.772	1	10
584.961	1	-2
586.150	1	1
587.339	1	-1
588.528	1	-7
589.717	1	-1
590.905	1	8
592.094	1	3
593.283	1	5
594.471	1	-1
595.660	1	-9
596.848	1	1
598.037	1	2
599.225	1	2
600.413	1	0
601.602	1	10
602.790	1	-2
603.978	1	2
605.166	1	-3
606.355	1	10
607.543	1	-10
608.731	1	-14
609.919	1	-6
611.107	1	10
612.295	1	3
613.483	1	8
614.671	1	4
615.858	1	9
617.046	1	-1
618.234	1	5
619.422	1	-1
620.609	1	8
621.797	1	-2
622.985	1	9
624.172	1	9
625.360	1	2
626.547	1	0
627.735	1	1
628.922	1	2
630.109	1	-1
631.297	1	-4
632.484	1	-4
633.671	1	4
634.858	1	-1
636.045	1	6
637.232	1	1
638.419	1	13
639.606	1	26
640.793	1	1
641.980	1	-3
643.167	1	9
644.354	1	0
645.541	1	-12
646.728	1	-1
647.914	1	-5
649.101	1	8
650.288	1	-3
651.474	1	9
652.661	1	11
653.847	1	2
655.034	1	-6
656.220	1	2
657.406	1	1
658.593	1	-6
659.779	1	-10
660.965	1	-3
662.152	1	-4
663.338	1	-5
664.524	1	-7
665.710	1	-4
666.896	1	-7
668.082	1	3
669.268	1	4
670.454	1	1
671.640	1	-10
672.826	1	-19
674.011	1	13
675.197	1	-7
676.383	1	-4
677.569	1	3
678.754	1	-10
679.940	1	3
681.125	1	2
682.311	1	10
683.496	1	-11
684.682	1	12
685.867	1	5
687.053	1	2
688.238	1	1
688.746	1	5