File: Analysis/GaN_68K_200ms/GaN_sample E_spot4_UVVIS_68 K_200um_200 ms 2x2mm1_811.txt
340.368	1	-6
341.565	1	-10
342.763	1	2
343.960	1	-4
345.157	1	6
346.354	1	-6
347.552	1	0
348.749	1	-3
349.946	1	4
351.143	1	-11
352.340	1	0
353.537	1	-3
354.734	1	2
355.931	1	-3
357.127	1	-14
358.324	1	5
359.521	1	-2
360.718	1	-7
361.914	1	8
363.111	1	14
364.308	1	-3
365.504	1	-10
366.701	1	-10
367.897	1	0
369.093	1	-3
370.290	1	1
371.486	1	6
372.682	1	1
373.879	1	4
375.075	1	2
376.271	1	-2
377.467	1	-14
378.663	1	-4
379.859	1	-6
381.055	1	-4
382.251	1	9
383.447	1	11
384.643	1	8
385.839	1	0
387.035	1	-2
388.230	1	-3
389.426	1	16
390.622	1	-4
391.817	1	-8
393.013	1	7
394.208	1	1
395.404	1	15
396.599	1	3
397.795	1	8
398.990	1	6
400.186	1	8
401.381	1	8
402.576	1	15
403.771	1	1
404.967	1	-3
406.162	1	-2
407.357	1	16
408.552	1	1
409.747	1	-4
410.942	1	3
412.137	1	6
413.332	1	2
414.526	1	7
415.721	1	3
416.916	1	4
418.111	1	-1
419.305	1	1
420.500	1	3
421.695	1	7
422.889	1	1
424.084	1	6
425.278	1	-10
426.472	1	-9
427.667	1	5
428.861	1	4
430.055	1	-5
431.250	1	-8
432.444	1	-1
433.638	1	-1
434.832	1	-6
436.026	1	9
437.220	1	2
438.414	1	3
439.608	1	8
440.802	1	-2
441.996	1	-7
443.190	1	-7
444.384	1	-1
445.578	1	7
446.771	1	2
447.965	1	-5
449.159	1	-1
450.352	1	8
451.546	1	5
452.739	1	-1
453.933	1	6
455.126	1	3
456.320	1	-2
457.513	1	0
458.706	1	2
459.899	1	9
461.093	1	3
462.286	1	3
463.479	1	8
464.672	1	-6
465.865	1	-9
467.058	1	8
468.251	1	-7
469.444	1	-9
470.637	1	10
471.830	1	10
473.023	1	-5
474.215	1	-9
475.408	1	-2
476.601	1	4
477.793	1	10
478.986	1	3
480.179	1	4
481.371	1	-3
482.564	1	-11
483.756	1	8
484.948	1	-11
486.141	1	-11
487.333	1	4
488.525	1	-7
489.718	1	-8
490.910	1	-1
492.102	1	-6
493.294	1	2
494.486	1	2
495.678	1	8
496.870	1	4
498.062	1	-7
499.254	1	-5
500.446	1	0
501.638	1	-9
502.829	1	1
504.021	1	18
505.213	1	-8
506.404	1	-5
507.596	1	-3
508.788	1	-3
509.979	1	3
511.171	1	9
512.362	1	1
513.553	1	-6
514.745	1	-12
515.936	1	2
517.127	1	-7
518.319	1	1
519.510	1	0
520.701	1	-3
521.892	1	-2
523.083	1	-11
524.274	1	-4
525.465	1	7
526.656	1	20
527.847	1	-8
529.038	1	3
530.229	1	5
531.419	1	11
532.610	1	1
533.801	1	-3
534.991	1	4
536.182	1	0
537.373	1	-9
538.563	1	-4
539.754	1	-7
540.944	1	-1
542.134	1	-2
543.325	1	0
544.515	1	-4
545.705	1	4
546.896	1	11
548.086	1	6
549.276	1	6
550.466	1	-8
551.656	1	-3
552.846	1	-4
554.036	1	1
555.226	1	0
556.416	1	-2
557.606	1	-11
558.796	1	-3
559.986	1	-1
561.175	1	3
562.365	1	-5
563.555	1	6
564.744	1	6
565.934	1	13
567.123	1	13
568.313	1	1
569.502	1	4
570.692	1	1
571.881	1	3
573.070	1	4
574.260	1	1
575.449	1	6
576.638	1	-8
577.827	1	1
579.016	1	5
580.205	1	-3
581.394	1	3
582.583	1	-10
583.772	1	2
584.961	1	2
586.150	1	0
587.339	1	4
588.528	1	1
589.717	1	-7
590.905	1	8
592.094	1	-5
593.283	1	7
594.471	1	1
595.660	1	-11
596.848	1	-7
598.037	1	1
599.225	1	6
600.413	1	-5
601.602	1	6
602.790	1	5
603.978	1	-7
605.166	1	-9
606.355	1	10
607.543	1	-14
608.731	1	-7
609.919	1	-6
611.107	1	4
612.295	1	9
613.483	1	2
614.671	1	6
615.858	1	7
617.046	1	-1
618.234	1	2
619.422	1	5
620.609	1	3
621.797	1	3
622.985	1	-5
624.172	1	9
625.360	1	-1
626.547	1	5
627.735	1	6
628.922	1	3
630.109	1	3
631.297	1	0
632.484	1	1
633.671	1	-5
634.858	1	9
636.045	1	0
637.232	1	-9
638.419	1	1
639.606	1	9
640.793	1	-2
641.980	1	-5
643.167	1	4
644.354	1	-3
645.541	1	-10
646.728	1	6
647.914	1	-2
649.101	1	9
650.288	1	-12
651.474	1	-1
652.661	1	-6
653.847	1	8
655.034	1	-1
656.220	1	4
657.406	1	-1
658.593	1	-5
659.779	1	-1
660.965	1	6
662.152	1	4
663.338	1	-5
664.524	1	-4
665.710	1	-9
666.896	1	-3
668.082	1	0
669.268	1	0
670.454	1	0
671.640	1	-7
672.826	1	-14
674.011	1	3
675.197	1	-14
676.383	1	-1
677.569	1	-8
678.754	1	-2
679.940	1	-1
681.125	1	6
682.311	1	1
683.496	1	-2
684.682	1	7
685.867	1	3
687.053	1	12
688.238	1	-3
688.746	1	1