File: Analysis/GaN_68K_200ms/GaN_sample E_spot4_UVVIS_68 K_200um_200 ms 2x2mm1_507.txt
340.368	1	3
341.565	1	-6
342.763	1	-9
343.960	1	-1
345.157	1	-2
346.354	1	-2
347.552	1	5
348.749	1	1
349.946	1	6
351.143	1	-7
352.340	1	-12
353.537	1	3
354.734	1	4
355.931	1	0
357.127	1	-1
358.324	1	-5
359.521	1	2
360.718	1	0
361.914	1	-3
363.111	1	15
364.308	1	-5
365.504	1	1
366.701	1	-7
367.897	1	8
369.093	1	-1
370.290	1	-8
371.486	1	13
372.682	1	3
373.879	1	10
375.075	1	9
376.271	1	-2
377.467	1	4
378.663	1	-4
379.859	1	1
381.055	1	-4
382.251	1	11
383.447	1	12
384.643	1	-2
385.839	1	11
387.035	1	-6
388.230	1	4
389.426	1	6
390.622	1	3
391.817	1	5
393.013	1	12
394.208	1	12
395.404	1	14
396.599	1	1
397.795	1	14
398.990	1	3
400.186	1	18
401.381	1	12
402.576	1	10
403.771	1	7
404.967	1	2
406.162	1	-2
407.357	1	3
408.552	1	7
409.747	1	-10
410.942	1	1
412.137	1	8
413.332	1	-6
414.526	1	10
415.721	1	2
416.916	1	2
418.111	1	-1
419.305	1	0
420.500	1	1
421.695	1	7
422.889	1	7
424.084	1	-1
425.278	1	3
426.472	1	-3
427.667	1	4
428.861	1	4
430.055	1	4
431.250	1	-5
432.444	1	3
433.638	1	-4
434.832	1	2
436.026	1	11
437.220	1	4
438.414	1	-6
439.608	1	2
440.802	1	0
441.996	1	7
443.190	1	-9
444.384	1	-1
445.578	1	5
446.771	1	3
447.965	1	-12
449.159	1	-3
450.352	1	13
451.546	1	8
452.739	1	7
453.933	1	7
455.126	1	-2
456.320	1	2
457.513	1	8
458.706	1	-3
459.899	1	8
461.093	1	5
462.286	1	19
463.479	1	9
464.672	1	-1
465.865	1	-3
467.058	1	15
468.251	1	-5
469.444	1	-4
470.637	1	9
471.830	1	12
473.023	1	-12
474.215	1	4
475.408	1	7
476.601	1	-5
477.793	1	8
478.986	1	2
480.179	1	13
481.371	1	2
482.564	1	-5
483.756	1	9
484.948	1	-9
486.141	1	-1
487.333	1	8
488.525	1	-3
489.718	1	-1
490.910	1	-6
492.102	1	-7
493.294	1	6
494.486	1	10
495.678	1	5
496.870	1	12
498.062	1	5
499.254	1	-1
500.446	1	8
501.638	1	2
502.829	1	1
504.021	1	14
505.213	1	7
506.404	1	-2
507.596	1	-1
508.788	1	4
509.979	1	-2
511.171	1	10
512.362	1	1
513.553	1	-7
514.745	1	2
515.936	1	0
517.127	1	3
518.319	1	1
519.510	1	0
520.701	1	9
521.892	1	-17
523.083	1	-2
524.274	1	-8
525.465	1	1
526.656	1	10
527.847	1	-5
529.038	1	8
530.229	1	-2
531.419	1	7
532.610	1	1
533.801	1	7
534.991	1	6
536.182	1	-3
537.373	1	1
538.563	1	-1
539.754	1	-7
540.944	1	3
542.134	1	1
543.325	1	-1
544.515	1	5
545.705	1	4
546.896	1	2
548.086	1	9
549.276	1	1
550.466	1	-5
551.656	1	-1
552.846	1	4
554.036	1	13
555.226	1	-8
556.416	1	-8
557.606	1	-5
558.796	1	3
559.986	1	1
561.175	1	-4
562.365	1	4
563.555	1	19
564.744	1	14
565.934	1	6
567.123	1	11
568.313	1	-3
569.502	1	-2
570.692	1	1
571.881	1	10
573.070	1	2
574.260	1	-4
575.449	1	5
576.638	1	4
577.827	1	10
579.016	1	19
580.205	1	5
581.394	1	2
582.583	1	-9
583.772	1	2
584.961	1	4
586.150	1	8
587.339	1	2
588.528	1	8
589.717	1	6
590.905	1	9
592.094	1	-8
593.283	1	1
594.471	1	0
595.660	1	0
596.848	1	2
598.037	1	0
599.225	1	3
600.413	1	1
601.602	1	6
602.790	1	3
603.978	1	4
605.166	1	2
606.355	1	6
607.543	1	-3
608.731	1	-2
609.919	1	-7
611.107	1	15
612.295	1	10
613.483	1	7
614.671	1	1
615.858	1	3
617.046	1	3
618.234	1	3
619.422	1	-2
620.609	1	1
621.797	1	0
622.985	1	2
624.172	1	13
625.360	1	-13
626.547	1	9
627.735	1	3
628.922	1	0
630.109	1	-8
631.297	1	-2
632.484	1	-4
633.671	1	1
634.858	1	15
636.045	1	7
637.232	1	-2
638.419	1	11
639.606	1	8
640.793	1	14
641.980	1	-4
643.167	1	16
644.354	1	0
645.541	1	-5
646.728	1	5
647.914	1	-4
649.101	1	7
650.288	1	-3
651.474	1	6
652.661	1	5
653.847	1	3
655.034	1	0
656.220	1	-6
657.406	1	4
658.593	1	-5
659.779	1	3
660.965	1	-4
662.152	1	6
663.338	1	-2
664.524	1	-10
665.710	1	4
666.896	1	4
668.082	1	0
669.268	1	6
670.454	1	3
671.640	1	-13
672.826	1	-8
674.011	1	6
675.197	1	-1
676.383	1	1
677.569	1	1
678.754	1	12
679.940	1	0
681.125	1	7
682.311	1	3
683.496	1	1
684.682	1	4
685.867	1	3
687.053	1	9
688.238	1	-1
688.746	1	2