File: Analysis/GaN_68K_200ms/GaN_sample E_spot4_UVVIS_68 K_200um_200 ms 2x2mm1_427.txt
340.368	1	10
341.565	1	-2
342.763	1	-3
343.960	1	-6
345.157	1	15
346.354	1	-7
347.552	1	-1
348.749	1	-4
349.946	1	10
351.143	1	-10
352.340	1	-1
353.537	1	4
354.734	1	3
355.931	1	-2
357.127	1	7
358.324	1	1
359.521	1	-1
360.718	1	-7
361.914	1	-5
363.111	1	9
364.308	1	-4
365.504	1	-1
366.701	1	-4
367.897	1	3
369.093	1	-3
370.290	1	-11
371.486	1	3
372.682	1	-1
373.879	1	13
375.075	1	0
376.271	1	-1
377.467	1	-1
378.663	1	-1
379.859	1	0
381.055	1	0
382.251	1	6
383.447	1	17
384.643	1	11
385.839	1	2
387.035	1	-4
388.230	1	1
389.426	1	8
390.622	1	0
391.817	1	2
393.013	1	11
394.208	1	9
395.404	1	15
396.599	1	3
397.795	1	14
398.990	1	9
400.186	1	8
401.381	1	5
402.576	1	-1
403.771	1	6
404.967	1	-1
406.162	1	5
407.357	1	9
408.552	1	8
409.747	1	-3
410.942	1	17
412.137	1	7
413.332	1	2
414.526	1	6
415.721	1	13
416.916	1	2
418.111	1	2
419.305	1	7
420.500	1	16
421.695	1	10
422.889	1	3
424.084	1	2
425.278	1	2
426.472	1	-7
427.667	1	12
428.861	1	0
430.055	1	8
431.250	1	-8
432.444	1	6
433.638	1	-4
434.832	1	-8
436.026	1	6
437.220	1	-2
438.414	1	3
439.608	1	-6
440.802	1	10
441.996	1	4
443.190	1	-1
444.384	1	9
445.578	1	13
446.771	1	-9
447.965	1	-8
449.159	1	-6
450.352	1	10
451.546	1	2
452.739	1	8
453.933	1	-1
455.126	1	-4
456.320	1	1
457.513	1	10
458.706	1	-9
459.899	1	12
461.093	1	10
462.286	1	5
463.479	1	10
464.672	1	-1
465.865	1	-2
467.058	1	10
468.251	1	-11
469.444	1	1
470.637	1	3
471.830	1	12
473.023	1	3
474.215	1	-2
475.408	1	7
476.601	1	-5
477.793	1	11
478.986	1	4
480.179	1	4
481.371	1	-2
482.564	1	-2
483.756	1	9
484.948	1	-2
486.141	1	-4
487.333	1	7
488.525	1	2
489.718	1	-2
490.910	1	-2
492.102	1	-11
493.294	1	10
494.486	1	10
495.678	1	10
496.870	1	-1
498.062	1	0
499.254	1	6
500.446	1	11
501.638	1	-7
502.829	1	-1
504.021	1	17
505.213	1	-1
506.404	1	-3
507.596	1	7
508.788	1	-2
509.979	1	-5
511.171	1	10
512.362	1	8
513.553	1	1
514.745	1	4
515.936	1	5
517.127	1	0
518.319	1	0
519.510	1	3
520.701	1	6
521.892	1	-3
523.083	1	6
524.274	1	-4
525.465	1	0
526.656	1	23
527.847	1	-2
529.038	1	5
530.229	1	-4
531.419	1	14
532.610	1	5
533.801	1	9
534.991	1	5
536.182	1	6
537.373	1	-1
538.563	1	6
539.754	1	-6
540.944	1	5
542.134	1	1
543.325	1	4
544.515	1	-5
545.705	1	7
546.896	1	11
548.086	1	8
549.276	1	13
550.466	1	-5
551.656	1	-9
552.846	1	9
554.036	1	7
555.226	1	-8
556.416	1	2
557.606	1	-7
558.796	1	3
559.986	1	-8
561.175	1	3
562.365	1	0
563.555	1	16
564.744	1	7
565.934	1	0
567.123	1	22
568.313	1	-12
569.502	1	7
570.692	1	5
571.881	1	11
573.070	1	8
574.260	1	2
575.449	1	8
576.638	1	-2
577.827	1	6
579.016	1	11
580.205	1	-1
581.394	1	-8
582.583	1	-8
583.772	1	-8
584.961	1	8
586.150	1	7
587.339	1	9
588.528	1	3
589.717	1	-6
590.905	1	8
592.094	1	0
593.283	1	14
594.471	1	5
595.660	1	3
596.848	1	10
598.037	1	5
599.225	1	3
600.413	1	-5
601.602	1	1
602.790	1	3
603.978	1	2
605.166	1	4
606.355	1	6
607.543	1	-12
608.731	1	-9
609.919	1	-10
611.107	1	17
612.295	1	-2
613.483	1	5
614.671	1	-1
615.858	1	8
617.046	1	10
618.234	1	-7
619.422	1	-1
620.609	1	-3
621.797	1	2
622.985	1	1
624.172	1	14
625.360	1	-7
626.547	1	-1
627.735	1	7
628.922	1	4
630.109	1	1
631.297	1	-2
632.484	1	3
633.671	1	4
634.858	1	7
636.045	1	8
637.232	1	-2
638.419	1	6
639.606	1	11
640.793	1	8
641.980	1	-3
643.167	1	11
644.354	1	7
645.541	1	-7
646.728	1	1
647.914	1	4
649.101	1	4
650.288	1	-2
651.474	1	9
652.661	1	0
653.847	1	2
655.034	1	6
656.220	1	6
657.406	1	7
658.593	1	-3
659.779	1	1
660.965	1	3
662.152	1	6
663.338	1	-1
664.524	1	-8
665.710	1	3
666.896	1	-5
668.082	1	-2
669.268	1	4
670.454	1	0
671.640	1	-16
672.826	1	-18
674.011	1	12
675.197	1	-4
676.383	1	-6
677.569	1	-1
678.754	1	-4
679.940	1	1
681.125	1	9
682.311	1	12
683.496	1	-7
684.682	1	8
685.867	1	2
687.053	1	7
688.238	1	3
688.746	1	6