File: Analysis/GaN_68K_200ms/GaN_sample E_spot4_UVVIS_68 K_200um_200 ms 2x2mm1_754.txt
340.368	1	-1
341.565	1	-6
342.763	1	-7
343.960	1	-4
345.157	1	-4
346.354	1	2
347.552	1	6
348.749	1	-2
349.946	1	8
351.143	1	-8
352.340	1	-6
353.537	1	1
354.734	1	0
355.931	1	5
357.127	1	5
358.324	1	1
359.521	1	3
360.718	1	-4
361.914	1	-6
363.111	1	9
364.308	1	-5
365.504	1	-2
366.701	1	-5
367.897	1	1
369.093	1	2
370.290	1	2
371.486	1	14
372.682	1	-5
373.879	1	4
375.075	1	10
376.271	1	-7
377.467	1	-3
378.663	1	-7
379.859	1	-1
381.055	1	4
382.251	1	4
383.447	1	11
384.643	1	9
385.839	1	-2
387.035	1	1
388.230	1	7
389.426	1	0
390.622	1	-8
391.817	1	6
393.013	1	9
394.208	1	1
395.404	1	1
396.599	1	3
397.795	1	0
398.990	1	2
400.186	1	13
401.381	1	2
402.576	1	12
403.771	1	1
404.967	1	3
406.162	1	-5
407.357	1	7
408.552	1	-2
409.747	1	4
410.942	1	5
412.137	1	12
413.332	1	-7
414.526	1	1
415.721	1	4
416.916	1	5
418.111	1	5
419.305	1	-1
420.500	1	-1
421.695	1	1
422.889	1	10
424.084	1	6
425.278	1	-7
426.472	1	-11
427.667	1	5
428.861	1	-4
430.055	1	-4
431.250	1	-6
432.444	1	1
433.638	1	-7
434.832	1	-5
436.026	1	-4
437.220	1	4
438.414	1	7
439.608	1	5
440.802	1	1
441.996	1	-2
443.190	1	-11
444.384	1	6
445.578	1	6
446.771	1	7
447.965	1	-7
449.159	1	-8
450.352	1	-4
451.546	1	7
452.739	1	8
453.933	1	13
455.126	1	1
456.320	1	-5
457.513	1	12
458.706	1	0
459.899	1	11
461.093	1	2
462.286	1	0
463.479	1	12
464.672	1	-1
465.865	1	4
467.058	1	8
468.251	1	-3
469.444	1	-4
470.637	1	14
471.830	1	16
473.023	1	-5
474.215	1	-9
475.408	1	3
476.601	1	6
477.793	1	1
478.986	1	7
480.179	1	5
481.371	1	-5
482.564	1	-7
483.756	1	0
484.948	1	-5
486.141	1	-7
487.333	1	3
488.525	1	3
489.718	1	-3
490.910	1	-14
492.102	1	-4
493.294	1	10
494.486	1	-4
495.678	1	11
496.870	1	7
498.062	1	-5
499.254	1	0
500.446	1	3
501.638	1	-2
502.829	1	-3
504.021	1	16
505.213	1	-1
506.404	1	-8
507.596	1	4
508.788	1	4
509.979	1	-1
511.171	1	10
512.362	1	-4
513.553	1	-6
514.745	1	8
515.936	1	-3
517.127	1	4
518.319	1	0
519.510	1	0
520.701	1	3
521.892	1	-17
523.083	1	6
524.274	1	-5
525.465	1	-4
526.656	1	10
527.847	1	-4
529.038	1	-4
530.229	1	1
531.419	1	10
532.610	1	-4
533.801	1	-3
534.991	1	0
536.182	1	-8
537.373	1	-1
538.563	1	9
539.754	1	-11
540.944	1	0
542.134	1	10
543.325	1	-4
544.515	1	9
545.705	1	2
546.896	1	-5
548.086	1	8
549.276	1	12
550.466	1	-8
551.656	1	-13
552.846	1	5
554.036	1	0
555.226	1	-12
556.416	1	0
557.606	1	-11
558.796	1	-4
559.986	1	-10
561.175	1	-1
562.365	1	-1
563.555	1	13
564.744	1	1
565.934	1	2
567.123	1	15
568.313	1	-1
569.502	1	3
570.692	1	-2
571.881	1	4
573.070	1	2
574.260	1	-7
575.449	1	6
576.638	1	10
577.827	1	6
579.016	1	10
580.205	1	-6
581.394	1	-4
582.583	1	-10
583.772	1	6
584.961	1	4
586.150	1	4
587.339	1	-4
588.528	1	-1
589.717	1	2
590.905	1	4
592.094	1	3
593.283	1	5
594.471	1	2
595.660	1	-6
596.848	1	10
598.037	1	4
599.225	1	-7
600.413	1	3
601.602	1	10
602.790	1	-8
603.978	1	2
605.166	1	-5
606.355	1	3
607.543	1	-3
608.731	1	-12
609.919	1	-9
611.107	1	8
612.295	1	1
613.483	1	0
614.671	1	6
615.858	1	-6
617.046	1	2
618.234	1	-2
619.422	1	-1
620.609	1	2
621.797	1	-5
622.985	1	3
624.172	1	6
625.360	1	-10
626.547	1	8
627.735	1	4
628.922	1	4
630.109	1	-4
631.297	1	-6
632.484	1	-7
633.671	1	0
634.858	1	4
636.045	1	1
637.232	1	-4
638.419	1	15
639.606	1	4
640.793	1	5
641.980	1	1
643.167	1	5
644.354	1	-5
645.541	1	-5
646.728	1	0
647.914	1	1
649.101	1	-2
650.288	1	-2
651.474	1	9
652.661	1	1
653.847	1	0
655.034	1	-10
656.220	1	2
657.406	1	0
658.593	1	-10
659.779	1	-5
660.965	1	1
662.152	1	-9
663.338	1	-3
664.524	1	-13
665.710	1	-8
666.896	1	-2
668.082	1	5
669.268	1	-3
670.454	1	2
671.640	1	-6
672.826	1	-20
674.011	1	4
675.197	1	-4
676.383	1	-1
677.569	1	-4
678.754	1	-8
679.940	1	-5
681.125	1	2
682.311	1	-2
683.496	1	-7
684.682	1	10
685.867	1	-1
687.053	1	-6
688.238	1	0
688.746	1	-3