File: Analysis/GaN_68K_200ms/GaN_sample E_spot4_UVVIS_68 K_200um_200 ms 2x2mm1_498.txt
340.368	1	-2
341.565	1	-6
342.763	1	-4
343.960	1	2
345.157	1	6
346.354	1	8
347.552	1	-5
348.749	1	-2
349.946	1	7
351.143	1	-12
352.340	1	-6
353.537	1	2
354.734	1	8
355.931	1	2
357.127	1	-9
358.324	1	-2
359.521	1	-3
360.718	1	1
361.914	1	-1
363.111	1	10
364.308	1	0
365.504	1	7
366.701	1	-9
367.897	1	0
369.093	1	0
370.290	1	2
371.486	1	14
372.682	1	3
373.879	1	12
375.075	1	2
376.271	1	-6
377.467	1	-6
378.663	1	3
379.859	1	-4
381.055	1	6
382.251	1	9
383.447	1	10
384.643	1	14
385.839	1	6
387.035	1	-1
388.230	1	4
389.426	1	8
390.622	1	9
391.817	1	2
393.013	1	7
394.208	1	14
395.404	1	10
396.599	1	9
397.795	1	2
398.990	1	8
400.186	1	14
401.381	1	17
402.576	1	5
403.771	1	8
404.967	1	4
406.162	1	-1
407.357	1	3
408.552	1	5
409.747	1	-9
410.942	1	-1
412.137	1	6
413.332	1	-2
414.526	1	7
415.721	1	3
416.916	1	-5
418.111	1	1
419.305	1	7
420.500	1	6
421.695	1	7
422.889	1	14
424.084	1	2
425.278	1	3
426.472	1	-5
427.667	1	8
428.861	1	-2
430.055	1	-3
431.250	1	-4
432.444	1	7
433.638	1	4
434.832	1	0
436.026	1	3
437.220	1	7
438.414	1	4
439.608	1	0
440.802	1	2
441.996	1	-2
443.190	1	-9
444.384	1	0
445.578	1	-1
446.771	1	-10
447.965	1	-1
449.159	1	-9
450.352	1	11
451.546	1	2
452.739	1	-8
453.933	1	13
455.126	1	-3
456.320	1	1
457.513	1	3
458.706	1	6
459.899	1	3
461.093	1	5
462.286	1	12
463.479	1	8
464.672	1	5
465.865	1	-6
467.058	1	8
468.251	1	-2
469.444	1	1
470.637	1	8
471.830	1	16
473.023	1	-1
474.215	1	-8
475.408	1	12
476.601	1	-2
477.793	1	4
478.986	1	-2
480.179	1	7
481.371	1	3
482.564	1	-8
483.756	1	19
484.948	1	-4
486.141	1	-8
487.333	1	-3
488.525	1	5
489.718	1	-4
490.910	1	-8
492.102	1	-3
493.294	1	7
494.486	1	8
495.678	1	5
496.870	1	-10
498.062	1	-3
499.254	1	8
500.446	1	9
501.638	1	6
502.829	1	2
504.021	1	25
505.213	1	-6
506.404	1	3
507.596	1	0
508.788	1	7
509.979	1	-2
511.171	1	13
512.362	1	-1
513.553	1	-1
514.745	1	-9
515.936	1	2
517.127	1	2
518.319	1	6
519.510	1	-3
520.701	1	5
521.892	1	-1
523.083	1	1
524.274	1	5
525.465	1	4
526.656	1	17
527.847	1	-2
529.038	1	11
530.229	1	4
531.419	1	14
532.610	1	7
533.801	1	3
534.991	1	0
536.182	1	3
537.373	1	-10
538.563	1	3
539.754	1	-6
540.944	1	-3
542.134	1	10
543.325	1	-1
544.515	1	-4
545.705	1	7
546.896	1	-3
548.086	1	12
549.276	1	4
550.466	1	-1
551.656	1	-17
552.846	1	7
554.036	1	8
555.226	1	-11
556.416	1	5
557.606	1	-8
558.796	1	1
559.986	1	-4
561.175	1	6
562.365	1	5
563.555	1	29
564.744	1	5
565.934	1	7
567.123	1	15
568.313	1	0
569.502	1	11
570.692	1	2
571.881	1	12
573.070	1	11
574.260	1	-6
575.449	1	8
576.638	1	0
577.827	1	4
579.016	1	10
580.205	1	1
581.394	1	-8
582.583	1	2
583.772	1	-1
584.961	1	-2
586.150	1	6
587.339	1	3
588.528	1	5
589.717	1	3
590.905	1	6
592.094	1	-5
593.283	1	3
594.471	1	2
595.660	1	-8
596.848	1	7
598.037	1	2
599.225	1	1
600.413	1	9
601.602	1	4
602.790	1	-3
603.978	1	1
605.166	1	3
606.355	1	0
607.543	1	2
608.731	1	-5
609.919	1	-7
611.107	1	3
612.295	1	6
613.483	1	8
614.671	1	5
615.858	1	3
617.046	1	2
618.234	1	-1
619.422	1	-3
620.609	1	2
621.797	1	-5
622.985	1	3
624.172	1	16
625.360	1	-4
626.547	1	-3
627.735	1	7
628.922	1	3
630.109	1	5
631.297	1	-4
632.484	1	-5
633.671	1	2
634.858	1	10
636.045	1	-7
637.232	1	8
638.419	1	8
639.606	1	12
640.793	1	4
641.980	1	-1
643.167	1	1
644.354	1	11
645.541	1	-7
646.728	1	-1
647.914	1	-2
649.101	1	-9
650.288	1	-5
651.474	1	3
652.661	1	8
653.847	1	5
655.034	1	5
656.220	1	2
657.406	1	6
658.593	1	-14
659.779	1	-7
660.965	1	12
662.152	1	-11
663.338	1	3
664.524	1	-11
665.710	1	-6
666.896	1	0
668.082	1	6
669.268	1	8
670.454	1	3
671.640	1	-11
672.826	1	-11
674.011	1	8
675.197	1	0
676.383	1	-3
677.569	1	-5
678.754	1	-2
679.940	1	1
681.125	1	7
682.311	1	-5
683.496	1	-10
684.682	1	10
685.867	1	2
687.053	1	-3
688.238	1	2
688.746	1	-6