File: Analysis/GaN_68K_200ms/GaN_sample E_spot4_UVVIS_68 K_200um_200 ms 2x2mm1_546.txt
340.368	1	-2
341.565	1	-7
342.763	1	-2
343.960	1	-4
345.157	1	3
346.354	1	-5
347.552	1	-2
348.749	1	3
349.946	1	1
351.143	1	-5
352.340	1	4
353.537	1	1
354.734	1	-12
355.931	1	7
357.127	1	-1
358.324	1	-3
359.521	1	-5
360.718	1	-4
361.914	1	2
363.111	1	8
364.308	1	2
365.504	1	-16
366.701	1	-4
367.897	1	-1
369.093	1	3
370.290	1	1
371.486	1	7
372.682	1	-5
373.879	1	0
375.075	1	4
376.271	1	-5
377.467	1	-2
378.663	1	0
379.859	1	-7
381.055	1	2
382.251	1	5
383.447	1	17
384.643	1	11
385.839	1	9
387.035	1	5
388.230	1	-9
389.426	1	6
390.622	1	2
391.817	1	-1
393.013	1	6
394.208	1	14
395.404	1	5
396.599	1	8
397.795	1	8
398.990	1	4
400.186	1	10
401.381	1	8
402.576	1	20
403.771	1	5
404.967	1	4
406.162	1	-7
407.357	1	11
408.552	1	-1
409.747	1	-2
410.942	1	-2
412.137	1	12
413.332	1	-5
414.526	1	6
415.721	1	-5
416.916	1	-3
418.111	1	-10
419.305	1	0
420.500	1	1
421.695	1	7
422.889	1	5
424.084	1	6
425.278	1	-11
426.472	1	-3
427.667	1	12
428.861	1	-3
430.055	1	2
431.250	1	-14
432.444	1	6
433.638	1	5
434.832	1	-10
436.026	1	8
437.220	1	12
438.414	1	2
439.608	1	0
440.802	1	15
441.996	1	-4
443.190	1	-12
444.384	1	5
445.578	1	4
446.771	1	-1
447.965	1	0
449.159	1	-10
450.352	1	5
451.546	1	0
452.739	1	6
453.933	1	2
455.126	1	4
456.320	1	-2
457.513	1	5
458.706	1	0
459.899	1	7
461.093	1	2
462.286	1	2
463.479	1	4
464.672	1	1
465.865	1	-2
467.058	1	9
468.251	1	-5
469.444	1	-1
470.637	1	10
471.830	1	8
473.023	1	1
474.215	1	-2
475.408	1	-5
476.601	1	3
477.793	1	6
478.986	1	-1
480.179	1	4
481.371	1	7
482.564	1	-8
483.756	1	6
484.948	1	2
486.141	1	-8
487.333	1	3
488.525	1	-11
489.718	1	-2
490.910	1	-7
492.102	1	-5
493.294	1	4
494.486	1	9
495.678	1	16
496.870	1	0
498.062	1	-9
499.254	1	4
500.446	1	4
501.638	1	3
502.829	1	-3
504.021	1	13
505.213	1	3
506.404	1	-2
507.596	1	6
508.788	1	3
509.979	1	14
511.171	1	8
512.362	1	6
513.553	1	6
514.745	1	0
515.936	1	-1
517.127	1	-2
518.319	1	6
519.510	1	0
520.701	1	8
521.892	1	-16
523.083	1	-11
524.274	1	-4
525.465	1	7
526.656	1	11
527.847	1	-4
529.038	1	8
530.229	1	-1
531.419	1	8
532.610	1	8
533.801	1	1
534.991	1	6
536.182	1	7
537.373	1	-11
538.563	1	2
539.754	1	-5
540.944	1	2
542.134	1	2
543.325	1	4
544.515	1	-5
545.705	1	2
546.896	1	2
548.086	1	7
549.276	1	-2
550.466	1	-9
551.656	1	-5
552.846	1	-5
554.036	1	7
555.226	1	-10
556.416	1	8
557.606	1	-2
558.796	1	-1
559.986	1	-3
561.175	1	4
562.365	1	6
563.555	1	4
564.744	1	15
565.934	1	3
567.123	1	13
568.313	1	-12
569.502	1	2
570.692	1	8
571.881	1	1
573.070	1	12
574.260	1	6
575.449	1	1
576.638	1	8
577.827	1	4
579.016	1	13
580.205	1	4
581.394	1	-7
582.583	1	-8
583.772	1	-4
584.961	1	1
586.150	1	4
587.339	1	2
588.528	1	7
589.717	1	2
590.905	1	5
592.094	1	8
593.283	1	-1
594.471	1	0
595.660	1	1
596.848	1	4
598.037	1	0
599.225	1	4
600.413	1	4
601.602	1	2
602.790	1	-7
603.978	1	5
605.166	1	-10
606.355	1	-1
607.543	1	-11
608.731	1	-6
609.919	1	-14
611.107	1	9
612.295	1	-16
613.483	1	3
614.671	1	-7
615.858	1	0
617.046	1	7
618.234	1	-3
619.422	1	-7
620.609	1	4
621.797	1	2
622.985	1	10
624.172	1	8
625.360	1	-4
626.547	1	-1
627.735	1	2
628.922	1	-4
630.109	1	-1
631.297	1	-3
632.484	1	-2
633.671	1	3
634.858	1	3
636.045	1	-3
637.232	1	-2
638.419	1	2
639.606	1	8
640.793	1	-3
641.980	1	-12
643.167	1	15
644.354	1	-1
645.541	1	-6
646.728	1	7
647.914	1	-6
649.101	1	-10
650.288	1	-7
651.474	1	4
652.661	1	2
653.847	1	8
655.034	1	-4
656.220	1	-1
657.406	1	0
658.593	1	-6
659.779	1	-10
660.965	1	-7
662.152	1	5
663.338	1	-2
664.524	1	-5
665.710	1	-8
666.896	1	1
668.082	1	-9
669.268	1	4
670.454	1	3
671.640	1	-22
672.826	1	-10
674.011	1	4
675.197	1	-7
676.383	1	-3
677.569	1	5
678.754	1	-3
679.940	1	-1
681.125	1	3
682.311	1	5
683.496	1	-10
684.682	1	4
685.867	1	-3
687.053	1	5
688.238	1	0
688.746	1	7