File: Analysis/GaN_68K_200ms/GaN_sample E_spot4_UVVIS_68 K_200um_200 ms 2x2mm1_515.txt
340.368	1	0
341.565	1	-7
342.763	1	2
343.960	1	-10
345.157	1	7
346.354	1	0
347.552	1	-5
348.749	1	10
349.946	1	15
351.143	1	-10
352.340	1	0
353.537	1	4
354.734	1	2
355.931	1	1
357.127	1	3
358.324	1	-4
359.521	1	4
360.718	1	-4
361.914	1	2
363.111	1	13
364.308	1	-2
365.504	1	-4
366.701	1	-6
367.897	1	8
369.093	1	7
370.290	1	3
371.486	1	0
372.682	1	-5
373.879	1	13
375.075	1	5
376.271	1	-9
377.467	1	-5
378.663	1	2
379.859	1	-1
381.055	1	8
382.251	1	5
383.447	1	9
384.643	1	6
385.839	1	10
387.035	1	7
388.230	1	-1
389.426	1	11
390.622	1	2
391.817	1	-6
393.013	1	10
394.208	1	10
395.404	1	7
396.599	1	1
397.795	1	3
398.990	1	9
400.186	1	11
401.381	1	3
402.576	1	12
403.771	1	11
404.967	1	6
406.162	1	1
407.357	1	2
408.552	1	6
409.747	1	0
410.942	1	6
412.137	1	6
413.332	1	10
414.526	1	5
415.721	1	6
416.916	1	-9
418.111	1	3
419.305	1	3
420.500	1	7
421.695	1	-2
422.889	1	1
424.084	1	-2
425.278	1	-17
426.472	1	-2
427.667	1	-2
428.861	1	5
430.055	1	6
431.250	1	-6
432.444	1	6
433.638	1	1
434.832	1	2
436.026	1	0
437.220	1	1
438.414	1	0
439.608	1	10
440.802	1	4
441.996	1	3
443.190	1	-14
444.384	1	8
445.578	1	11
446.771	1	2
447.965	1	-7
449.159	1	-6
450.352	1	-5
451.546	1	7
452.739	1	8
453.933	1	1
455.126	1	-8
456.320	1	3
457.513	1	6
458.706	1	0
459.899	1	6
461.093	1	13
462.286	1	14
463.479	1	12
464.672	1	-2
465.865	1	1
467.058	1	14
468.251	1	-6
469.444	1	5
470.637	1	10
471.830	1	15
473.023	1	-8
474.215	1	-2
475.408	1	-3
476.601	1	1
477.793	1	5
478.986	1	-1
480.179	1	-3
481.371	1	8
482.564	1	-17
483.756	1	8
484.948	1	0
486.141	1	-14
487.333	1	7
488.525	1	-4
489.718	1	5
490.910	1	-4
492.102	1	-3
493.294	1	3
494.486	1	3
495.678	1	9
496.870	1	1
498.062	1	0
499.254	1	0
500.446	1	2
501.638	1	1
502.829	1	-4
504.021	1	10
505.213	1	5
506.404	1	-8
507.596	1	5
508.788	1	-7
509.979	1	5
511.171	1	10
512.362	1	2
513.553	1	-9
514.745	1	-2
515.936	1	7
517.127	1	6
518.319	1	-2
519.510	1	-1
520.701	1	8
521.892	1	-7
523.083	1	2
524.274	1	-9
525.465	1	-2
526.656	1	18
527.847	1	-2
529.038	1	6
530.229	1	7
531.419	1	5
532.610	1	3
533.801	1	-1
534.991	1	-2
536.182	1	2
537.373	1	-7
538.563	1	11
539.754	1	2
540.944	1	-3
542.134	1	7
543.325	1	-1
544.515	1	5
545.705	1	8
546.896	1	3
548.086	1	10
549.276	1	11
550.466	1	-9
551.656	1	-4
552.846	1	13
554.036	1	7
555.226	1	0
556.416	1	2
557.606	1	-8
558.796	1	6
559.986	1	1
561.175	1	-5
562.365	1	9
563.555	1	17
564.744	1	-1
565.934	1	11
567.123	1	14
568.313	1	3
569.502	1	-1
570.692	1	0
571.881	1	6
573.070	1	1
574.260	1	-7
575.449	1	-2
576.638	1	-3
577.827	1	4
579.016	1	12
580.205	1	5
581.394	1	1
582.583	1	-2
583.772	1	-4
584.961	1	6
586.150	1	5
587.339	1	-5
588.528	1	4
589.717	1	-2
590.905	1	6
592.094	1	0
593.283	1	7
594.471	1	1
595.660	1	-1
596.848	1	12
598.037	1	0
599.225	1	0
600.413	1	4
601.602	1	4
602.790	1	1
603.978	1	1
605.166	1	-2
606.355	1	7
607.543	1	-4
608.731	1	3
609.919	1	-4
611.107	1	14
612.295	1	3
613.483	1	8
614.671	1	-6
615.858	1	6
617.046	1	4
618.234	1	1
619.422	1	-3
620.609	1	7
621.797	1	2
622.985	1	10
624.172	1	19
625.360	1	-7
626.547	1	2
627.735	1	5
628.922	1	-1
630.109	1	0
631.297	1	-1
632.484	1	-6
633.671	1	3
634.858	1	9
636.045	1	4
637.232	1	6
638.419	1	3
639.606	1	12
640.793	1	3
641.980	1	0
643.167	1	15
644.354	1	1
645.541	1	-6
646.728	1	3
647.914	1	-7
649.101	1	10
650.288	1	-10
651.474	1	5
652.661	1	0
653.847	1	1
655.034	1	2
656.220	1	7
657.406	1	0
658.593	1	-5
659.779	1	-2
660.965	1	-2
662.152	1	2
663.338	1	2
664.524	1	-4
665.710	1	-4
666.896	1	-8
668.082	1	2
669.268	1	4
670.454	1	-1
671.640	1	-10
672.826	1	-10
674.011	1	11
675.197	1	-5
676.383	1	-3
677.569	1	-1
678.754	1	-5
679.940	1	-2
681.125	1	-4
682.311	1	-4
683.496	1	-11
684.682	1	3
685.867	1	-3
687.053	1	5
688.238	1	7
688.746	1	1