File: Analysis/GaN_68K_200ms/GaN_sample E_spot4_UVVIS_68 K_200um_200 ms 2x2mm1_457.txt
340.368	1	3
341.565	1	-1
342.763	1	8
343.960	1	-10
345.157	1	7
346.354	1	-3
347.552	1	-1
348.749	1	3
349.946	1	0
351.143	1	-6
352.340	1	-7
353.537	1	-5
354.734	1	3
355.931	1	1
357.127	1	4
358.324	1	-8
359.521	1	-2
360.718	1	1
361.914	1	-3
363.111	1	5
364.308	1	7
365.504	1	1
366.701	1	-9
367.897	1	15
369.093	1	6
370.290	1	0
371.486	1	4
372.682	1	3
373.879	1	13
375.075	1	9
376.271	1	0
377.467	1	-1
378.663	1	-6
379.859	1	-8
381.055	1	4
382.251	1	-1
383.447	1	14
384.643	1	13
385.839	1	4
387.035	1	5
388.230	1	6
389.426	1	12
390.622	1	-5
391.817	1	4
393.013	1	3
394.208	1	13
395.404	1	-1
396.599	1	11
397.795	1	10
398.990	1	5
400.186	1	17
401.381	1	4
402.576	1	6
403.771	1	9
404.967	1	0
406.162	1	1
407.357	1	4
408.552	1	15
409.747	1	-5
410.942	1	4
412.137	1	17
413.332	1	7
414.526	1	8
415.721	1	8
416.916	1	-4
418.111	1	-1
419.305	1	-2
420.500	1	7
421.695	1	4
422.889	1	1
424.084	1	4
425.278	1	-10
426.472	1	-3
427.667	1	10
428.861	1	6
430.055	1	4
431.250	1	-8
432.444	1	7
433.638	1	2
434.832	1	-4
436.026	1	11
437.220	1	7
438.414	1	9
439.608	1	11
440.802	1	12
441.996	1	8
443.190	1	-15
444.384	1	11
445.578	1	-2
446.771	1	1
447.965	1	-2
449.159	1	-5
450.352	1	8
451.546	1	6
452.739	1	2
453.933	1	4
455.126	1	-6
456.320	1	1
457.513	1	10
458.706	1	2
459.899	1	3
461.093	1	3
462.286	1	12
463.479	1	20
464.672	1	0
465.865	1	3
467.058	1	12
468.251	1	8
469.444	1	-3
470.637	1	14
471.830	1	8
473.023	1	-1
474.215	1	2
475.408	1	2
476.601	1	0
477.793	1	2
478.986	1	-4
480.179	1	-1
481.371	1	7
482.564	1	-13
483.756	1	4
484.948	1	-2
486.141	1	-5
487.333	1	12
488.525	1	1
489.718	1	-5
490.910	1	-2
492.102	1	-4
493.294	1	2
494.486	1	6
495.678	1	12
496.870	1	-6
498.062	1	1
499.254	1	3
500.446	1	11
501.638	1	6
502.829	1	0
504.021	1	21
505.213	1	4
506.404	1	4
507.596	1	4
508.788	1	1
509.979	1	4
511.171	1	13
512.362	1	1
513.553	1	-6
514.745	1	6
515.936	1	2
517.127	1	2
518.319	1	-2
519.510	1	-6
520.701	1	6
521.892	1	0
523.083	1	-4
524.274	1	-3
525.465	1	-5
526.656	1	13
527.847	1	-1
529.038	1	-5
530.229	1	3
531.419	1	4
532.610	1	2
533.801	1	1
534.991	1	1
536.182	1	3
537.373	1	1
538.563	1	4
539.754	1	-2
540.944	1	-7
542.134	1	3
543.325	1	-3
544.515	1	0
545.705	1	10
546.896	1	-3
548.086	1	12
549.276	1	7
550.466	1	-3
551.656	1	-6
552.846	1	11
554.036	1	9
555.226	1	-14
556.416	1	8
557.606	1	-3
558.796	1	1
559.986	1	-1
561.175	1	-1
562.365	1	1
563.555	1	7
564.744	1	11
565.934	1	6
567.123	1	25
568.313	1	-5
569.502	1	8
570.692	1	7
571.881	1	3
573.070	1	10
574.260	1	-4
575.449	1	4
576.638	1	-7
577.827	1	11
579.016	1	11
580.205	1	-2
581.394	1	1
582.583	1	-13
583.772	1	-4
584.961	1	-5
586.150	1	3
587.339	1	-4
588.528	1	-3
589.717	1	-2
590.905	1	3
592.094	1	-1
593.283	1	7
594.471	1	10
595.660	1	-6
596.848	1	6
598.037	1	-2
599.225	1	-7
600.413	1	-4
601.602	1	1
602.790	1	0
603.978	1	-2
605.166	1	-12
606.355	1	14
607.543	1	2
608.731	1	-12
609.919	1	-8
611.107	1	7
612.295	1	-6
613.483	1	7
614.671	1	-2
615.858	1	7
617.046	1	0
618.234	1	-8
619.422	1	-2
620.609	1	6
621.797	1	12
622.985	1	7
624.172	1	1
625.360	1	-5
626.547	1	8
627.735	1	-4
628.922	1	-3
630.109	1	-9
631.297	1	-8
632.484	1	-1
633.671	1	2
634.858	1	8
636.045	1	-3
637.232	1	-9
638.419	1	3
639.606	1	19
640.793	1	17
641.980	1	6
643.167	1	15
644.354	1	2
645.541	1	-8
646.728	1	9
647.914	1	-7
649.101	1	4
650.288	1	3
651.474	1	7
652.661	1	4
653.847	1	7
655.034	1	2
656.220	1	4
657.406	1	6
658.593	1	-8
659.779	1	-3
660.965	1	1
662.152	1	7
663.338	1	-2
664.524	1	-5
665.710	1	1
666.896	1	-3
668.082	1	-6
669.268	1	1
670.454	1	1
671.640	1	-17
672.826	1	-11
674.011	1	10
675.197	1	-3
676.383	1	-7
677.569	1	-10
678.754	1	4
679.940	1	-5
681.125	1	3
682.311	1	-2
683.496	1	-1
684.682	1	-2
685.867	1	-3
687.053	1	6
688.238	1	5
688.746	1	11