File: Analysis/GaN_68K_200ms/GaN_sample E_spot4_UVVIS_68 K_200um_200 ms 2x2mm1_193.txt
340.368	1	2
341.565	1	-13
342.763	1	7
343.960	1	2
345.157	1	15
346.354	1	6
347.552	1	5
348.749	1	4
349.946	1	13
351.143	1	-5
352.340	1	-5
353.537	1	12
354.734	1	-6
355.931	1	4
357.127	1	7
358.324	1	8
359.521	1	11
360.718	1	2
361.914	1	10
363.111	1	16
364.308	1	11
365.504	1	14
366.701	1	22
367.897	1	23
369.093	1	23
370.290	1	14
371.486	1	22
372.682	1	7
373.879	1	17
375.075	1	20
376.271	1	2
377.467	1	1
378.663	1	10
379.859	1	-5
381.055	1	12
382.251	1	9
383.447	1	14
384.643	1	19
385.839	1	31
387.035	1	38
388.230	1	22
389.426	1	27
390.622	1	15
391.817	1	22
393.013	1	24
394.208	1	29
395.404	1	31
396.599	1	27
397.795	1	26
398.990	1	24
400.186	1	23
401.381	1	23
402.576	1	24
403.771	1	25
404.967	1	18
406.162	1	15
407.357	1	14
408.552	1	28
409.747	1	15
410.942	1	7
412.137	1	22
413.332	1	12
414.526	1	8
415.721	1	16
416.916	1	12
418.111	1	11
419.305	1	14
420.500	1	10
421.695	1	13
422.889	1	15
424.084	1	14
425.278	1	7
426.472	1	11
427.667	1	14
428.861	1	16
430.055	1	11
431.250	1	-3
432.444	1	16
433.638	1	-1
434.832	1	8
436.026	1	15
437.220	1	6
438.414	1	18
439.608	1	4
440.802	1	6
441.996	1	7
443.190	1	-5
444.384	1	5
445.578	1	12
446.771	1	-3
447.965	1	-1
449.159	1	-2
450.352	1	15
451.546	1	8
452.739	1	3
453.933	1	15
455.126	1	7
456.320	1	7
457.513	1	9
458.706	1	4
459.899	1	16
461.093	1	16
462.286	1	8
463.479	1	16
464.672	1	7
465.865	1	-1
467.058	1	12
468.251	1	5
469.444	1	2
470.637	1	17
471.830	1	14
473.023	1	6
474.215	1	3
475.408	1	0
476.601	1	5
477.793	1	8
478.986	1	7
480.179	1	0
481.371	1	8
482.564	1	-2
483.756	1	12
484.948	1	-7
486.141	1	-9
487.333	1	6
488.525	1	7
489.718	1	1
490.910	1	4
492.102	1	5
493.294	1	16
494.486	1	6
495.678	1	15
496.870	1	6
498.062	1	0
499.254	1	6
500.446	1	9
501.638	1	14
502.829	1	12
504.021	1	30
505.213	1	12
506.404	1	6
507.596	1	20
508.788	1	10
509.979	1	13
511.171	1	12
512.362	1	9
513.553	1	7
514.745	1	15
515.936	1	15
517.127	1	18
518.319	1	10
519.510	1	16
520.701	1	21
521.892	1	13
523.083	1	14
524.274	1	7
525.465	1	24
526.656	1	27
527.847	1	11
529.038	1	24
530.229	1	24
531.419	1	28
532.610	1	19
533.801	1	16
534.991	1	22
536.182	1	15
537.373	1	14
538.563	1	24
539.754	1	9
540.944	1	10
542.134	1	21
543.325	1	13
544.515	1	12
545.705	1	28
546.896	1	20
548.086	1	12
549.276	1	17
550.466	1	20
551.656	1	14
552.846	1	9
554.036	1	18
555.226	1	-1
556.416	1	18
557.606	1	3
558.796	1	10
559.986	1	5
561.175	1	14
562.365	1	20
563.555	1	19
564.744	1	16
565.934	1	12
567.123	1	26
568.313	1	10
569.502	1	15
570.692	1	10
571.881	1	14
573.070	1	7
574.260	1	11
575.449	1	14
576.638	1	10
577.827	1	10
579.016	1	24
580.205	1	10
581.394	1	6
582.583	1	4
583.772	1	4
584.961	1	12
586.150	1	12
587.339	1	10
588.528	1	13
589.717	1	7
590.905	1	10
592.094	1	8
593.283	1	14
594.471	1	0
595.660	1	8
596.848	1	12
598.037	1	9
599.225	1	8
600.413	1	4
601.602	1	20
602.790	1	9
603.978	1	6
605.166	1	9
606.355	1	15
607.543	1	-7
608.731	1	-4
609.919	1	-4
611.107	1	14
612.295	1	12
613.483	1	5
614.671	1	6
615.858	1	16
617.046	1	3
618.234	1	9
619.422	1	-3
620.609	1	1
621.797	1	2
622.985	1	6
624.172	1	12
625.360	1	0
626.547	1	14
627.735	1	10
628.922	1	1
630.109	1	-1
631.297	1	5
632.484	1	-3
633.671	1	5
634.858	1	13
636.045	1	0
637.232	1	7
638.419	1	16
639.606	1	10
640.793	1	12
641.980	1	-5
643.167	1	15
644.354	1	9
645.541	1	-6
646.728	1	11
647.914	1	-4
649.101	1	7
650.288	1	11
651.474	1	13
652.661	1	7
653.847	1	5
655.034	1	2
656.220	1	-1
657.406	1	7
658.593	1	-2
659.779	1	-17
660.965	1	9
662.152	1	6
663.338	1	-2
664.524	1	-8
665.710	1	1
666.896	1	3
668.082	1	1
669.268	1	4
670.454	1	15
671.640	1	-7
672.826	1	-3
674.011	1	1
675.197	1	3
676.383	1	2
677.569	1	-10
678.754	1	2
679.940	1	2
681.125	1	2
682.311	1	4
683.496	1	0
684.682	1	4
685.867	1	8
687.053	1	7
688.238	1	5
688.746	1	7